wavelength(nm)         real         imag
100.00   3.73849031   0.00154337
102.00   3.73196594   0.00163783
104.00   3.72531243   0.00173607
106.00   3.71852977   0.00183816
108.00   3.71161796   0.00194417
110.00   3.70457703   0.00205419
112.00   3.69740696   0.00216828
114.00   3.69010775   0.00228651
116.00   3.68267942   0.00240897
118.00   3.67512197   0.00253572
120.00   3.66743540   0.00266684
122.00   3.65961970   0.00280240
124.00   3.65167490   0.00294248
126.00   3.64360098   0.00308716
128.00   3.63539795   0.00323650
130.00   3.62706583   0.00339057
132.00   3.61860460   0.00354946
134.00   3.61001427   0.00371324
136.00   3.60129486   0.00388198
138.00   3.59244635   0.00405576
140.00   3.58346876   0.00423464
142.00   3.57436209   0.00441871
144.00   3.56512634   0.00460803
146.00   3.55576152   0.00480269
148.00   3.54626763   0.00500275
150.00   3.53664468   0.00520828
152.00   3.52689266   0.00541938
154.00   3.51701159   0.00563609
156.00   3.50700147   0.00585851
158.00   3.49686230   0.00608671
160.00   3.48659409   0.00632075
162.00   3.47619684   0.00656071
164.00   3.46567055   0.00680668
166.00   3.45501524   0.00705871
168.00   3.44423090   0.00731688
170.00   3.43331754   0.00758128
172.00   3.42227517   0.00785196
174.00   3.41110379   0.00812901
176.00   3.39980340   0.00841251
178.00   3.38837401   0.00870251
180.00   3.37681562   0.00899910
182.00   3.36512825   0.00930236
184.00   3.35331189   0.00961235
186.00   3.34136655   0.00992914
188.00   3.32929223   0.01025283
190.00   3.31708895   0.01058346
192.00   3.30475670   0.01092113
194.00   3.29229549   0.01126591
196.00   3.27970533   0.01161786
198.00   3.26698622   0.01197706
200.00   3.25413817   0.01234359
202.00   3.24116119   0.01271752
204.00   3.22805527   0.01309892
206.00   3.21482042   0.01348788
208.00   3.20145666   0.01388445
210.00   3.18796398   0.01428872
212.00   3.17434240   0.01470075
214.00   3.16059191   0.01512063
216.00   3.14671253   0.01554843
218.00   3.13270426   0.01598421
220.00   3.11856711   0.01642806
222.00   3.10430108   0.01688005
224.00   3.08990617   0.01734025
226.00   3.07538241   0.01780873
228.00   3.06072978   0.01828557
230.00   3.04594830   0.01877085
232.00   3.03103798   0.01926463
234.00   3.01599882   0.01976699
236.00   3.00083082   0.02027801
238.00   2.98553400   0.02079775
240.00   2.97010836   0.02132630
242.00   2.95455391   0.02186372
244.00   2.93887065   0.02241009
246.00   2.92305860   0.02296548
248.00   2.90711775   0.02352997
250.00   2.89104812   0.02410363
252.00   2.87484971   0.02468653
254.00   2.85852253   0.02527875
256.00   2.84206658   0.02588036
258.00   2.82548188   0.02649143
260.00   2.80876844   0.02711204
262.00   2.79192624   0.02774226
264.00   2.77495532   0.02838217
266.00   2.75785567   0.02903184
268.00   2.74062730   0.02969134
270.00   2.72327021   0.03036075
272.00   2.70578443   0.03104013
274.00   2.68816994   0.03172957
276.00   2.67042677   0.03242914
278.00   2.65255491   0.03313891
280.00   2.63455439   0.03385895
282.00   2.61642519   0.03458934
284.00   2.59816734   0.03533015
286.00   2.57978084   0.03608145
288.00   2.56126570   0.03684332
290.00   2.54262193   0.03761584
292.00   2.52384953   0.03839907
294.00   2.50494851   0.03919309
296.00   2.48591888   0.03999797
298.00   2.46676066   0.04081379
300.00   2.44747384   0.04164062
302.00   2.42805843   0.04247853
304.00   2.40851446   0.04332759
306.00   2.38884191   0.04418789
308.00   2.36904081   0.04505949
310.00   2.34911116   0.04594247
312.00   2.32905297   0.04683689
314.00   2.30886624   0.04774284
316.00   2.28855099   0.04866039
318.00   2.26810723   0.04958961
320.00   2.24753497   0.05053057
322.00   2.22683420   0.05148335
324.00   2.20600495   0.05244802
326.00   2.18504723   0.05342465
328.00   2.16396103   0.05441332
330.00   2.14274637   0.05541410
332.00   2.12140326   0.05642707
334.00   2.09993171   0.05745229
336.00   2.07833173   0.05848985
338.00   2.05660333   0.05953981
340.00   2.03474652   0.06060224
342.00   2.01276130   0.06167723
344.00   1.99064769   0.06276484
346.00   1.96840569   0.06386515
348.00   1.94603532   0.06497823
350.00   1.92353658   0.06610416
352.00   1.90090949   0.06724300
354.00   1.87815406   0.06839483
356.00   1.85527029   0.06955972
358.00   1.83225819   0.07073775
360.00   1.80911779   0.07192900
362.00   1.78584907   0.07313352
364.00   1.76245206   0.07435141
366.00   1.73892677   0.07558272
368.00   1.71527320   0.07682753
370.00   1.69149137   0.07808592
372.00   1.66758129   0.07935797
374.00   1.64354296   0.08064373
376.00   1.61937640   0.08194329
378.00   1.59508162   0.08325672
380.00   1.57065863   0.08458409
382.00   1.54610744   0.08592547
384.00   1.52142805   0.08728095
386.00   1.49662049   0.08865058
388.00   1.47168476   0.09003445
390.00   1.44662088   0.09143263
392.00   1.42142884   0.09284519
394.00   1.39610867   0.09427220
396.00   1.37066038   0.09571374
398.00   1.34508397   0.09716987
400.00   1.31937946   0.09864068
402.00   1.29354686   0.10012624
404.00   1.26758618   0.10162662
406.00   1.24149744   0.10314188
408.00   1.21528063   0.10467211
410.00   1.18893578   0.10621738
412.00   1.16246290   0.10777776
414.00   1.13586199   0.10935333
416.00   1.10913307   0.11094415
418.00   1.08227616   0.11255030
420.00   1.05529125   0.11417185
422.00   1.02817837   0.11580888
424.00   1.00093753   0.11746145
426.00   0.97356873   0.11912965
428.00   0.94607200   0.12081354
430.00   0.91844733   0.12251320
432.00   0.89069475   0.12422869
434.00   0.86281427   0.12596010
436.00   0.83480590   0.12770750
438.00   0.80666964   0.12947095
440.00   0.77840552   0.13125054
442.00   0.75001354   0.13304633
444.00   0.72149372   0.13485839
446.00   0.69284607   0.13668681
448.00   0.66407061   0.13853164
450.00   0.63516733   0.14039297
452.00   0.60613627   0.14227087
454.00   0.57697743   0.14416541
456.00   0.54769081   0.14607666
458.00   0.51827645   0.14800470
460.00   0.48873434   0.14994960
462.00   0.45906450   0.15191143
464.00   0.42926695   0.15389026
466.00   0.39934170   0.15588616
468.00   0.36928875   0.15789922
470.00   0.33910813   0.15992950
472.00   0.30879985   0.16197707
474.00   0.27836391   0.16404201
476.00   0.24780034   0.16612439
478.00   0.21710915   0.16822428
480.00   0.18629034   0.17034176
482.00   0.15534394   0.17247689
484.00   0.12426995   0.17462975
486.00   0.09306840   0.17680041
488.00   0.06173928   0.17898895
490.00   0.03028263   0.18119544
492.00  -0.00130156   0.18341994
494.00  -0.03301325   0.18566254
496.00  -0.06485245   0.18792330
498.00  -0.09681914   0.19020230
500.00  -0.12891330   0.19249961
502.00  -0.16113493   0.19481530
504.00  -0.19348399   0.19714945
506.00  -0.22596049   0.19950212
508.00  -0.25856441   0.20187339
510.00  -0.29129573   0.20426333
512.00  -0.32415443   0.20667202
514.00  -0.35714052   0.20909952
516.00  -0.39025396   0.21154591
518.00  -0.42349475   0.21401126
520.00  -0.45686287   0.21649565
522.00  -0.49035830   0.21899914
524.00  -0.52398104   0.22152180
526.00  -0.55773107   0.22406372
528.00  -0.59160837   0.22662496
530.00  -0.62561293   0.22920559
532.00  -0.65974473   0.23180569
534.00  -0.69400376   0.23442533
536.00  -0.72839001   0.23706458
538.00  -0.76290345   0.23972351
540.00  -0.79754408   0.24240220
542.00  -0.83231187   0.24510072
544.00  -0.86720682   0.24781913
546.00  -0.90222891   0.25055752
548.00  -0.93737812   0.25331595
550.00  -0.97265444   0.25609449
552.00  -1.00805785   0.25889322
554.00  -1.04358834   0.26171222
556.00  -1.07924589   0.26455154
558.00  -1.11503049   0.26741127
560.00  -1.15094212   0.27029148
562.00  -1.18698076   0.27319223
564.00  -1.22314640   0.27611360
566.00  -1.25943903   0.27905567
568.00  -1.29585862   0.28201850
570.00  -1.33240517   0.28500216
572.00  -1.36907865   0.28800673
574.00  -1.40587905   0.29103229
576.00  -1.44280636   0.29407889
578.00  -1.47986055   0.29714662
580.00  -1.51704162   0.30023554
582.00  -1.55434955   0.30334573
584.00  -1.59178431   0.30647726
586.00  -1.62934590   0.30963020
588.00  -1.66703429   0.31280462
590.00  -1.70484948   0.31600059
592.00  -1.74279144   0.31921820
594.00  -1.78086015   0.32245750
596.00  -1.81905561   0.32571857
598.00  -1.85737780   0.32900148
600.00  -1.89582669   0.33230630
602.00  -1.93440227   0.33563311
604.00  -1.97310453   0.33898197
606.00  -2.01193345   0.34235297
608.00  -2.05088901   0.34574616
610.00  -2.08997119   0.34916162
612.00  -2.12917998   0.35259943
614.00  -2.16851536   0.35605965
616.00  -2.20797732   0.35954236
618.00  -2.24756583   0.36304762
620.00  -2.28728088   0.36657552
622.00  -2.32712245   0.37012611
624.00  -2.36709052   0.37369948
626.00  -2.40718508   0.37729569
628.00  -2.44740612   0.38091481
630.00  -2.48775360   0.38455693
632.00  -2.52822752   0.38822210
634.00  -2.56882786   0.39191040
636.00  -2.60955459   0.39562190
638.00  -2.65040771   0.39935667
640.00  -2.69138719   0.40311479
642.00  -2.73249302   0.40689632
644.00  -2.77372518   0.41070134
646.00  -2.81508365   0.41452992
648.00  -2.85656841   0.41838212
650.00  -2.89817945   0.42225803
652.00  -2.93991674   0.42615771
654.00  -2.98178028   0.43008123
656.00  -3.02377003   0.43402866
658.00  -3.06588599   0.43800008
660.00  -3.10812813   0.44199556
662.00  -3.15049643   0.44601516
664.00  -3.19299089   0.45005896
666.00  -3.23561147   0.45412704
668.00  -3.27835816   0.45821945
670.00  -3.32123095   0.46233628
672.00  -3.36422981   0.46647759
674.00  -3.40735473   0.47064345
676.00  -3.45060568   0.47483394
678.00  -3.49398265   0.47904913
680.00  -3.53748562   0.48328908
682.00  -3.58111456   0.48755388
684.00  -3.62486947   0.49184358
686.00  -3.66875033   0.49615826
688.00  -3.71275710   0.50049800
690.00  -3.75688978   0.50486286
692.00  -3.80114834   0.50925291
694.00  -3.84553278   0.51366822
696.00  -3.89004305   0.51810887
698.00  -3.93467916   0.52257493
700.00  -3.97944107   0.52706647
702.00  -4.02432877   0.53158355
704.00  -4.06934225   0.53612625
706.00  -4.11448147   0.54069464
708.00  -4.15974642   0.54528879
710.00  -4.20513708   0.54990877
712.00  -4.25065344   0.55455465
714.00  -4.29629546   0.55922651
716.00  -4.34206314   0.56392441
718.00  -4.38795645   0.56864842
720.00  -4.43397537   0.57339862
722.00  -4.48011989   0.57817507
724.00  -4.52638998   0.58297785
726.00  -4.57278562   0.58780703
728.00  -4.61930679   0.59266267
730.00  -4.66595347   0.59754485
732.00  -4.71272565   0.60245363
734.00  -4.75962330   0.60738910
736.00  -4.80664640   0.61235132
738.00  -4.85379493   0.61734035
740.00  -4.90106887   0.62235628
742.00  -4.94846821   0.62739916
744.00  -4.99599291   0.63246908
746.00  -5.04364297   0.63756610
748.00  -5.09141835   0.64269029
750.00  -5.13931904   0.64784172
752.00  -5.18734502   0.65302046
754.00  -5.23549626   0.65822659
756.00  -5.28377276   0.66346017
758.00  -5.33217447   0.66872128
760.00  -5.38070140   0.67400998
762.00  -5.42935350   0.67932634
764.00  -5.47813077   0.68467044
766.00  -5.52703318   0.69004234
768.00  -5.57606071   0.69544212
770.00  -5.62521334   0.70086984
772.00  -5.67449105   0.70632557
774.00  -5.72389381   0.71180940
776.00  -5.77342161   0.71732137
778.00  -5.82307443   0.72286158
780.00  -5.87285224   0.72843008
782.00  -5.92275501   0.73402694
784.00  -5.97278274   0.73965224
786.00  -6.02293540   0.74530605
788.00  -6.07321296   0.75098843
790.00  -6.12361541   0.75669945
792.00  -6.17414273   0.76243920
794.00  -6.22479488   0.76820772
796.00  -6.27557185   0.77400511
798.00  -6.32647362   0.77983142
800.00  -6.37750017   0.78568672
802.00  -6.42865147   0.79157109
804.00  -6.47992751   0.79748460
806.00  -6.53132825   0.80342730
808.00  -6.58285368   0.80939929
810.00  -6.63450377   0.81540062
812.00  -6.68627851   0.82143136
814.00  -6.73817787   0.82749159
816.00  -6.79020183   0.83358137
818.00  -6.84235037   0.83970077
820.00  -6.89462346   0.84584986
822.00  -6.94702108   0.85202872
824.00  -6.99954321   0.85823741
826.00  -7.05218982   0.86447601
828.00  -7.10496090   0.87074457
830.00  -7.15785642   0.87704317
832.00  -7.21087636   0.88337189
834.00  -7.26402069   0.88973078
836.00  -7.31728939   0.89611993
838.00  -7.37068245   0.90253939
840.00  -7.42419983   0.90898924
842.00  -7.47784152   0.91546955
844.00  -7.53160748   0.92198039
846.00  -7.58549770   0.92852182
848.00  -7.63951216   0.93509392
850.00  -7.69365083   0.94169676
852.00  -7.74791368   0.94833040
854.00  -7.80230070   0.95499491
856.00  -7.85681186   0.96169037
858.00  -7.91144714   0.96841684
860.00  -7.96620651   0.97517439
862.00  -8.02108996   0.98196309
864.00  -8.07609745   0.98878301
866.00  -8.13122896   0.99563423
868.00  -8.18648447   1.00251680
870.00  -8.24186396   1.00943079
872.00  -8.29736740   1.01637629
874.00  -8.35299477   1.02335335
876.00  -8.40874605   1.03036204
878.00  -8.46462120   1.03740244
880.00  -8.52062022   1.04447461
882.00  -8.57674306   1.05157863
884.00  -8.63298971   1.05871455
886.00  -8.68936015   1.06588245
888.00  -8.74585435   1.07308241
890.00  -8.80247228   1.08031448
892.00  -8.85921392   1.08757873
894.00  -8.91607926   1.09487525
896.00  -8.97306825   1.10220408
898.00  -9.03018088   1.10956531
900.00  -9.08741713   1.11695900
902.00  -9.14477697   1.12438522
904.00  -9.20226037   1.13184404
906.00  -9.25986731   1.13933553
908.00  -9.31759777   1.14685976
910.00  -9.37545172   1.15441679
912.00  -9.43342913   1.16200669
914.00  -9.49152999   1.16962954
916.00  -9.54975426   1.17728540
918.00  -9.60810192   1.18497433
920.00  -9.66657295   1.19269642
922.00  -9.72516733   1.20045172
924.00  -9.78388501   1.20824031
926.00  -9.84272599   1.21606225
928.00  -9.90169023   1.22391762
930.00  -9.96077772   1.23180647
932.00 -10.01998842   1.23972889
934.00 -10.07932231   1.24768493
936.00 -10.13877936   1.25567466
938.00 -10.19835956   1.26369816
940.00 -10.25806287   1.27175550
942.00 -10.31788926   1.27984673
944.00 -10.37783872   1.28797194
946.00 -10.43791121   1.29613118
948.00 -10.49810672   1.30432452
950.00 -10.55842521   1.31255204
952.00 -10.61886666   1.32081380
954.00 -10.67943105   1.32910988
956.00 -10.74011834   1.33744032
958.00 -10.80092852   1.34580522
960.00 -10.86186155   1.35420463
962.00 -10.92291741   1.36263862
964.00 -10.98409607   1.37110727
966.00 -11.04539751   1.37961063
968.00 -11.10682171   1.38814877
970.00 -11.16836863   1.39672178
972.00 -11.23003824   1.40532970
974.00 -11.29183053   1.41397261
976.00 -11.35374547   1.42265059
978.00 -11.41578303   1.43136368
980.00 -11.47794318   1.44011197
982.00 -11.54022589   1.44889553
984.00 -11.60263115   1.45771441
986.00 -11.66515892   1.46656869
988.00 -11.72780918   1.47545843
990.00 -11.79058189   1.48438371
992.00 -11.85347704   1.49334458
994.00 -11.91649460   1.50234112
996.00 -11.97963454   1.51137340
998.00 -12.04289683   1.52044148
1000.00 -12.10628144   1.52954544
1002.00 -12.16978835   1.53868533
1004.00 -12.23341754   1.54786122
1006.00 -12.29716897   1.55707319
1008.00 -12.36104261   1.56632130
1010.00 -12.42503845   1.57560562
1012.00 -12.48915645   1.58492621
1014.00 -12.55339658   1.59428314
1016.00 -12.61775883   1.60367649
1018.00 -12.68224315   1.61310631
1020.00 -12.74684953   1.62257268
1022.00 -12.81157793   1.63207566
1024.00 -12.87642833   1.64161532
1026.00 -12.94140070   1.65119173
1028.00 -13.00649501   1.66080494
1030.00 -13.07171124   1.67045504
1032.00 -13.13704935   1.68014209
1034.00 -13.20250933   1.68986616
1036.00 -13.26809113   1.69962730
1038.00 -13.33379474   1.70942560
1040.00 -13.39962013   1.71926111
1042.00 -13.46556726   1.72913391
1044.00 -13.53163611   1.73904405
1046.00 -13.59782666   1.74899162
1048.00 -13.66413886   1.75897667
1050.00 -13.73057271   1.76899927
1052.00 -13.79712815   1.77905949
1054.00 -13.86380518   1.78915739
1056.00 -13.93060376   1.79929304
1058.00 -13.99752386   1.80946652
1060.00 -14.06456545   1.81967788
1062.00 -14.13172851   1.82992719
1064.00 -14.19901300   1.84021452
1066.00 -14.26641891   1.85053994
1068.00 -14.33394619   1.86090351
1070.00 -14.40159482   1.87130530
1072.00 -14.46936477   1.88174538
1074.00 -14.53725602   1.89222380
1076.00 -14.60526853   1.90274065
1078.00 -14.67340227   1.91329598
1080.00 -14.74165722   1.92388987
1082.00 -14.81003335   1.93452237
1084.00 -14.87853063   1.94519356
1086.00 -14.94714902   1.95590350
1088.00 -15.01588851   1.96665226
1090.00 -15.08474905   1.97743990
1092.00 -15.15373063   1.98826649
1094.00 -15.22283321   1.99913210
1096.00 -15.29205676   2.01003679
1098.00 -15.36140126   2.02098064
1100.00 -15.43086667   2.03196370
1102.00 -15.50045297   2.04298604
1104.00 -15.57016012   2.05404773
1106.00 -15.63998810   2.06514883
1108.00 -15.70993687   2.07628941
1110.00 -15.78000641   2.08746955
1112.00 -15.85019668   2.09868929
1114.00 -15.92050767   2.10994871
1116.00 -15.99093933   2.12124788
1118.00 -16.06149164   2.13258686
1120.00 -16.13216456   2.14396571
1122.00 -16.20295807   2.15538451
1124.00 -16.27387214   2.16684332
1126.00 -16.34490674   2.17834220
1128.00 -16.41606184   2.18988122
1130.00 -16.48733740   2.20146045
1132.00 -16.55873340   2.21307995
1134.00 -16.63024981   2.22473979
1136.00 -16.70188659   2.23644003
1138.00 -16.77364372   2.24818074
1140.00 -16.84552117   2.25996199
1142.00 -16.91751890   2.27178384
1144.00 -16.98963689   2.28364635
1146.00 -17.06187510   2.29554960
1148.00 -17.13423350   2.30749364
1150.00 -17.20671207   2.31947855
1152.00 -17.27931078   2.33150438
1154.00 -17.35202958   2.34357121
1156.00 -17.42486846   2.35567910
1158.00 -17.49782737   2.36782811
1160.00 -17.57090630   2.38001832
1162.00 -17.64410520   2.39224978
1164.00 -17.71742406   2.40452256
1166.00 -17.79086283   2.41683673
1168.00 -17.86442149   2.42919235
1170.00 -17.93810000   2.44158948
1172.00 -18.01189833   2.45402820
1174.00 -18.08581646   2.46650857
1176.00 -18.15985435   2.47903065
1178.00 -18.23401197   2.49159451
1180.00 -18.30828929   2.50420021
1182.00 -18.38268628   2.51684782
1184.00 -18.45720290   2.52953740
1186.00 -18.53183913   2.54226902
1188.00 -18.60659493   2.55504274
1190.00 -18.68147027   2.56785863
1192.00 -18.75646512   2.58071675
1194.00 -18.83157946   2.59361717
1196.00 -18.90681323   2.60655996
1198.00 -18.98216643   2.61954517
1200.00 -19.05763901   2.63257288
1202.00 -19.13323093   2.64564314
1204.00 -19.20894218   2.65875602
1206.00 -19.28477272   2.67191159
1208.00 -19.36072251   2.68510992
1210.00 -19.43679153   2.69835106
1212.00 -19.51297974   2.71163508
1214.00 -19.58928711   2.72496204
1216.00 -19.66571360   2.73833202
1218.00 -19.74225919   2.75174507
1220.00 -19.81892385   2.76520125
1222.00 -19.89570754   2.77870065
1224.00 -19.97261022   2.79224331
1226.00 -20.04963187   2.80582930
1228.00 -20.12677246   2.81945869
1230.00 -20.20403194   2.83313154
1232.00 -20.28141030   2.84684792
1234.00 -20.35890749   2.86060789
1236.00 -20.43652349   2.87441151
1238.00 -20.51425826   2.88825885
1240.00 -20.59211176   2.90214997
1242.00 -20.67008398   2.91608494
1244.00 -20.74817486   2.93006382
1246.00 -20.82638439   2.94408668
1248.00 -20.90471252   2.95815358
1250.00 -20.98315923   2.97226458
1252.00 -21.06172448   2.98641974
1254.00 -21.14040824   3.00061914
1256.00 -21.21921047   3.01486283
1258.00 -21.29813115   3.02915089
1260.00 -21.37717023   3.04348336
1262.00 -21.45632769   3.05786033
1264.00 -21.53560350   3.07228184
1266.00 -21.61499761   3.08674797
1268.00 -21.69451000   3.10125878
1270.00 -21.77414064   3.11581433
1272.00 -21.85388948   3.13041469
1274.00 -21.93375650   3.14505992
1276.00 -22.01374166   3.15975008
1278.00 -22.09384493   3.17448524
1280.00 -22.17406628   3.18926545
1282.00 -22.25440567   3.20409080
1284.00 -22.33486307   3.21896133
1286.00 -22.41543844   3.23387711
1288.00 -22.49613175   3.24883821
1290.00 -22.57694297   3.26384469
1292.00 -22.65787206   3.27889660
1294.00 -22.73891900   3.29399403
1296.00 -22.82008373   3.30913702
1298.00 -22.90136624   3.32432564
1300.00 -22.98276649   3.33955996
1302.00 -23.06428444   3.35484004
1304.00 -23.14592006   3.37016594
1306.00 -23.22767331   3.38553772
1308.00 -23.30954416   3.40095546
1310.00 -23.39153259   3.41641920
1312.00 -23.47363854   3.43192902
1314.00 -23.55586199   3.44748498
1316.00 -23.63820290   3.46308713
1318.00 -23.72066125   3.47873555
1320.00 -23.80323699   3.49443030
1322.00 -23.88593008   3.51017143
1324.00 -23.96874051   3.52595902
1326.00 -24.05166822   3.54179313
1328.00 -24.13471319   3.55767381
1330.00 -24.21787539   3.57360113
1332.00 -24.30115477   3.58957516
1334.00 -24.38455130   3.60559595
1336.00 -24.46806495   3.62166357
1338.00 -24.55169568   3.63777808
1340.00 -24.63544346   3.65393955
1342.00 -24.71930825   3.67014804
1344.00 -24.80329002   3.68640360
1346.00 -24.88738873   3.70270631
1348.00 -24.97160435   3.71905622
1350.00 -25.05593684   3.73545340
1352.00 -25.14038617   3.75189791
1354.00 -25.22495230   3.76838981
1356.00 -25.30963520   3.78492917
1358.00 -25.39443482   3.80151604
1360.00 -25.47935115   3.81815049
1362.00 -25.56438413   3.83483259
1364.00 -25.64953374   3.85156239
1366.00 -25.73479994   3.86833995
1368.00 -25.82018270   3.88516534
1370.00 -25.90568197   3.90203863
1372.00 -25.99129773   3.91895986
1374.00 -26.07702993   3.93592911
1376.00 -26.16287855   3.95294644
1378.00 -26.24884354   3.97001191
1380.00 -26.33492487   3.98712557
1382.00 -26.42112250   4.00428750
1384.00 -26.50743641   4.02149776
1386.00 -26.59386654   4.03875640
1388.00 -26.68041288   4.05606349
1390.00 -26.76707537   4.07341909
1392.00 -26.85385399   4.09082327
1394.00 -26.94074870   4.10827607
1396.00 -27.02775945   4.12577758
1398.00 -27.11488623   4.14332784
1400.00 -27.20212899   4.16092691
1402.00 -27.28948768   4.17857487
1404.00 -27.37696229   4.19627178
1406.00 -27.46455277   4.21401768
1408.00 -27.55225908   4.23181266
1410.00 -27.64008119   4.24965675
1412.00 -27.72801907   4.26755004
1414.00 -27.81607267   4.28549258
1416.00 -27.90424195   4.30348443
1418.00 -27.99252689   4.32152565
1420.00 -28.08092745   4.33961631
1422.00 -28.16944358   4.35775646
1424.00 -28.25807526   4.37594616
1426.00 -28.34682244   4.39418549
1428.00 -28.43568509   4.41247449
1430.00 -28.52466317   4.43081324
1432.00 -28.61375665   4.44920178
1434.00 -28.70296549   4.46764019
1436.00 -28.79228964   4.48612853
1438.00 -28.88172909   4.50466684
1440.00 -28.97128377   4.52325520
1442.00 -29.06095367   4.54189367
1444.00 -29.15073874   4.56058231
1446.00 -29.24063895   4.57932117
1448.00 -29.33065425   4.59811033
1450.00 -29.42078462   4.61694983
1452.00 -29.51103001   4.63583975
1454.00 -29.60139038   4.65478013
1456.00 -29.69186571   4.67377105
1458.00 -29.78245594   4.69281256
1460.00 -29.87316105   4.71190473
1462.00 -29.96398100   4.73104761
1464.00 -30.05491575   4.75024126
1466.00 -30.14596526   4.76948575
1468.00 -30.23712949   4.78878114
1470.00 -30.32840841   4.80812748
1472.00 -30.41980197   4.82752484
1474.00 -30.51131015   4.84697328
1476.00 -30.60293290   4.86647285
1478.00 -30.69467018   4.88602362
1480.00 -30.78652197   4.90562565
1482.00 -30.87848821   4.92527900
1484.00 -30.97056887   4.94498373
1486.00 -31.06276392   4.96473990
1488.00 -31.15507331   4.98454757
1490.00 -31.24749701   5.00440679
1492.00 -31.34003498   5.02431764
1494.00 -31.43268717   5.04428016
1496.00 -31.52545357   5.06429443
1498.00 -31.61833411   5.08436049
1500.00 -31.71132877   5.10447842
1502.00 -31.80443751   5.12464826
1504.00 -31.89766029   5.14487008
1506.00 -31.99099707   5.16514394
1508.00 -32.08444781   5.18546991
1510.00 -32.17801248   5.20584803
1512.00 -32.27169103   5.22627836
1514.00 -32.36548343   5.24676098
1516.00 -32.45938964   5.26729594
1518.00 -32.55340961   5.28788329
1520.00 -32.64754332   5.30852310
1522.00 -32.74179072   5.32921542
1524.00 -32.83615177   5.34996033
1526.00 -32.93062644   5.37075787
1528.00 -33.02521469   5.39160810
1530.00 -33.11991647   5.41251109
1532.00 -33.21473174   5.43346689
1534.00 -33.30966048   5.45447557
1536.00 -33.40470264   5.47553718
1538.00 -33.49985817   5.49665178
1540.00 -33.59512705   5.51781943
1542.00 -33.69050924   5.53904019
1544.00 -33.78600468   5.56031413
1546.00 -33.88161335   5.58164129
1548.00 -33.97733520   5.60302174
1550.00 -34.07317020   5.62445554
1552.00 -34.16911831   5.64594274
1554.00 -34.26517948   5.66748341
1556.00 -34.36135368   5.68907760
1558.00 -34.45764087   5.71072538
1560.00 -34.55404101   5.73242679
1562.00 -34.65055405   5.75418191
1564.00 -34.74717997   5.77599079
1566.00 -34.84391871   5.79785349
1568.00 -34.94077025   5.81977006
1570.00 -35.03773453   5.84174057
1572.00 -35.13481153   5.86376507
1574.00 -35.23200119   5.88584363
1576.00 -35.32930349   5.90797630
1578.00 -35.42671838   5.93016314
1580.00 -35.52424582   5.95240421
1582.00 -35.62188577   5.97469956
1584.00 -35.71963819   5.99704926
1586.00 -35.81750305   6.01945337
1588.00 -35.91548029   6.04191194
1590.00 -36.01356989   6.06442502
1592.00 -36.11177180   6.08699269
1594.00 -36.21008598   6.10961500
1596.00 -36.30851239   6.13229200
1598.00 -36.40705098   6.15502376
1600.00 -36.50570173   6.17781032
1602.00 -36.60446459   6.20065176
1604.00 -36.70333952   6.22354813
1606.00 -36.80232648   6.24649948
1608.00 -36.90142543   6.26950588
1610.00 -37.00063632   6.29256738
1612.00 -37.09995913   6.31568404
1614.00 -37.19939380   6.33885592
1616.00 -37.29894029   6.36208307
1618.00 -37.39859857   6.38536556
1620.00 -37.49836860   6.40870344
1622.00 -37.59825033   6.43209677
1624.00 -37.69824373   6.45554561
1626.00 -37.79834875   6.47905001
1628.00 -37.89856535   6.50261004
1630.00 -37.99889349   6.52622574
1632.00 -38.09933313   6.54989719
1634.00 -38.19988423   6.57362442
1636.00 -38.30054675   6.59740752
1638.00 -38.40132065   6.62124652
1640.00 -38.50220588   6.64514149
1642.00 -38.60320241   6.66909248
1644.00 -38.70431019   6.69309956
1646.00 -38.80552919   6.71716277
1648.00 -38.90685936   6.74128219
1650.00 -39.00830065   6.76545786
1652.00 -39.10985304   6.78968984
1654.00 -39.21151648   6.81397818
1656.00 -39.31329092   6.83832296
1658.00 -39.41517632   6.86272421
1660.00 -39.51717265   6.88718201
1662.00 -39.61927987   6.91169640
1664.00 -39.72149792   6.93626745
1666.00 -39.82382677   6.96089521
1668.00 -39.92626638   6.98557974
1670.00 -40.02881671   7.01032109
1672.00 -40.13147771   7.03511932
1674.00 -40.23424934   7.05997449
1676.00 -40.33713156   7.08488665
1678.00 -40.44012434   7.10985587
1680.00 -40.54322762   7.13488220
1682.00 -40.64644136   7.15996569
1684.00 -40.74976553   7.18510640
1686.00 -40.85320008   7.21030439
1688.00 -40.95674497   7.23555971
1690.00 -41.06040016   7.26087243
1692.00 -41.16416560   7.28624259
1694.00 -41.26804126   7.31167026
1696.00 -41.37202709   7.33715549
1698.00 -41.47612305   7.36269833
1700.00 -41.58032909   7.38829885
1702.00 -41.68464518   7.41395709
1704.00 -41.78907128   7.43967312
1706.00 -41.89360733   7.46544700
1708.00 -41.99825330   7.49127877
1710.00 -42.10300915   7.51716849
1712.00 -42.20787483   7.54311623
1714.00 -42.31285030   7.56912203
1716.00 -42.41793552   7.59518595
1718.00 -42.52313044   7.62130805
1720.00 -42.62843503   7.64748839
1722.00 -42.73384924   7.67372701
1724.00 -42.83937303   7.70002398
1726.00 -42.94500635   7.72637935
1728.00 -43.05074917   7.75279318
1730.00 -43.15660143   7.77926552
1732.00 -43.26256311   7.80579643
1734.00 -43.36863414   7.83238596
1736.00 -43.47481450   7.85903417
1738.00 -43.58110414   7.88574112
1740.00 -43.68750301   7.91250686
1742.00 -43.79401108   7.93933144
1744.00 -43.90062830   7.96621493
1746.00 -44.00735462   7.99315737
1748.00 -44.11419001   8.02015883
1750.00 -44.22113442   8.04721935
1752.00 -44.32818780   8.07433900
1754.00 -44.43535013   8.10151782
1756.00 -44.54262134   8.12875588
1758.00 -44.65000140   8.15605323
1760.00 -44.75749026   8.18340992
1762.00 -44.86508789   8.21082601
1764.00 -44.97279423   8.23830155
1766.00 -45.08060925   8.26583660
1768.00 -45.18853291   8.29343122
1770.00 -45.29656514   8.32108545
1772.00 -45.40470593   8.34879936
1774.00 -45.51295521   8.37657300
1776.00 -45.62131295   8.40440642
1778.00 -45.72977911   8.43229968
1780.00 -45.83835364   8.46025283
1782.00 -45.94703649   8.48826593
1784.00 -46.05582762   8.51633903
1786.00 -46.16472700   8.54447219
1788.00 -46.27373457   8.57266546
1790.00 -46.38285029   8.60091890
1792.00 -46.49207412   8.62923256
1794.00 -46.60140601   8.65760649
1796.00 -46.71084593   8.68604075
1798.00 -46.82039382   8.71453539
1800.00 -46.93004964   8.74309048
1802.00 -47.03981335   8.77170605
1804.00 -47.14968490   8.80038218
1806.00 -47.25966425   8.82911890
1808.00 -47.36975136   8.85791628
1810.00 -47.47994618   8.88677437
1812.00 -47.59024867   8.91569322
1814.00 -47.70065879   8.94467289
1816.00 -47.81117648   8.97371343
1818.00 -47.92180170   9.00281490
1820.00 -48.03253442   9.03197734
1822.00 -48.14337458   9.06120082
1824.00 -48.25432215   9.09048539
1826.00 -48.36537707   9.11983109
1828.00 -48.47653930   9.14923800
1830.00 -48.58780881   9.17870615
1832.00 -48.69918553   9.20823560
1834.00 -48.81066944   9.23782641
1836.00 -48.92226048   9.26747863
1838.00 -49.03395861   9.29719231
1840.00 -49.14576379   9.32696751
1842.00 -49.25767597   9.35680428
1844.00 -49.36969510   9.38670267
1846.00 -49.48182115   9.41666274
1848.00 -49.59405406   9.44668454
1850.00 -49.70639379   9.47676813
1852.00 -49.81884030   9.50691355
1854.00 -49.93139355   9.53712086
1856.00 -50.04405348   9.56739011
1858.00 -50.15682005   9.59772137
1860.00 -50.26969321   9.62811467
1862.00 -50.38267294   9.65857008
1864.00 -50.49575916   9.68908764
1866.00 -50.60895185   9.71966741
1868.00 -50.72225096   9.75030944
1870.00 -50.83565644   9.78101379
1872.00 -50.94916824   9.81178051
1874.00 -51.06278633   9.84260964
1876.00 -51.17651065   9.87350126
1878.00 -51.29034116   9.90445539
1880.00 -51.40427782   9.93547211
1882.00 -51.51832057   9.96655146
1884.00 -51.63246938   9.99769349
1886.00 -51.74672421  10.02889826
1888.00 -51.86108499  10.06016582
1890.00 -51.97555169  10.09149623
1892.00 -52.09012427  10.12288953
1894.00 -52.20480267  10.15434577
1896.00 -52.31958686  10.18586502
1898.00 -52.43447678  10.21744731
1900.00 -52.54947239  10.24909271
1902.00 -52.66457364  10.28080127
1904.00 -52.77978049  10.31257304
1906.00 -52.89509290  10.34440807
1908.00 -53.01051082  10.37630641
1910.00 -53.12603419  10.40826812
1912.00 -53.24166298  10.44029324
1914.00 -53.35739714  10.47238184
1916.00 -53.47323663  10.50453396
1918.00 -53.58918139  10.53674965
1920.00 -53.70523139  10.56902896
1922.00 -53.82138657  10.60137195
1924.00 -53.93764689  10.63377868
1926.00 -54.05401230  10.66624918
1928.00 -54.17048276  10.69878352
1930.00 -54.28705823  10.73138174
1932.00 -54.40373865  10.76404389
1934.00 -54.52052398  10.79677004
1936.00 -54.63741417  10.82956022
1938.00 -54.75440918  10.86241450
1940.00 -54.87150895  10.89533292
1942.00 -54.98871346  10.92831553
1944.00 -55.10602264  10.96136239
1946.00 -55.22343645  10.99447354
1948.00 -55.34095484  11.02764904
1950.00 -55.45857778  11.06088895
1952.00 -55.57630521  11.09419330
1954.00 -55.69413708  11.12756215
1956.00 -55.81207335  11.16099556
1958.00 -55.93011397  11.19449358
1960.00 -56.04825890  11.22805624
1962.00 -56.16650809  11.26168362
1964.00 -56.28486149  11.29537575
1966.00 -56.40331906  11.32913269
1968.00 -56.52188074  11.36295449
1970.00 -56.64054650  11.39684120
1972.00 -56.75931628  11.43079287
1974.00 -56.87819004  11.46480955
1976.00 -56.99716774  11.49889130
1978.00 -57.11624932  11.53303816
1980.00 -57.23543473  11.56725018
1982.00 -57.35472394  11.60152742
1984.00 -57.47411689  11.63586993
1986.00 -57.59361354  11.67027775
1988.00 -57.71321383  11.70475093
1990.00 -57.83291773  11.73928954
1992.00 -57.95272519  11.77389361
1994.00 -58.07263615  11.80856319
1996.00 -58.19265058  11.84329835
1998.00 -58.31276842  11.87809913
2000.00 -58.43298963  11.91296557
2002.00 -58.55331415  11.94789773
2004.00 -58.67374195  11.98289566
2006.00 -58.79427298  12.01795941
2008.00 -58.91490718  12.05308903
2010.00 -59.03564451  12.08828457
2012.00 -59.15648492  12.12354608
2014.00 -59.27742838  12.15887361
2016.00 -59.39847481  12.19426721
2018.00 -59.51962419  12.22972693
2020.00 -59.64087647  12.26525281
2022.00 -59.76223158  12.30084492
2024.00 -59.88368950  12.33650329
2026.00 -60.00525016  12.37222798
2028.00 -60.12691353  12.40801904
2030.00 -60.24867955  12.44387652
2032.00 -60.37054818  12.47980046
2034.00 -60.49251937  12.51579093
2036.00 -60.61459308  12.55184795
2038.00 -60.73676924  12.58797160
2040.00 -60.85904782  12.62416191
2042.00 -60.98142877  12.66041893
2044.00 -61.10391204  12.69674272
2046.00 -61.22649758  12.73313332
2048.00 -61.34918535  12.76959078
2050.00 -61.47197529  12.80611515
2052.00 -61.59486736  12.84270649
2054.00 -61.71786151  12.87936484
2056.00 -61.84095770  12.91609024
2058.00 -61.96415587  12.95288275
2060.00 -62.08745597  12.98974242
2062.00 -62.21085796  13.02666930
2064.00 -62.33436180  13.06366343
2066.00 -62.45796742  13.10072486
2068.00 -62.58167479  13.13785365
2070.00 -62.70548385  13.17504984
2072.00 -62.82939456  13.21231348
2074.00 -62.95340686  13.24964462
2076.00 -63.07752072  13.28704330
2078.00 -63.20173608  13.32450959
2080.00 -63.32605289  13.36204351
2082.00 -63.45047111  13.39964513
2084.00 -63.57499069  13.43731449
2086.00 -63.69961157  13.47505165
2088.00 -63.82433371  13.51285664
2090.00 -63.94915706  13.55072951
2092.00 -64.07408157  13.58867033
2094.00 -64.19910720  13.62667912
2096.00 -64.32423389  13.66475595
2098.00 -64.44946160  13.70290086
2100.00 -64.57479028  13.74111390
2102.00 -64.70021988  13.77939511
2104.00 -64.82575034  13.81774455
2106.00 -64.95138163  13.85616225
2108.00 -65.07711369  13.89464828
2110.00 -65.20294647  13.93320268
2112.00 -65.32887993  13.97182550
2114.00 -65.45491401  14.01051677
2116.00 -65.58104867  14.04927656
2118.00 -65.70728386  14.08810491
2120.00 -65.83361953  14.12700187
2122.00 -65.96005563  14.16596748
2124.00 -66.08659211  14.20500180
2126.00 -66.21322892  14.24410486
2128.00 -66.33996602  14.28327672
2130.00 -66.46680335  14.32251743
2132.00 -66.59374086  14.36182703
2134.00 -66.72077851  14.40120557
2136.00 -66.84791624  14.44065310
2138.00 -66.97515401  14.48016966
2140.00 -67.10249177  14.51975530
2142.00 -67.22992947  14.55941008
2144.00 -67.35746706  14.59913403
2146.00 -67.48510449  14.63892720
2148.00 -67.61284171  14.67878964
2150.00 -67.74067867  14.71872141
2152.00 -67.86861532  14.75872253
2154.00 -67.99665161  14.79879307
2156.00 -68.12478750  14.83893307
2158.00 -68.25302293  14.87914257
2160.00 -68.38135785  14.91942163
2162.00 -68.50979222  14.95977028
2164.00 -68.63832598  15.00018858
2166.00 -68.76695909  15.04067658
2168.00 -68.89569149  15.08123431
2170.00 -69.02452314  15.12186183
2172.00 -69.15345399  15.16255918
2174.00 -69.28248398  15.20332642
2176.00 -69.41161307  15.24416357
2178.00 -69.54084120  15.28507070
2180.00 -69.67016833  15.32604785
2182.00 -69.79959441  15.36709506
2184.00 -69.92911939  15.40821239
2186.00 -70.05874322  15.44939987
2188.00 -70.18846584  15.49065756
2190.00 -70.31828721  15.53198549
2192.00 -70.44820728  15.57338373
2194.00 -70.57822599  15.61485230
2196.00 -70.70834331  15.65639126
2198.00 -70.83855917  15.69800066
2200.00 -70.96887353  15.73968054
2202.00 -71.09928634  15.78143094
2204.00 -71.22979754  15.82325192
2206.00 -71.36040710  15.86514352
2208.00 -71.49111495  15.90710578
2210.00 -71.62192104  15.94913874
2212.00 -71.75282534  15.99124247
2214.00 -71.88382778  16.03341699
2216.00 -72.01492832  16.07566236
2218.00 -72.14612690  16.11797863
2220.00 -72.27742348  16.16036583
2222.00 -72.40881801  16.20282401
2224.00 -72.54031043  16.24535323
2226.00 -72.67190069  16.28795352
2228.00 -72.80358875  16.33062492
2230.00 -72.93537456  16.37336750
2232.00 -73.06725805  16.41618128
2234.00 -73.19923919  16.45906632
2236.00 -73.33131793  16.50202266
2238.00 -73.46349420  16.54505034
2240.00 -73.59576797  16.58814942
2242.00 -73.72813918  16.63131993
2244.00 -73.86060777  16.67456192
2246.00 -73.99317371  16.71787544
2248.00 -74.12583694  16.76126052
2250.00 -74.25859740  16.80471723
2252.00 -74.39145505  16.84824559
2254.00 -74.52440984  16.89184566
2256.00 -74.65746171  16.93551748
2258.00 -74.79061062  16.97926110
2260.00 -74.92385652  17.02307655
2262.00 -75.05719935  17.06696389
2264.00 -75.19063906  17.11092316
2266.00 -75.32417560  17.15495440
2268.00 -75.45780892  17.19905766
2270.00 -75.59153898  17.24323298
2272.00 -75.72536571  17.28748041
2274.00 -75.85928907  17.33179998
2276.00 -75.99330901  17.37619176
2278.00 -76.12742547  17.42065577
2280.00 -76.26163841  17.46519206
2282.00 -76.39594777  17.50980069
2284.00 -76.53035351  17.55448168
2286.00 -76.66485557  17.59923509
2288.00 -76.79945389  17.64406097
2290.00 -76.93414844  17.68895934
2292.00 -77.06893916  17.73393027
2294.00 -77.20382599  17.77897378
2296.00 -77.33880889  17.82408993
2298.00 -77.47388780  17.86927876
2300.00 -77.60906268  17.91454032
2302.00 -77.74433346  17.95987464
2304.00 -77.87970011  18.00528177
2306.00 -78.01516257  18.05076176
2308.00 -78.15072078  18.09631464
2310.00 -78.28637470  18.14194047
2312.00 -78.42212428  18.18763928
2314.00 -78.55796946  18.23341112
2316.00 -78.69391019  18.27925604
2318.00 -78.82994642  18.32517406
2320.00 -78.96607811  18.37116525
2322.00 -79.10230518  18.41722964
2324.00 -79.23862761  18.46336727
2326.00 -79.37504533  18.50957819
2328.00 -79.51155829  18.55586245
2330.00 -79.64816644  18.60222008
2332.00 -79.78486973  18.64865112
2334.00 -79.92166811  18.69515563
2336.00 -80.05856152  18.74173364
2338.00 -80.19554992  18.78838520
2340.00 -80.33263325  18.83511035
2342.00 -80.46981147  18.88190913
2344.00 -80.60708451  18.92878158
2346.00 -80.74445232  18.97572776
2348.00 -80.88191487  19.02274769
2350.00 -81.01947208  19.06984143
2352.00 -81.15712392  19.11700901
2354.00 -81.29487033  19.16425048
2356.00 -81.43271125  19.21156588
2358.00 -81.57064664  19.25895526
2360.00 -81.70867645  19.30641865
2362.00 -81.84680061  19.35395610
2364.00 -81.98501908  19.40156765
2366.00 -82.12333182  19.44925335
2368.00 -82.26173875  19.49701323
2370.00 -82.40023984  19.54484734
2372.00 -82.53883504  19.59275571
2374.00 -82.67752428  19.64073840
2376.00 -82.81630752  19.68879544
2378.00 -82.95518470  19.73692688
2380.00 -83.09415577  19.78513276
2382.00 -83.23322069  19.83341312
2384.00 -83.37237939  19.88176799
2386.00 -83.51163183  19.93019744
2388.00 -83.65097795  19.97870148
2390.00 -83.79041771  20.02728018
2392.00 -83.92995104  20.07593356
2394.00 -84.06957790  20.12466168
2396.00 -84.20929823  20.17346456
2398.00 -84.34911199  20.22234226
2400.00 -84.48901911  20.27129482
2402.00 -84.62901955  20.32032227
2404.00 -84.76911326  20.36942466
2406.00 -84.90930017  20.41860203
2408.00 -85.04958025  20.46785442
2410.00 -85.18995343  20.51718188
2412.00 -85.33041967  20.56658443
2414.00 -85.47097891  20.61606214
2416.00 -85.61163110  20.66561503
2418.00 -85.75237618  20.71524314
2420.00 -85.89321411  20.76494653
2422.00 -86.03414483  20.81472522
2424.00 -86.17516829  20.86457926
2426.00 -86.31628443  20.91450870
2428.00 -86.45749321  20.96451356
2430.00 -86.59879457  21.01459390
2432.00 -86.74018845  21.06474976
2434.00 -86.88167481  21.11498117
2436.00 -87.02325360  21.16528817
2438.00 -87.16492475  21.21567081
2440.00 -87.30668822  21.26612913
2442.00 -87.44854395  21.31666316
2444.00 -87.59049189  21.36727296
2446.00 -87.73253199  21.41795855
2448.00 -87.87466419  21.46871998
2450.00 -88.01688845  21.51955728
2452.00 -88.15920470  21.57047051
2454.00 -88.30161291  21.62145970
2456.00 -88.44411300  21.67252489
2458.00 -88.58670493  21.72366612
2460.00 -88.72938865  21.77488343
2462.00 -88.87216411  21.82617686
2464.00 -89.01503124  21.87754645
2466.00 -89.15799001  21.92899224
2468.00 -89.30104034  21.98051427
2470.00 -89.44418220  22.03211259
2472.00 -89.58741553  22.08378722
2474.00 -89.73074027  22.13553822
2476.00 -89.87415637  22.18736561
2478.00 -90.01766379  22.23926945
2480.00 -90.16126245  22.29124977
2482.00 -90.30495232  22.34330660
2484.00 -90.44873334  22.39544000
2486.00 -90.59260545  22.44764999
2488.00 -90.73656861  22.49993662
2490.00 -90.88062275  22.55229993
2492.00 -91.02476783  22.60473996
2494.00 -91.16900380  22.65725675
2496.00 -91.31333059  22.70985033
2498.00 -91.45774815  22.76252075
2500.00 -91.60225644  22.81526804
2502.00 -91.74685539  22.86809224
2504.00 -91.89154497  22.92099340
2506.00 -92.03632510  22.97397155
2508.00 -92.18119574  23.02702674
2510.00 -92.32615683  23.08015899
2512.00 -92.47120833  23.13336835
2514.00 -92.61635017  23.18665487
2516.00 -92.76158230  23.24001856
2518.00 -92.90690468  23.29345949
2520.00 -93.05231724  23.34697768
2522.00 -93.19781994  23.40057318
2524.00 -93.34341271  23.45424601
2526.00 -93.48909551  23.50799623
2528.00 -93.63486828  23.56182387
2530.00 -93.78073097  23.61572897
2532.00 -93.92668352  23.66971156
2534.00 -94.07272588  23.72377169
2536.00 -94.21885800  23.77790940
2538.00 -94.36507983  23.83212471
2540.00 -94.51139130  23.88641768
2542.00 -94.65779236  23.94078834
2544.00 -94.80428297  23.99523672
2546.00 -94.95086307  24.04976287
2548.00 -95.09753260  24.10436683
2550.00 -95.24429151  24.15904862
2552.00 -95.39113974  24.21380830
2554.00 -95.53807725  24.26864589
2556.00 -95.68510397  24.32356144
2558.00 -95.83221986  24.37855499
2560.00 -95.97942486  24.43362657
2562.00 -96.12671892  24.48877621
2564.00 -96.27410197  24.54400397
2566.00 -96.42157398  24.59930987
2568.00 -96.56913487  24.65469395
2570.00 -96.71678461  24.71015626
2572.00 -96.86452313  24.76569682
2574.00 -97.01235039  24.82131568
2576.00 -97.16026632  24.87701287
2578.00 -97.30827088  24.93278844
2580.00 -97.45636400  24.98864241
2582.00 -97.60454564  25.04457483
2584.00 -97.75281574  25.10058573
2586.00 -97.90117425  25.15667516
2588.00 -98.04962110  25.21284314
2590.00 -98.19815626  25.26908972
2592.00 -98.34677966  25.32541493
2594.00 -98.49549125  25.38181881
2596.00 -98.64429097  25.43830139
2598.00 -98.79317878  25.49486272
2600.00 -98.94215461  25.55150283
2602.00 -99.09121841  25.60822176
2604.00 -99.24037014  25.66501954
2606.00 -99.38960972  25.72189622
2608.00 -99.53893711  25.77885182
2610.00 -99.68835226  25.83588639
2612.00 -99.83785511  25.89299996
2614.00 -99.98744560  25.95019257
2616.00 -100.13712369  26.00746425
2618.00 -100.28688931  26.06481505
2620.00 -100.43674241  26.12224499
2622.00 -100.58668294  26.17975412
2624.00 -100.73671084  26.23734247
2626.00 -100.88682607  26.29501008
2628.00 -101.03702855  26.35275698
2630.00 -101.18731825  26.41058321
2632.00 -101.33769510  26.46848881
2634.00 -101.48815904  26.52647381
2636.00 -101.63871004  26.58453825
2638.00 -101.78934803  26.64268216
2640.00 -101.94007295  26.70090559
2642.00 -102.09088475  26.75920856
2644.00 -102.24178338  26.81759112
2646.00 -102.39276878  26.87605330
2648.00 -102.54384090  26.93459513
2650.00 -102.69499968  26.99321665
2652.00 -102.84624507  27.05191790
2654.00 -102.99757701  27.11069891
2656.00 -103.14899545  27.16955972
2658.00 -103.30050034  27.22850036
2660.00 -103.45209161  27.28752087
2662.00 -103.60376922  27.34662129
2664.00 -103.75553310  27.40580165
2666.00 -103.90738321  27.46506199
2668.00 -104.05931949  27.52440233
2670.00 -104.21134188  27.58382272
2672.00 -104.36345033  27.64332320
2674.00 -104.51564478  27.70290379
2676.00 -104.66792519  27.76256454
2678.00 -104.82029149  27.82230547
2680.00 -104.97274362  27.88212663
2682.00 -105.12528155  27.94202804
2684.00 -105.27790520  28.00200975
2686.00 -105.43061453  28.06207179
2688.00 -105.58340947  28.12221419
2690.00 -105.73628998  28.18243699
2692.00 -105.88925600  28.24274022
2694.00 -106.04230747  28.30312392
2696.00 -106.19544434  28.36358813
2698.00 -106.34866656  28.42413287
2700.00 -106.50197406  28.48475818
2702.00 -106.65536680  28.54546410
2704.00 -106.80884472  28.60625067
2706.00 -106.96240776  28.66711790
2708.00 -107.11605586  28.72806585
2710.00 -107.26978898  28.78909455
2712.00 -107.42360706  28.85020402
2714.00 -107.57751004  28.91139431
2716.00 -107.73149787  28.97266545
2718.00 -107.88557049  29.03401747
2720.00 -108.03972785  29.09545040
2722.00 -108.19396988  29.15696429
2724.00 -108.34829655  29.21855916
2726.00 -108.50270778  29.28023506
2728.00 -108.65720353  29.34199200
2730.00 -108.81178374  29.40383003
2732.00 -108.96644835  29.46574919
2734.00 -109.12119732  29.52774950
2736.00 -109.27603057  29.58983100
2738.00 -109.43094807  29.65199372
2740.00 -109.58594975  29.71423770
2742.00 -109.74103555  29.77656297
2744.00 -109.89620543  29.83896956
2746.00 -110.05145933  29.90145752
2748.00 -110.20679718  29.96402686
2750.00 -110.36221894  30.02667763
2752.00 -110.51772456  30.08940986
2754.00 -110.67331396  30.15222358
2756.00 -110.82898711  30.21511882
2758.00 -110.98474394  30.27809563
2760.00 -111.14058440  30.34115402
2762.00 -111.29650843  30.40429404
2764.00 -111.45251598  30.46751573
2766.00 -111.60860699  30.53081910
2768.00 -111.76478140  30.59420420
2770.00 -111.92103917  30.65767105
2772.00 -112.07738023  30.72121970
2774.00 -112.23380452  30.78485017
2776.00 -112.39031201  30.84856250
2778.00 -112.54690261  30.91235672
2780.00 -112.70357630  30.97623286
2782.00 -112.86033299  31.04019096
2784.00 -113.01717265  31.10423105
2786.00 -113.17409521  31.16835315
2788.00 -113.33110063  31.23255732
2790.00 -113.48818883  31.29684356
2792.00 -113.64535977  31.36121193
2794.00 -113.80261340  31.42566245
2796.00 -113.95994965  31.49019515
2798.00 -114.11736847  31.55481008
2800.00 -114.27486980  31.61950725
2802.00 -114.43245360  31.68428670
2804.00 -114.59011979  31.74914846
2806.00 -114.74786833  31.81409257
2808.00 -114.90569917  31.87911906
2810.00 -115.06361224  31.94422796
2812.00 -115.22160748  32.00941931
2814.00 -115.37968486  32.07469312
2816.00 -115.53784429  32.14004945
2818.00 -115.69608574  32.20548831
2820.00 -115.85440915  32.27100974
2822.00 -116.01281446  32.33661378
2824.00 -116.17130160  32.40230045
2826.00 -116.32987054  32.46806979
2828.00 -116.48852121  32.53392183
2830.00 -116.64725355  32.59985659
2832.00 -116.80606752  32.66587412
2834.00 -116.96496305  32.73197444
2836.00 -117.12394008  32.79815758
2838.00 -117.28299857  32.86442358
2840.00 -117.44213845  32.93077247
2842.00 -117.60135967  32.99720428
2844.00 -117.76066218  33.06371904
2846.00 -117.92004591  33.13031678
2848.00 -118.07951081  33.19699753
2850.00 -118.23905683  33.26376133
2852.00 -118.39868391  33.33060820
2854.00 -118.55839199  33.39753818
2856.00 -118.71818102  33.46455130
2858.00 -118.87805094  33.53164758
2860.00 -119.03800169  33.59882707
2862.00 -119.19803322  33.66608979
2864.00 -119.35814548  33.73343577
2866.00 -119.51833839  33.80086504
2868.00 -119.67861192  33.86837764
2870.00 -119.83896601  33.93597359
2872.00 -119.99940058  34.00365292
2874.00 -120.15991560  34.07141568
2876.00 -120.32051101  34.13926188
2878.00 -120.48118674  34.20719155
2880.00 -120.64194275  34.27520474
2882.00 -120.80277897  34.34330146
2884.00 -120.96369535  34.41148175
2886.00 -121.12469183  34.47974564
2888.00 -121.28576837  34.54809316
2890.00 -121.44692489  34.61652434
2892.00 -121.60816134  34.68503921
2894.00 -121.76947768  34.75363780
2896.00 -121.93087383  34.82232014
2898.00 -122.09234975  34.89108626
2900.00 -122.25390538  34.95993620
2902.00 -122.41554067  35.02886997
2904.00 -122.57725554  35.09788762
2906.00 -122.73904996  35.16698916
2908.00 -122.90092386  35.23617464
2910.00 -123.06287719  35.30544408
2912.00 -123.22490989  35.37479751
2914.00 -123.38702190  35.44423496
2916.00 -123.54921317  35.51375646
2918.00 -123.71148364  35.58336204
2920.00 -123.87383326  35.65305172
2922.00 -124.03626196  35.72282555
2924.00 -124.19876969  35.79268355
2926.00 -124.36135640  35.86262574
2928.00 -124.52402203  35.93265217
2930.00 -124.68676652  36.00276285
2932.00 -124.84958981  36.07295781
2934.00 -125.01249186  36.14323709
2936.00 -125.17547259  36.21360072
2938.00 -125.33853197  36.28404872
2940.00 -125.50166992  36.35458113
2942.00 -125.66488639  36.42519797
2944.00 -125.82818133  36.49589926
2946.00 -125.99155468  36.56668505
2948.00 -126.15500638  36.63755536
2950.00 -126.31853638  36.70851022
2952.00 -126.48214461  36.77954966
2954.00 -126.64583103  36.85067370
2956.00 -126.80959558  36.92188238
2958.00 -126.97343820  36.99317572
2960.00 -127.13735882  37.06455376
2962.00 -127.30135741  37.13601652
2964.00 -127.46543389  37.20756402
2966.00 -127.62958822  37.27919631
2968.00 -127.79382033  37.35091340
2970.00 -127.95813018  37.42271533
2972.00 -128.12251769  37.49460213
2974.00 -128.28698282  37.56657381
2976.00 -128.45152551  37.63863042
2978.00 -128.61614570  37.71077198
2980.00 -128.78084334  37.78299851
2982.00 -128.94561837  37.85531005
2984.00 -129.11047073  37.92770663
2986.00 -129.27540036  38.00018827
2988.00 -129.44040722  38.07275499
2990.00 -129.60549123  38.14540684
2992.00 -129.77065235  38.21814383
2994.00 -129.93589052  38.29096600
2996.00 -130.10120568  38.36387337
2998.00 -130.26659777  38.43686597
3000.00 -130.43206674  38.50994382
3002.00 -130.59761253  38.58310697
3004.00 -130.76323509  38.65635542
3006.00 -130.92893435  38.72968922
3008.00 -131.09471027  38.80310839
3010.00 -131.26056277  38.87661295
3012.00 -131.42649181  38.95020293
3014.00 -131.59249734  39.02387837
3016.00 -131.75857928  39.09763929
3018.00 -131.92473759  39.17148571
3020.00 -132.09097221  39.24541766
3022.00 -132.25728308  39.31943518
3024.00 -132.42367015  39.39353829
3026.00 -132.59013335  39.46772701
3028.00 -132.75667264  39.54200137
3030.00 -132.92328795  39.61636140
3032.00 -133.08997922  39.69080713
3034.00 -133.25674641  39.76533858
3036.00 -133.42358945  39.83995579
3038.00 -133.59050828  39.91465877
3040.00 -133.75750286  39.98944756
3042.00 -133.92457312  40.06432217
3044.00 -134.09171900  40.13928265
3046.00 -134.25894045  40.21432901
3048.00 -134.42623741  40.28946128
3050.00 -134.59360982  40.36467949
3052.00 -134.76105764  40.43998367
3054.00 -134.92858079  40.51537384
3056.00 -135.09617922  40.59085002
3058.00 -135.26385289  40.66641226
3060.00 -135.43160172  40.74206056
3062.00 -135.59942566  40.81779496
3064.00 -135.76732465  40.89361548
3066.00 -135.93529865  40.96952215
3068.00 -136.10334758  41.04551500
3070.00 -136.27147140  41.12159406
3072.00 -136.43967004  41.19775934
3074.00 -136.60794346  41.27401087
3076.00 -136.77629158  41.35034869
3078.00 -136.94471436  41.42677282
3080.00 -137.11321174  41.50328327
3082.00 -137.28178366  41.57988009
3084.00 -137.45043006  41.65656329
3086.00 -137.61915089  41.73333290
3088.00 -137.78794608  41.81018895
3090.00 -137.95681559  41.88713146
3092.00 -138.12575936  41.96416046
3094.00 -138.29477732  42.04127598
3096.00 -138.46386942  42.11847803
3098.00 -138.63303561  42.19576665
3100.00 -138.80227582  42.27314185
3102.00 -138.97159000  42.35060368
3104.00 -139.14097809  42.42815214
3106.00 -139.31044004  42.50578727
3108.00 -139.47997578  42.58350910
3110.00 -139.64958526  42.66131764
3112.00 -139.81926843  42.73921292
3114.00 -139.98902522  42.81719497
3116.00 -140.15885558  42.89526382
3118.00 -140.32875945  42.97341948
3120.00 -140.49873678  43.05166199
3122.00 -140.66878750  43.12999136
3124.00 -140.83891156  43.20840763
3126.00 -141.00910891  43.28691081
3128.00 -141.17937947  43.36550094
3130.00 -141.34972321  43.44417804
3132.00 -141.52014005  43.52294213
3134.00 -141.69062995  43.60179324
3136.00 -141.86119285  43.68073139
3138.00 -142.03182868  43.75975660
3140.00 -142.20253739  43.83886891
3142.00 -142.37331893  43.91806833
3144.00 -142.54417323  43.99735490
3146.00 -142.71510024  44.07672863
3148.00 -142.88609991  44.15618955
3150.00 -143.05717216  44.23573768
3152.00 -143.22831696  44.31537305
3154.00 -143.39953423  44.39509569
3156.00 -143.57082393  44.47490561
3158.00 -143.74218599  44.55480284
3160.00 -143.91362036  44.63478741
3162.00 -144.08512698  44.71485934
3164.00 -144.25670579  44.79501865
3166.00 -144.42835674  44.87526537
3168.00 -144.60007977  44.95559952
3170.00 -144.77187481  45.03602112
3172.00 -144.94374182  45.11653020
3174.00 -145.11568074  45.19712679
3176.00 -145.28769150  45.27781091
3178.00 -145.45977406  45.35858257
3180.00 -145.63192835  45.43944181
3182.00 -145.80415431  45.52038865
3184.00 -145.97645190  45.60142311
3186.00 -146.14882104  45.68254521
3188.00 -146.32126169  45.76375499
3190.00 -146.49377379  45.84505246
3192.00 -146.66635728  45.92643764
3194.00 -146.83901209  46.00791056
3196.00 -147.01173819  46.08947124
3198.00 -147.18453550  46.17111971
3200.00 -147.35740396  46.25285599
3202.00 -147.53034354  46.33468010
3204.00 -147.70335415  46.41659207
3206.00 -147.87643575  46.49859192
3208.00 -148.04958828  46.58067967
3210.00 -148.22281169  46.66285534
3212.00 -148.39610591  46.74511896
3214.00 -148.56947088  46.82747055
3216.00 -148.74290656  46.90991014
3218.00 -148.91641288  46.99243774
3220.00 -149.08998978  47.07505338
3222.00 -149.26363721  47.15775708
3224.00 -149.43735511  47.24054887
3226.00 -149.61114342  47.32342876
3228.00 -149.78500209  47.40639679
3230.00 -149.95893105  47.48945297
3232.00 -150.13293025  47.57259732
3234.00 -150.30699964  47.65582987
3236.00 -150.48113915  47.73915064
3238.00 -150.65534873  47.82255966
3240.00 -150.82962832  47.90605694
3242.00 -151.00397786  47.98964250
3244.00 -151.17839729  48.07331638
3246.00 -151.35288656  48.15707859
3248.00 -151.52744562  48.24092915
3250.00 -151.70207439  48.32486809
3252.00 -151.87677283  48.40889543
3254.00 -152.05154087  48.49301118
3256.00 -152.22637847  48.57721538
3258.00 -152.40128555  48.66150805
3260.00 -152.57626207  48.74588920
3262.00 -152.75130797  48.83035885
3264.00 -152.92642319  48.91491704
3266.00 -153.10160767  48.99956378
3268.00 -153.27686135  49.08429910
3270.00 -153.45218418  49.16912300
3272.00 -153.62757610  49.25403553
3274.00 -153.80303705  49.33903669
3276.00 -153.97856697  49.42412651
3278.00 -154.15416581  49.50930502
3280.00 -154.32983351  49.59457223
3282.00 -154.50557001  49.67992816
3284.00 -154.68137526  49.76537284
3286.00 -154.85724919  49.85090628
3288.00 -155.03319174  49.93652851
3290.00 -155.20920287  50.02223956
3292.00 -155.38528252  50.10803943
3294.00 -155.56143061  50.19392816
3296.00 -155.73764711  50.27990575
3298.00 -155.91393195  50.36597225
3300.00 -156.09028507  50.45212765
3302.00 -156.26670641  50.53837200
3304.00 -156.44319592  50.62470530
3306.00 -156.61975354  50.71112758
3308.00 -156.79637922  50.79763885
3310.00 -156.97307289  50.88423915
3312.00 -157.14983450  50.97092849
3314.00 -157.32666398  51.05770689
3316.00 -157.50356129  51.14457437
3318.00 -157.68052636  51.23153095
3320.00 -157.85755914  51.31857665
3322.00 -158.03465957  51.40571150
3324.00 -158.21182759  51.49293551
3326.00 -158.38906315  51.58024871
3328.00 -158.56636618  51.66765111
3330.00 -158.74373663  51.75514274
3332.00 -158.92117444  51.84272361
3334.00 -159.09867955  51.93039375
3336.00 -159.27625191  52.01815317
3338.00 -159.45389146  52.10600190
3340.00 -159.63159814  52.19393996
3342.00 -159.80937189  52.28196736
3344.00 -159.98721266  52.37008413
3346.00 -160.16512038  52.45829028
3348.00 -160.34309501  52.54658584
3350.00 -160.52113648  52.63497083
3352.00 -160.69924473  52.72344526
3354.00 -160.87741971  52.81200916
3356.00 -161.05566136  52.90066254
3358.00 -161.23396962  52.98940543
3360.00 -161.41234443  53.07823785
3362.00 -161.59078574  53.16715981
3364.00 -161.76929349  53.25617133
3366.00 -161.94786762  53.34527244
3368.00 -162.12650808  53.43446315
3370.00 -162.30521480  53.52374348
3372.00 -162.48398773  53.61311346
3374.00 -162.66282681  53.70257310
3376.00 -162.84173199  53.79212241
3378.00 -163.02070319  53.88176143
3380.00 -163.19974038  53.97149017
3382.00 -163.37884349  54.06130865
3384.00 -163.55801246  54.15121688
3386.00 -163.73724723  54.24121489
3388.00 -163.91654775  54.33130270
3390.00 -164.09591396  54.42148032
3392.00 -164.27534581  54.51174778
3394.00 -164.45484323  54.60210509
3396.00 -164.63440616  54.69255227
3398.00 -164.81403455  54.78308934
3400.00 -164.99372835  54.87371632
3402.00 -165.17348748  54.96443323
3404.00 -165.35331191  55.05524008
3406.00 -165.53320156  55.14613691
3408.00 -165.71315638  55.23712371
3410.00 -165.89317632  55.32820052
3412.00 -166.07326131  55.41936735
3414.00 -166.25341130  55.51062422
3416.00 -166.43362623  55.60197115
3418.00 -166.61390604  55.69340815
3420.00 -166.79425068  55.78493525
3422.00 -166.97466009  55.87655246
3424.00 -167.15513420  55.96825981
3426.00 -167.33567297  56.06005730
3428.00 -167.51627633  56.15194497
3430.00 -167.69694422  56.24392282
3432.00 -167.87767660  56.33599087
3434.00 -168.05847339  56.42814914
3436.00 -168.23933456  56.52039766
3438.00 -168.42026002  56.61273643
3440.00 -168.60124974  56.70516548
3442.00 -168.78230364  56.79768483
3444.00 -168.96342168  56.89029448
3446.00 -169.14460380  56.98299447
3448.00 -169.32584993  57.07578480
3450.00 -169.50716002  57.16866550
3452.00 -169.68853402  57.26163658
3454.00 -169.86997186  57.35469807
3456.00 -170.05147349  57.44784997
3458.00 -170.23303884  57.54109230
3460.00 -170.41466787  57.63442509
3462.00 -170.59636052  57.72784835
3464.00 -170.77811672  57.82136210
3466.00 -170.95993642  57.91496635
3468.00 -171.14181956  58.00866112
3470.00 -171.32376608  58.10244644
3472.00 -171.50577594  58.19632231
3474.00 -171.68784906  58.29028875
3476.00 -171.86998539  58.38434579
3478.00 -172.05218487  58.47849344
3480.00 -172.23444745  58.57273171
3482.00 -172.41677307  58.66706062
3484.00 -172.59916167  58.76148019
3486.00 -172.78161319  58.85599044
3488.00 -172.96412758  58.95059139
3490.00 -173.14670477  59.04528304
3492.00 -173.32934472  59.14006542
3494.00 -173.51204736  59.23493854
3496.00 -173.69481263  59.32990243
3498.00 -173.87764048  59.42495709
3500.00 -174.06053085  59.52010254
3502.00 -174.24348368  59.61533880
3504.00 -174.42649892  59.71066589
3506.00 -174.60957650  59.80608383
3508.00 -174.79271637  59.90159262
3510.00 -174.97591848  59.99719229
3512.00 -175.15918276  60.09288285
3514.00 -175.34250915  60.18866432
3516.00 -175.52589760  60.28453672
3518.00 -175.70934806  60.38050006
3520.00 -175.89286046  60.47655435
3522.00 -176.07643474  60.57269962
3524.00 -176.26007086  60.66893587
3526.00 -176.44376874  60.76526314
3528.00 -176.62752834  60.86168142
3530.00 -176.81134959  60.95819074
3532.00 -176.99523244  61.05479112
3534.00 -177.17917684  61.15148256
3536.00 -177.36318271  61.24826509
3538.00 -177.54725001  61.34513872
3540.00 -177.73137868  61.44210347
3542.00 -177.91556866  61.53915935
3544.00 -178.09981990  61.63630638
3546.00 -178.28413233  61.73354457
3548.00 -178.46850589  61.83087394
3550.00 -178.65294054  61.92829450
3552.00 -178.83743621  62.02580628
3554.00 -179.02199284  62.12340928
3556.00 -179.20661038  62.22110352
3558.00 -179.39128878  62.31888902
3560.00 -179.57602796  62.41676580
3562.00 -179.76082788  62.51473385
3564.00 -179.94568848  62.61279321
3566.00 -180.13060969  62.71094389
3568.00 -180.31559147  62.80918590
3570.00 -180.50063376  62.90751926
3572.00 -180.68573649  63.00594398
3574.00 -180.87089961  63.10446008
3576.00 -181.05612307  63.20306758
3578.00 -181.24140680  63.30176648
3580.00 -181.42675075  63.40055680
3582.00 -181.61215485  63.49943856
3584.00 -181.79761906  63.59841177
3586.00 -181.98314332  63.69747645
3588.00 -182.16872756  63.79663261
3590.00 -182.35437173  63.89588027
3592.00 -182.54007577  63.99521944
3594.00 -182.72583963  64.09465013
3596.00 -182.91166325  64.19417237
3598.00 -183.09754657  64.29378615
3600.00 -183.28348953  64.39349151
3602.00 -183.46949207  64.49328845
3604.00 -183.65555414  64.59317699
3606.00 -183.84167568  64.69315715
3608.00 -184.02785664  64.79322893
3610.00 -184.21409695  64.89339234
3612.00 -184.40039656  64.99364742
3614.00 -184.58675541  65.09399416
3616.00 -184.77317344  65.19443259
3618.00 -184.95965060  65.29496271
3620.00 -185.14618682  65.39558455
3622.00 -185.33278206  65.49629811
3624.00 -185.51943625  65.59710341
3626.00 -185.70614933  65.69800047
3628.00 -185.89292126  65.79898929
3630.00 -186.07975196  65.90006989
3632.00 -186.26664139  66.00124228
3634.00 -186.45358948  66.10250649
3636.00 -186.64059619  66.20386252
3638.00 -186.82766144  66.30531038
3640.00 -187.01478519  66.40685009
3642.00 -187.20196738  66.50848167
3644.00 -187.38920794  66.61020512
3646.00 -187.57650683  66.71202046
3648.00 -187.76386398  66.81392771
3650.00 -187.95127934  66.91592687
3652.00 -188.13875285  67.01801796
3654.00 -188.32628445  67.12020100
3656.00 -188.51387408  67.22247599
3658.00 -188.70152170  67.32484295
3660.00 -188.88922723  67.42730190
3662.00 -189.07699063  67.52985284
3664.00 -189.26481183  67.63249579
3666.00 -189.45269078  67.73523076
3668.00 -189.64062742  67.83805777
3670.00 -189.82862170  67.94097683
3672.00 -190.01667355  68.04398795
3674.00 -190.20478292  68.14709114
3676.00 -190.39294976  68.25028643
3678.00 -190.58117399  68.35357381
3680.00 -190.76945558  68.45695330
3682.00 -190.95779445  68.56042492
3684.00 -191.14619056  68.66398868
3686.00 -191.33464385  68.76764458
3688.00 -191.52315425  68.87139265
3690.00 -191.71172171  68.97523290
3692.00 -191.90034618  69.07916534
3694.00 -192.08902759  69.18318997
3696.00 -192.27776589  69.28730682
3698.00 -192.46656102  69.39151590
3700.00 -192.65541293  69.49581721
3702.00 -192.84432155  69.60021077
3704.00 -193.03328684  69.70469660
3706.00 -193.22230873  69.80927470
3708.00 -193.41138716  69.91394509
3710.00 -193.60052208  70.01870778
3712.00 -193.78971344  70.12356278
3714.00 -193.97896116  70.22851010
3716.00 -194.16826521  70.33354976
3718.00 -194.35762551  70.43868176
3720.00 -194.54704202  70.54390612
3722.00 -194.73651467  70.64922286
3724.00 -194.92604341  70.75463198
3726.00 -195.11562818  70.86013349
3728.00 -195.30526892  70.96572741
3730.00 -195.49496558  71.07141375
3732.00 -195.68471810  71.17719251
3734.00 -195.87452643  71.28306372
3736.00 -196.06439049  71.38902738
3738.00 -196.25431025  71.49508351
3740.00 -196.44428564  71.60123211
3742.00 -196.63431660  71.70747320
3744.00 -196.82440307  71.81380679
3746.00 -197.01454501  71.92023289
3748.00 -197.20474235  72.02675151
3750.00 -197.39499503  72.13336267
3752.00 -197.58530301  72.24006637
3754.00 -197.77566621  72.34686262
3756.00 -197.96608459  72.45375145
3758.00 -198.15655808  72.56073285
3760.00 -198.34708664  72.66780683
3762.00 -198.53767020  72.77497342
3764.00 -198.72830870  72.88223262
3766.00 -198.91900209  72.98958445
3768.00 -199.10975032  73.09702890
3770.00 -199.30055331  73.20456600
3772.00 -199.49141103  73.31219575
3774.00 -199.68232341  73.41991817
3776.00 -199.87329039  73.52773327
3778.00 -200.06431192  73.63564105
3780.00 -200.25538793  73.74364153
3782.00 -200.44651838  73.85173472
3784.00 -200.63770321  73.95992063
3786.00 -200.82894235  74.06819926
3788.00 -201.02023576  74.17657064
3790.00 -201.21158337  74.28503477
3792.00 -201.40298512  74.39359166
3794.00 -201.59444097  74.50224132
3796.00 -201.78595086  74.61098376
3798.00 -201.97751472  74.71981900
3800.00 -202.16913249  74.82874703
3802.00 -202.36080414  74.93776788
3804.00 -202.55252959  75.04688155
3806.00 -202.74430878  75.15608806
3808.00 -202.93614167  75.26538740
3810.00 -203.12802820  75.37477961
3812.00 -203.31996830  75.48426467
3814.00 -203.51196193  75.59384261
3816.00 -203.70400902  75.70351343
3818.00 -203.89610952  75.81327714
3820.00 -204.08826337  75.92313375
3822.00 -204.28047051  76.03308328
3824.00 -204.47273089  76.14312573
3826.00 -204.66504445  76.25326112
3828.00 -204.85741114  76.36348944
3830.00 -205.04983089  76.47381072
3832.00 -205.24230365  76.58422495
3834.00 -205.43482937  76.69473216
3836.00 -205.62740798  76.80533235
3838.00 -205.82003943  76.91602553
3840.00 -206.01272366  77.02681171
3842.00 -206.20546062  77.13769089
3844.00 -206.39825025  77.24866310
3846.00 -206.59109250  77.35972833
3848.00 -206.78398729  77.47088660
3850.00 -206.97693459  77.58213791
3852.00 -207.16993433  77.69348228
3854.00 -207.36298645  77.80491971
3856.00 -207.55609091  77.91645022
3858.00 -207.74924763  78.02807381
3860.00 -207.94245657  78.13979049
3862.00 -208.13571767  78.25160027
3864.00 -208.32903087  78.36350316
3866.00 -208.52239612  78.47549917
3868.00 -208.71581335  78.58758831
3870.00 -208.90928252  78.69977058
3872.00 -209.10280356  78.81204600
3874.00 -209.29637643  78.92441457
3876.00 -209.49000105  79.03687631
3878.00 -209.68367738  79.14943121
3880.00 -209.87740535  79.26207930
3882.00 -210.07118492  79.37482057
3884.00 -210.26501603  79.48765504
3886.00 -210.45889861  79.60058272
3888.00 -210.65283262  79.71360361
3890.00 -210.84681799  79.82671773
3892.00 -211.04085467  79.93992507
3894.00 -211.23494261  80.05322565
3896.00 -211.42908173  80.16661949
3898.00 -211.62327200  80.28010657
3900.00 -211.81751336  80.39368692
3902.00 -212.01180573  80.50736055
3904.00 -212.20614908  80.62112745
3906.00 -212.40054334  80.73498765
3908.00 -212.59498846  80.84894114
3910.00 -212.78948438  80.96298793
3912.00 -212.98403105  81.07712804
3914.00 -213.17862840  81.19136147
3916.00 -213.37327638  81.30568822
3918.00 -213.56797493  81.42010832
3920.00 -213.76272401  81.53462175
3922.00 -213.95752354  81.64922855
3924.00 -214.15237348  81.76392870
3926.00 -214.34727377  81.87872221
3928.00 -214.54222435  81.99360911
3930.00 -214.73722517  82.10858938
3932.00 -214.93227616  82.22366305
3934.00 -215.12737728  82.33883012
3936.00 -215.32252847  82.45409059
3938.00 -215.51772967  82.56944447
3940.00 -215.71298082  82.68489178
3942.00 -215.90828186  82.80043251
3944.00 -216.10363275  82.91606668
3946.00 -216.29903343  83.03179430
3948.00 -216.49448383  83.14761536
3950.00 -216.68998390  83.26352988
3952.00 -216.88553359  83.37953786
3954.00 -217.08113284  83.49563932
3956.00 -217.27678160  83.61183426
3958.00 -217.47247980  83.72812268
3960.00 -217.66822739  83.84450459
3962.00 -217.86402432  83.96098001
3964.00 -218.05987052  84.07754893
3966.00 -218.25576595  84.19421136
3968.00 -218.45171054  84.31096732
3970.00 -218.64770424  84.42781681
3972.00 -218.84374700  84.54475983
3974.00 -219.03983875  84.66179639
3976.00 -219.23597944  84.77892649
3978.00 -219.43216902  84.89615016
3980.00 -219.62840743  85.01346738
3982.00 -219.82469461  85.13087818
3984.00 -220.02103050  85.24838255
3986.00 -220.21741506  85.36598050
3988.00 -220.41384822  85.48367203
3990.00 -220.61032992  85.60145716
3992.00 -220.80686012  85.71933590
3994.00 -221.00343876  85.83730824
3996.00 -221.20006577  85.95537419
3998.00 -221.39674111  86.07353376
4000.00 -221.59346472  86.19178696
4002.00 -221.79023653  86.31013379
4004.00 -221.98705650  86.42857426
4006.00 -222.18392457  86.54710837
4008.00 -222.38084069  86.66573614
4010.00 -222.57780479  86.78445756
4012.00 -222.77481682  86.90327264
4014.00 -222.97187673  87.02218140
4016.00 -223.16898446  87.14118382
4018.00 -223.36613995  87.26027993
4020.00 -223.56334315  87.37946973
4022.00 -223.76059400  87.49875321
4024.00 -223.95789244  87.61813040
4026.00 -224.15523842  87.73760129
4028.00 -224.35263189  87.85716589
4030.00 -224.55007278  87.97682420
4032.00 -224.74756105  88.09657624
4034.00 -224.94509663  88.21642200
4036.00 -225.14267947  88.33636150
4038.00 -225.34030952  88.45639473
4040.00 -225.53798671  88.57652171
4042.00 -225.73571100  88.69674243
4044.00 -225.93348232  88.81705691
4046.00 -226.13130062  88.93746515
4048.00 -226.32916585  89.05796715
4050.00 -226.52707795  89.17856292
4052.00 -226.72503686  89.29925247
4054.00 -226.92304252  89.42003580
4056.00 -227.12109489  89.54091292
4058.00 -227.31919391  89.66188383
4060.00 -227.51733951  89.78294853
4062.00 -227.71553165  89.90410703
4064.00 -227.91377027  90.02535934
4066.00 -228.11205530  90.14670546
4068.00 -228.31038671  90.26814540
4070.00 -228.50876443  90.38967916
4072.00 -228.70718840  90.51130675
4074.00 -228.90565858  90.63302816
4076.00 -229.10417489  90.75484341
4078.00 -229.30273730  90.87675251
4080.00 -229.50134574  90.99875544
4082.00 -229.70000016  91.12085223
4084.00 -229.89870050  91.24304287
4086.00 -230.09744670  91.36532737
4088.00 -230.29623872  91.48770574
4090.00 -230.49507649  91.61017797
4092.00 -230.69395996  91.73274407
4094.00 -230.89288907  91.85540406
4096.00 -231.09186377  91.97815792
4098.00 -231.29088401  92.10100567
4100.00 -231.48994972  92.22394731
4102.00 -231.68906085  92.34698284
4104.00 -231.88821735  92.47011228
4106.00 -232.08741916  92.59333562
4108.00 -232.28666623  92.71665286
4110.00 -232.48595849  92.84006402
4112.00 -232.68529590  92.96356909
4114.00 -232.88467840  93.08716808
4116.00 -233.08410593  93.21086099
4118.00 -233.28357844  93.33464784
4120.00 -233.48309587  93.45852861
4122.00 -233.68265817  93.58250332
4124.00 -233.88226528  93.70657197
4126.00 -234.08191715  93.83073457
4128.00 -234.28161372  93.95499111
4130.00 -234.48135493  94.07934160
4132.00 -234.68114073  94.20378605
4134.00 -234.88097107  94.32832445
4136.00 -235.08084589  94.45295682
4138.00 -235.28076513  94.57768315
4140.00 -235.48072874  94.70250345
4142.00 -235.68073667  94.82741773
4144.00 -235.88078885  94.95242598
4146.00 -236.08088524  95.07752821
4148.00 -236.28102577  95.20272443
4150.00 -236.48121040  95.32801463
4152.00 -236.68143906  95.45339882
4154.00 -236.88171171  95.57887701
4156.00 -237.08202828  95.70444919
4158.00 -237.28238873  95.83011537
4160.00 -237.48279299  95.95587556
4162.00 -237.68324101  96.08172975
4164.00 -237.88373274  96.20767795
4166.00 -238.08426812  96.33372017
4168.00 -238.28484710  96.45985640
4170.00 -238.48546962  96.58608665
4172.00 -238.68613562  96.71241092
4174.00 -238.88684506  96.83882922
4176.00 -239.08759787  96.96534154
4178.00 -239.28839400  97.09194789
4180.00 -239.48923339  97.21864828
4182.00 -239.69011600  97.34544270
4184.00 -239.89104176  97.47233117
4186.00 -240.09201063  97.59931367
4188.00 -240.29302253  97.72639022
4190.00 -240.49407743  97.85356082
4192.00 -240.69517527  97.98082546
4194.00 -240.89631598  98.10818416
4196.00 -241.09749952  98.23563691
4198.00 -241.29872584  98.36318373
4200.00 -241.49999486  98.49082460
4202.00 -241.70130655  98.61855953
4204.00 -241.90266084  98.74638853
4206.00 -242.10405769  98.87431159
4208.00 -242.30549703  99.00232873
4210.00 -242.50697881  99.13043993
4212.00 -242.70850298  99.25864521
4214.00 -242.91006948  99.38694457
4216.00 -243.11167826  99.51533800
4218.00 -243.31332926  99.64382552
4220.00 -243.51502243  99.77240711
4222.00 -243.71675771  99.90108280
4224.00 -243.91853504 100.02985257
4226.00 -244.12035438 100.15871642
4228.00 -244.32221567 100.28767437
4230.00 -244.52411885 100.41672641
4232.00 -244.72606387 100.54587255
4234.00 -244.92805068 100.67511278
4236.00 -245.13007921 100.80444711
4238.00 -245.33214942 100.93387554
4240.00 -245.53426125 101.06339808
4242.00 -245.73641464 101.19301471
4244.00 -245.93860955 101.32272545
4246.00 -246.14084591 101.45253030
4248.00 -246.34312367 101.58242926
4250.00 -246.54544278 101.71242233
4252.00 -246.74780318 101.84250950
4254.00 -246.95020482 101.97269079
4256.00 -247.15264765 102.10296620
4258.00 -247.35513160 102.23333572
4260.00 -247.55765662 102.36379936
4262.00 -247.76022267 102.49435712
4264.00 -247.96282968 102.62500899
4266.00 -248.16547760 102.75575499
4268.00 -248.36816638 102.88659511
4270.00 -248.57089596 103.01752936
4272.00 -248.77366628 103.14855773
4274.00 -248.97647730 103.27968022
4276.00 -249.17932896 103.41089684
4278.00 -249.38222120 103.54220759
4280.00 -249.58515397 103.67361247
4282.00 -249.78812722 103.80511148
4284.00 -249.99114089 103.93670462
4286.00 -250.19419492 104.06839189
4288.00 -250.39728927 104.20017330
4290.00 -250.60042387 104.33204884
4292.00 -250.80359868 104.46401851
4294.00 -251.00681364 104.59608232
4296.00 -251.21006869 104.72824027
4298.00 -251.41336379 104.86049235
4300.00 -251.61669887 104.99283857
4302.00 -251.82007388 105.12527892
4304.00 -252.02348877 105.25781342
4306.00 -252.22694348 105.39044205
4308.00 -252.43043797 105.52316483
4310.00 -252.63397217 105.65598174
4312.00 -252.83754603 105.78889280
4314.00 -253.04115950 105.92189800
4316.00 -253.24481252 106.05499733
4318.00 -253.44850504 106.18819081
4320.00 -253.65223700 106.32147844
4322.00 -253.85600836 106.45486020
4324.00 -254.05981905 106.58833611
4326.00 -254.26366903 106.72190616
4328.00 -254.46755823 106.85557035
4330.00 -254.67148661 106.98932868
4332.00 -254.87545411 107.12318116
4334.00 -255.07946067 107.25712779
4336.00 -255.28350625 107.39116855
4338.00 -255.48759079 107.52530346
4340.00 -255.69171423 107.65953251
4342.00 -255.89587652 107.79385571
4344.00 -256.10007761 107.92827305
4346.00 -256.30431744 108.06278453
4348.00 -256.50859596 108.19739015
4350.00 -256.71291312 108.33208992
4352.00 -256.91726885 108.46688383
4354.00 -257.12166312 108.60177188
4356.00 -257.32609585 108.73675407
4358.00 -257.53056701 108.87183041
4360.00 -257.73507653 109.00700088
4362.00 -257.93962437 109.14226550
4364.00 -258.14421046 109.27762426
4366.00 -258.34883476 109.41307715
4368.00 -258.55349721 109.54862419
4370.00 -258.75819775 109.68426536
4372.00 -258.96293634 109.82000067
4374.00 -259.16771292 109.95583012
4376.00 -259.37252743 110.09175370
4378.00 -259.57737983 110.22777142
4380.00 -259.78227005 110.36388328
4382.00 -259.98719805 110.50008927
4384.00 -260.19216377 110.63638939
4386.00 -260.39716716 110.77278365
4388.00 -260.60220816 110.90927203
4390.00 -260.80728673 111.04585455
4392.00 -261.01240280 111.18253120
4394.00 -261.21755632 111.31930198
4396.00 -261.42274724 111.45616688
4398.00 -261.62797551 111.59312592
4400.00 -261.83324107 111.73017907
4402.00 -262.03854387 111.86732636
4404.00 -262.24388386 112.00456776
4406.00 -262.44926098 112.14190329
4408.00 -262.65467517 112.27933294
4410.00 -262.86012640 112.41685671
4412.00 -263.06561459 112.55447460
4414.00 -263.27113971 112.69218660
4416.00 -263.47670168 112.82999272
4418.00 -263.68230047 112.96789296
4420.00 -263.88793602 113.10588731
4422.00 -264.09360828 113.24397577
4424.00 -264.29931718 113.38215834
4426.00 -264.50506269 113.52043502
4428.00 -264.71084474 113.65880580
4430.00 -264.91666328 113.79727069
4432.00 -265.12251826 113.93582969
4434.00 -265.32840962 114.07448279
4436.00 -265.53433732 114.21322998
4438.00 -265.74030130 114.35207128
4440.00 -265.94630150 114.49100667
4442.00 -266.15233787 114.63003616
4444.00 -266.35841037 114.76915974
4446.00 -266.56451893 114.90837741
4448.00 -266.77066350 115.04768917
4450.00 -266.97684403 115.18709502
4452.00 -267.18306048 115.32659496
4454.00 -267.38931277 115.46618897
4456.00 -267.59560086 115.60587707
4458.00 -267.80192471 115.74565925
4460.00 -268.00828424 115.88553551
4462.00 -268.21467942 116.02550584
4464.00 -268.42111019 116.16557024
4466.00 -268.62757649 116.30572872
4468.00 -268.83407828 116.44598126
4470.00 -269.04061549 116.58632787
4472.00 -269.24718808 116.72676855
4474.00 -269.45379600 116.86730328
4476.00 -269.66043919 117.00793208
4478.00 -269.86711759 117.14865493
4480.00 -270.07383116 117.28947183
4482.00 -270.28057984 117.43038279
4484.00 -270.48736358 117.57138780
4486.00 -270.69418233 117.71248685
4488.00 -270.90103603 117.85367995
4490.00 -271.10792463 117.99496709
4492.00 -271.31484808 118.13634826
4494.00 -271.52180633 118.27782348
4496.00 -271.72879932 118.41939273
4498.00 -271.93582699 118.56105601
4500.00 -272.14288931 118.70281331
4502.00 -272.34998621 118.84466464
4504.00 -272.55711764 118.98661000
4506.00 -272.76428355 119.12864937
4508.00 -272.97148389 119.27078276
4510.00 -273.17871860 119.41301017
4512.00 -273.38598763 119.55533158
4514.00 -273.59329093 119.69774700
4516.00 -273.80062845 119.84025643
4518.00 -274.00800013 119.98285986
4520.00 -274.21540592 120.12555729
4522.00 -274.42284577 120.26834871
4524.00 -274.63031962 120.41123412
4526.00 -274.83782743 120.55421352
4528.00 -275.04536914 120.69728691
4530.00 -275.25294470 120.84045428
4532.00 -275.46055405 120.98371563
4534.00 -275.66819715 121.12707096
4536.00 -275.87587394 121.27052026
4538.00 -276.08358436 121.41406352
4540.00 -276.29132838 121.55770076
4542.00 -276.49910592 121.70143195
4544.00 -276.70691695 121.84525710
4546.00 -276.91476141 121.98917621
4548.00 -277.12263925 122.13318927
4550.00 -277.33055041 122.27729628
4552.00 -277.53849484 122.42149723
4554.00 -277.74647249 122.56579212
4556.00 -277.95448331 122.71018095
4558.00 -278.16252724 122.85466371
4560.00 -278.37060424 122.99924040
4562.00 -278.57871425 123.14391102
4564.00 -278.78685722 123.28867556
4566.00 -278.99503310 123.43353401
4568.00 -279.20324183 123.57848638
4570.00 -279.41148336 123.72353266
4572.00 -279.61975764 123.86867285
4574.00 -279.82806462 124.01390693
4576.00 -280.03640425 124.15923492
4578.00 -280.24477647 124.30465680
4580.00 -280.45318124 124.45017257
4582.00 -280.66161849 124.59578222
4584.00 -280.87008818 124.74148576
4586.00 -281.07859026 124.88728318
4588.00 -281.28712468 125.03317446
4590.00 -281.49569137 125.17915962
4592.00 -281.70429030 125.32523864
4594.00 -281.91292140 125.47141152
4596.00 -282.12158463 125.61767826
4598.00 -282.33027993 125.76403885
4600.00 -282.53900726 125.91049328
4602.00 -282.74776656 126.05704156
4604.00 -282.95655777 126.20368368
4606.00 -283.16538086 126.35041963
4608.00 -283.37423576 126.49724941
4610.00 -283.58312242 126.64417301
4612.00 -283.79204079 126.79119044
4614.00 -284.00099083 126.93830168
4616.00 -284.20997247 127.08550673
4618.00 -284.41898567 127.23280558
4620.00 -284.62803038 127.38019824
4622.00 -284.83710653 127.52768469
4624.00 -285.04621409 127.67526494
4626.00 -285.25535300 127.82293897
4628.00 -285.46452321 127.97070679
4630.00 -285.67372466 128.11856838
4632.00 -285.88295731 128.26652375
4634.00 -286.09222110 128.41457288
4636.00 -286.30151599 128.56271577
4638.00 -286.51084191 128.71095242
4640.00 -286.72019883 128.85928283
4642.00 -286.92958668 129.00770698
4644.00 -287.13900542 129.15622487
4646.00 -287.34845499 129.30483650
4648.00 -287.55793534 129.45354186
4650.00 -287.76744643 129.60234095
4652.00 -287.97698820 129.75123376
4654.00 -288.18656059 129.90022029
4656.00 -288.39616356 130.04930052
4658.00 -288.60579706 130.19847447
4660.00 -288.81546104 130.34774211
4662.00 -289.02515543 130.49710345
4664.00 -289.23488020 130.64655847
4666.00 -289.44463529 130.79610718
4668.00 -289.65442065 130.94574957
4670.00 -289.86423623 131.09548563
4672.00 -290.07408197 131.24531536
4674.00 -290.28395783 131.39523875
4676.00 -290.49386376 131.54525579
4678.00 -290.70379970 131.69536649
4680.00 -290.91376560 131.84557083
4682.00 -291.12376141 131.99586881
4684.00 -291.33378708 132.14626043
4686.00 -291.54384256 132.29674567
4688.00 -291.75392780 132.44732453
4690.00 -291.96404275 132.59799701
4692.00 -292.17418735 132.74876310
4694.00 -292.38436156 132.89962279
4696.00 -292.59456532 133.05057608
4698.00 -292.80479858 133.20162297
4700.00 -293.01506129 133.35276344
4702.00 -293.22535341 133.50399749
4704.00 -293.43567487 133.65532511
4706.00 -293.64602564 133.80674631
4708.00 -293.85640565 133.95826106
4710.00 -294.06681486 134.10986937
4712.00 -294.27725321 134.26157123
4714.00 -294.48772066 134.41336664
4716.00 -294.69821716 134.56525558
4718.00 -294.90874265 134.71723805
4720.00 -295.11929708 134.86931405
4722.00 -295.32988040 135.02148357
4724.00 -295.54049257 135.17374660
4726.00 -295.75113352 135.32610313
4728.00 -295.96180322 135.47855317
4730.00 -296.17250161 135.63109670
4732.00 -296.38322863 135.78373371
4734.00 -296.59398424 135.93646420
4736.00 -296.80476839 136.08928817
4738.00 -297.01558103 136.24220561
4740.00 -297.22642210 136.39521650
4742.00 -297.43729156 136.54832085
4744.00 -297.64818935 136.70151865
4746.00 -297.85911543 136.85480988
4748.00 -298.07006974 137.00819455
4750.00 -298.28105223 137.16167265
4752.00 -298.49206286 137.31524416
4754.00 -298.70310157 137.46890910
4756.00 -298.91416831 137.62266743
4758.00 -299.12526303 137.77651917
4760.00 -299.33638569 137.93046430
4762.00 -299.54753622 138.08450281
4764.00 -299.75871458 138.23863471
4766.00 -299.96992073 138.39285997
4768.00 -300.18115460 138.54717861
4770.00 -300.39241616 138.70159059
4772.00 -300.60370534 138.85609593
4774.00 -300.81502210 139.01069462
4776.00 -301.02636639 139.16538664
4778.00 -301.23773816 139.32017199
4780.00 -301.44913735 139.47505066
4782.00 -301.66056393 139.63002265
4784.00 -301.87201783 139.78508794
4786.00 -302.08349901 139.94024654
4788.00 -302.29500741 140.09549843
4790.00 -302.50654299 140.25084360
4792.00 -302.71810570 140.40628206
4794.00 -302.92969549 140.56181378
4796.00 -303.14131230 140.71743877
4798.00 -303.35295609 140.87315701
4800.00 -303.56462681 141.02896851
4802.00 -303.77632440 141.18487324
4804.00 -303.98804882 141.34087121
4806.00 -304.19980002 141.49696240
4808.00 -304.41157794 141.65314682
4810.00 -304.62338254 141.80942444
4812.00 -304.83521377 141.96579527
4814.00 -305.04707157 142.12225929
4816.00 -305.25895590 142.27881650
4818.00 -305.47086671 142.43546689
4820.00 -305.68280395 142.59221045
4822.00 -305.89476756 142.74904718
4824.00 -306.10675750 142.90597706
4826.00 -306.31877372 143.06300010
4828.00 -306.53081617 143.22011627
4830.00 -306.74288479 143.37732558
4832.00 -306.95497955 143.53462801
4834.00 -307.16710038 143.69202356
4836.00 -307.37924725 143.84951222
4838.00 -307.59142009 144.00709397
4840.00 -307.80361886 144.16476883
4842.00 -308.01584351 144.32253676
4844.00 -308.22809400 144.48039778
4846.00 -308.44037026 144.63835186
4848.00 -308.65267226 144.79639900
4850.00 -308.86499994 144.95453920
4852.00 -309.07735325 145.11277244
4854.00 -309.28973214 145.27109871
4856.00 -309.50213657 145.42951801
4858.00 -309.71456648 145.58803033
4860.00 -309.92702183 145.74663566
4862.00 -310.13950256 145.90533400
4864.00 -310.35200863 146.06412532
4866.00 -310.56453998 146.22300964
4868.00 -310.77709658 146.38198693
4870.00 -310.98967835 146.54105719
4872.00 -311.20228527 146.70022041
4874.00 -311.41491728 146.85947658
4876.00 -311.62757432 147.01882569
4878.00 -311.84025636 147.17826774
4880.00 -312.05296334 147.33780271
4882.00 -312.26569521 147.49743060
4884.00 -312.47845192 147.65715140
4886.00 -312.69123342 147.81696509
4888.00 -312.90403967 147.97687168
4890.00 -313.11687062 148.13687115
4892.00 -313.32972621 148.29696349
4894.00 -313.54260640 148.45714870
4896.00 -313.75551113 148.61742676
4898.00 -313.96844037 148.77779767
4900.00 -314.18139405 148.93826142
4902.00 -314.39437214 149.09881799
4904.00 -314.60737458 149.25946739
4906.00 -314.82040131 149.42020960
4908.00 -315.03345231 149.58104460
4910.00 -315.24652751 149.74197240
4912.00 -315.45962686 149.90299299
4914.00 -315.67275032 150.06410635
4916.00 -315.88589784 150.22531247
4918.00 -316.09906937 150.38661135
4920.00 -316.31226486 150.54800297
4922.00 -316.52548426 150.70948734
4924.00 -316.73872752 150.87106443
4926.00 -316.95199459 151.03273424
4928.00 -317.16528544 151.19449676
4930.00 -317.37859999 151.35635198
4932.00 -317.59193822 151.51829989
4934.00 -317.80530006 151.68034049
4936.00 -318.01868548 151.84247375
4938.00 -318.23209441 152.00469968
4940.00 -318.44552682 152.16701827
4942.00 -318.65898265 152.32942949
4944.00 -318.87246186 152.49193335
4946.00 -319.08596440 152.65452984
4948.00 -319.29949021 152.81721894
4950.00 -319.51303925 152.98000064
4952.00 -319.72661148 153.14287494
4954.00 -319.94020684 153.30584183
4956.00 -320.15382528 153.46890129
4958.00 -320.36746676 153.63205332
4960.00 -320.58113122 153.79529791
4962.00 -320.79481862 153.95863504
4964.00 -321.00852892 154.12206472
4966.00 -321.22226206 154.28558692
4968.00 -321.43601799 154.44920163
4970.00 -321.64979666 154.61290886
4972.00 -321.86359804 154.77670858
4974.00 -322.07742206 154.94060079
4976.00 -322.29126868 155.10458548
4978.00 -322.50513786 155.26866264
4980.00 -322.71902954 155.43283225
4982.00 -322.93294367 155.59709431
4984.00 -323.14688022 155.76144881
4986.00 -323.36083912 155.92589574
4988.00 -323.57482033 156.09043508
4990.00 -323.78882381 156.25506684
4992.00 -324.00284950 156.41979098
4994.00 -324.21689736 156.58460752
4996.00 -324.43096734 156.74951643
4998.00 -324.64505938 156.91451771
5000.00 -324.85917346 157.07961135
