wavelength(nm)         real         imag
100.00   3.79159634   0.00103590
102.00   3.78721725   0.00109930
104.00   3.78275148   0.00116523
106.00   3.77819903   0.00123375
108.00   3.77355990   0.00130491
110.00   3.76883409   0.00137875
112.00   3.76402161   0.00145532
114.00   3.75912246   0.00153468
116.00   3.75413664   0.00161687
118.00   3.74906416   0.00170195
120.00   3.74390501   0.00178996
122.00   3.73865919   0.00188094
124.00   3.73332672   0.00197497
126.00   3.72790759   0.00207207
128.00   3.72240180   0.00217230
130.00   3.71680936   0.00227572
132.00   3.71113027   0.00238236
134.00   3.70536453   0.00249229
136.00   3.69951215   0.00260555
138.00   3.69357312   0.00272218
140.00   3.68754746   0.00284225
142.00   3.68143515   0.00296579
144.00   3.67523621   0.00309286
146.00   3.66895064   0.00322351
148.00   3.66257844   0.00335779
150.00   3.65611961   0.00349575
152.00   3.64957415   0.00363743
154.00   3.64294208   0.00378289
156.00   3.63622339   0.00393217
158.00   3.62941808   0.00408534
160.00   3.62252616   0.00424242
162.00   3.61554763   0.00440348
164.00   3.60848250   0.00456857
166.00   3.60133076   0.00473773
168.00   3.59409242   0.00491102
170.00   3.58676749   0.00508848
172.00   3.57935596   0.00527016
174.00   3.57185784   0.00545611
176.00   3.56427313   0.00564639
178.00   3.55660184   0.00584104
180.00   3.54884397   0.00604011
182.00   3.54099953   0.00624365
184.00   3.53306851   0.00645171
186.00   3.52505091   0.00666434
188.00   3.51694676   0.00688159
190.00   3.50875604   0.00710351
192.00   3.50047876   0.00733015
194.00   3.49211492   0.00756156
196.00   3.48366453   0.00779779
198.00   3.47512760   0.00803888
200.00   3.46650412   0.00828489
202.00   3.45779409   0.00853587
204.00   3.44899754   0.00879187
206.00   3.44011444   0.00905293
208.00   3.43114482   0.00931910
210.00   3.42208867   0.00959044
212.00   3.41294601   0.00986699
214.00   3.40371682   0.01014881
216.00   3.39440112   0.01043595
218.00   3.38499891   0.01072844
220.00   3.37551020   0.01102635
222.00   3.36593498   0.01132972
224.00   3.35627327   0.01163860
226.00   3.34652506   0.01195304
228.00   3.33669037   0.01227309
230.00   3.32676919   0.01259880
232.00   3.31676154   0.01293022
234.00   3.30666740   0.01326741
236.00   3.29648680   0.01361039
238.00   3.28621973   0.01395924
240.00   3.27586620   0.01431400
242.00   3.26542621   0.01467471
244.00   3.25489977   0.01504142
246.00   3.24428688   0.01541420
248.00   3.23358754   0.01579308
250.00   3.22280177   0.01617811
252.00   3.21192956   0.01656935
254.00   3.20097092   0.01696684
256.00   3.18992586   0.01737063
258.00   3.17879438   0.01778078
260.00   3.16757648   0.01819733
262.00   3.15627218   0.01862032
264.00   3.14488146   0.01904983
266.00   3.13340435   0.01948588
268.00   3.12184084   0.01992853
270.00   3.11019095   0.02037782
272.00   3.09845466   0.02083382
274.00   3.08663200   0.02129657
276.00   3.07472296   0.02176611
278.00   3.06272756   0.02224250
280.00   3.05064579   0.02272578
282.00   3.03847766   0.02321601
284.00   3.02622317   0.02371323
286.00   3.01388234   0.02421750
288.00   3.00145517   0.02472886
290.00   2.98894165   0.02524737
292.00   2.97634181   0.02577307
294.00   2.96365564   0.02630600
296.00   2.95088315   0.02684623
298.00   2.93802434   0.02739380
300.00   2.92507923   0.02794876
302.00   2.91204780   0.02851115
304.00   2.89893009   0.02908104
306.00   2.88572607   0.02965846
308.00   2.87243578   0.03024347
310.00   2.85905920   0.03083612
312.00   2.84559634   0.03143645
314.00   2.83204722   0.03204451
316.00   2.81841183   0.03266036
318.00   2.80469019   0.03328404
320.00   2.79088229   0.03391560
322.00   2.77698815   0.03455510
324.00   2.76300777   0.03520258
326.00   2.74894115   0.03585808
328.00   2.73478831   0.03652167
330.00   2.72054925   0.03719338
332.00   2.70622398   0.03787328
334.00   2.69181249   0.03856140
336.00   2.67731480   0.03925779
338.00   2.66273092   0.03996251
340.00   2.64806085   0.04067561
342.00   2.63330459   0.04139713
344.00   2.61846216   0.04212712
346.00   2.60353356   0.04286564
348.00   2.58851880   0.04361273
350.00   2.57341787   0.04436844
352.00   2.55823080   0.04513281
354.00   2.54295759   0.04590591
356.00   2.52759823   0.04668778
358.00   2.51215275   0.04747846
360.00   2.49662114   0.04827801
362.00   2.48100342   0.04908648
364.00   2.46529958   0.04990391
366.00   2.44950965   0.05073035
368.00   2.43363361   0.05156586
370.00   2.41767149   0.05241048
372.00   2.40162329   0.05326426
374.00   2.38548901   0.05412725
376.00   2.36926866   0.05499950
378.00   2.35296225   0.05588106
380.00   2.33656978   0.05677198
382.00   2.32009127   0.05767230
384.00   2.30352672   0.05858208
386.00   2.28687614   0.05950137
388.00   2.27013953   0.06043021
390.00   2.25331691   0.06136865
392.00   2.23640827   0.06231674
394.00   2.21941363   0.06327454
396.00   2.20233299   0.06424209
398.00   2.18516637   0.06521943
400.00   2.16791377   0.06620662
402.00   2.15057519   0.06720371
404.00   2.13315064   0.06821075
406.00   2.11564014   0.06922778
408.00   2.09804369   0.07025486
410.00   2.08036129   0.07129203
412.00   2.06259296   0.07233934
414.00   2.04473871   0.07339684
416.00   2.02679853   0.07446458
418.00   2.00877244   0.07554261
420.00   1.99066045   0.07663098
422.00   1.97246256   0.07772974
424.00   1.95417878   0.07883893
426.00   1.93580912   0.07995861
428.00   1.91735359   0.08108882
430.00   1.89881220   0.08222961
432.00   1.88018495   0.08338104
434.00   1.86147186   0.08454314
436.00   1.84267292   0.08571597
438.00   1.82378815   0.08689959
440.00   1.80481756   0.08809403
442.00   1.78576116   0.08929934
444.00   1.76661894   0.09051558
446.00   1.74739093   0.09174279
448.00   1.72807713   0.09298103
450.00   1.70867755   0.09423034
452.00   1.68919219   0.09549076
454.00   1.66962107   0.09676236
456.00   1.64996420   0.09804517
458.00   1.63022158   0.09933925
460.00   1.61039321   0.10064464
462.00   1.59047912   0.10196140
464.00   1.57047931   0.10328957
466.00   1.55039378   0.10462921
468.00   1.53022255   0.10598035
470.00   1.50996563   0.10734305
472.00   1.48962301   0.10871736
474.00   1.46919472   0.11010333
476.00   1.44868077   0.11150100
478.00   1.42808115   0.11291042
480.00   1.40739588   0.11433165
482.00   1.38662497   0.11576473
484.00   1.36576843   0.11720971
486.00   1.34482626   0.11866664
488.00   1.32379848   0.12013556
490.00   1.30268509   0.12161653
492.00   1.28148611   0.12310960
494.00   1.26020154   0.12461481
496.00   1.23883139   0.12613221
498.00   1.21737568   0.12766185
500.00   1.19583440   0.12920378
502.00   1.17420758   0.13075805
504.00   1.15249521   0.13232470
506.00   1.13069732   0.13390379
508.00   1.10881390   0.13549537
510.00   1.08684497   0.13709947
512.00   1.06479054   0.13871616
514.00   1.04265062   0.14034547
516.00   1.02042522   0.14198746
518.00   0.99811434   0.14364218
520.00   0.97571799   0.14530967
522.00   0.95323620   0.14698999
524.00   0.93066896   0.14868318
526.00   0.90801628   0.15038929
528.00   0.88527818   0.15210837
530.00   0.86245467   0.15384046
532.00   0.83954575   0.15558562
534.00   0.81655144   0.15734390
536.00   0.79347174   0.15911533
538.00   0.77030667   0.16089998
540.00   0.74705623   0.16269789
542.00   0.72372044   0.16450911
544.00   0.70029931   0.16633368
546.00   0.67679284   0.16817165
548.00   0.65320105   0.17002308
550.00   0.62952394   0.17188802
552.00   0.60576153   0.17376650
554.00   0.58191383   0.17565858
556.00   0.55798084   0.17756430
558.00   0.53396259   0.17948372
560.00   0.50985907   0.18141689
562.00   0.48567030   0.18336384
564.00   0.46139629   0.18532464
566.00   0.43703705   0.18729932
568.00   0.41259259   0.18928794
570.00   0.38806292   0.19129055
572.00   0.36344805   0.19330719
574.00   0.33874799   0.19533791
576.00   0.31396276   0.19738276
578.00   0.28909236   0.19944178
580.00   0.26413681   0.20151504
582.00   0.23909611   0.20360257
584.00   0.21397028   0.20570442
586.00   0.18875932   0.20782064
588.00   0.16346325   0.20995128
590.00   0.13808209   0.21209638
592.00   0.11261583   0.21425600
594.00   0.08706449   0.21643019
596.00   0.06142809   0.21861899
598.00   0.03570663   0.22082244
600.00   0.00990012   0.22304061
602.00  -0.01599141   0.22527353
604.00  -0.04196798   0.22752125
606.00  -0.06802955   0.22978383
608.00  -0.09417613   0.23206130
610.00  -0.12040769   0.23435373
612.00  -0.14672423   0.23666115
614.00  -0.17312574   0.23898361
616.00  -0.19961220   0.24132117
618.00  -0.22618360   0.24367387
620.00  -0.25283994   0.24604175
622.00  -0.27958120   0.24842488
624.00  -0.30640736   0.25082329
626.00  -0.33331842   0.25323703
628.00  -0.36031437   0.25566615
630.00  -0.38739519   0.25811069
632.00  -0.41456088   0.26057072
634.00  -0.44181141   0.26304627
636.00  -0.46914678   0.26553739
638.00  -0.49656698   0.26804413
640.00  -0.52407199   0.27056654
642.00  -0.55166180   0.27310467
644.00  -0.57933641   0.27565856
646.00  -0.60709579   0.27822826
648.00  -0.63493994   0.28081382
650.00  -0.66286884   0.28341529
652.00  -0.69088249   0.28603271
654.00  -0.71898087   0.28866614
656.00  -0.74716396   0.29131562
658.00  -0.77543176   0.29398119
660.00  -0.80378426   0.29666292
662.00  -0.83222143   0.29936084
664.00  -0.86074328   0.30207499
666.00  -0.88934978   0.30480544
668.00  -0.91804093   0.30755223
670.00  -0.94681671   0.31031540
672.00  -0.97567710   0.31309501
674.00  -1.00462211   0.31589109
676.00  -1.03365170   0.31870371
678.00  -1.06276589   0.32153290
680.00  -1.09196463   0.32437871
682.00  -1.12124794   0.32724120
684.00  -1.15061579   0.33012040
686.00  -1.18006817   0.33301638
688.00  -1.20960507   0.33592916
690.00  -1.23922648   0.33885881
692.00  -1.26893237   0.34180537
694.00  -1.29872275   0.34476888
696.00  -1.32859760   0.34774940
698.00  -1.35855690   0.35074697
700.00  -1.38860064   0.35376165
702.00  -1.41872881   0.35679347
704.00  -1.44894139   0.35984248
706.00  -1.47923838   0.36290874
708.00  -1.50961975   0.36599228
710.00  -1.54008550   0.36909317
712.00  -1.57063562   0.37221144
714.00  -1.60127008   0.37534714
716.00  -1.63198888   0.37850032
718.00  -1.66279200   0.38167103
720.00  -1.69367943   0.38485932
722.00  -1.72465116   0.38806522
724.00  -1.75570718   0.39128880
726.00  -1.78684746   0.39453009
728.00  -1.81807199   0.39778915
730.00  -1.84938077   0.40106602
732.00  -1.88077378   0.40436075
734.00  -1.91225101   0.40767338
736.00  -1.94381243   0.41100397
738.00  -1.97545805   0.41435256
740.00  -2.00718784   0.41771920
742.00  -2.03900179   0.42110393
744.00  -2.07089989   0.42450681
746.00  -2.10288212   0.42792787
748.00  -2.13494847   0.43136718
750.00  -2.16709892   0.43482477
752.00  -2.19933347   0.43830069
754.00  -2.23165210   0.44179499
756.00  -2.26405479   0.44530772
758.00  -2.29654153   0.44883892
760.00  -2.32911230   0.45238864
762.00  -2.36176710   0.45595692
764.00  -2.39450591   0.45954383
766.00  -2.42732871   0.46314939
768.00  -2.46023549   0.46677367
770.00  -2.49322623   0.47041670
772.00  -2.52630093   0.47407854
774.00  -2.55945956   0.47775922
776.00  -2.59270212   0.48145880
778.00  -2.62602858   0.48517733
780.00  -2.65943894   0.48891485
782.00  -2.69293317   0.49267141
784.00  -2.72651128   0.49644705
786.00  -2.76017323   0.50024183
788.00  -2.79391902   0.50405579
790.00  -2.82774863   0.50788897
792.00  -2.86166205   0.51174143
794.00  -2.89565926   0.51561320
796.00  -2.92974024   0.51950435
798.00  -2.96390500   0.52341491
800.00  -2.99815349   0.52734493
802.00  -3.03248573   0.53129446
804.00  -3.06690168   0.53526354
806.00  -3.10140133   0.53925223
808.00  -3.13598468   0.54326056
810.00  -3.17065170   0.54728859
812.00  -3.20540237   0.55133637
814.00  -3.24023670   0.55540393
816.00  -3.27515465   0.55949133
818.00  -3.31015621   0.56359861
820.00  -3.34524138   0.56772582
822.00  -3.38041013   0.57187301
824.00  -3.41566245   0.57604022
826.00  -3.45099832   0.58022749
828.00  -3.48641773   0.58443489
830.00  -3.52192066   0.58866245
832.00  -3.55750711   0.59291022
834.00  -3.59317704   0.59717825
836.00  -3.62893045   0.60146657
838.00  -3.66476733   0.60577525
840.00  -3.70068765   0.61010433
842.00  -3.73669140   0.61445385
844.00  -3.77277857   0.61882385
846.00  -3.80894914   0.62321440
848.00  -3.84520309   0.62762552
850.00  -3.88154042   0.63205728
852.00  -3.91796109   0.63650971
854.00  -3.95446511   0.64098286
856.00  -3.99105244   0.64547679
858.00  -4.02772309   0.64999152
860.00  -4.06447702   0.65452712
862.00  -4.10131423   0.65908363
864.00  -4.13823470   0.66366109
866.00  -4.17523841   0.66825956
868.00  -4.21232534   0.67287907
870.00  -4.24949549   0.67751967
872.00  -4.28674884   0.68218142
874.00  -4.32408536   0.68686435
876.00  -4.36150505   0.69156851
878.00  -4.39900789   0.69629396
880.00  -4.43659385   0.70104073
882.00  -4.47426293   0.70580887
884.00  -4.51201511   0.71059843
886.00  -4.54985038   0.71540945
888.00  -4.58776871   0.72024199
890.00  -4.62577009   0.72509608
892.00  -4.66385450   0.72997178
894.00  -4.70202193   0.73486912
896.00  -4.74027237   0.73978816
898.00  -4.77860579   0.74472894
900.00  -4.81702217   0.74969151
902.00  -4.85552151   0.75467592
904.00  -4.89410379   0.75968220
906.00  -4.93276898   0.76471041
908.00  -4.97151707   0.76976059
910.00  -5.01034806   0.77483280
912.00  -5.04926191   0.77992706
914.00  -5.08825861   0.78504344
916.00  -5.12733815   0.79018197
918.00  -5.16650051   0.79534271
920.00  -5.20574567   0.80052570
922.00  -5.24507361   0.80573098
924.00  -5.28448432   0.81095860
926.00  -5.32397779   0.81620860
928.00  -5.36355399   0.82148105
930.00  -5.40321291   0.82677596
932.00  -5.44295453   0.83209341
934.00  -5.48277883   0.83743342
936.00  -5.52268580   0.84279605
938.00  -5.56267542   0.84818134
940.00  -5.60274767   0.85358934
942.00  -5.64290254   0.85902010
944.00  -5.68314001   0.86447365
946.00  -5.72346005   0.86995005
948.00  -5.76386266   0.87544934
950.00  -5.80434782   0.88097157
952.00  -5.84491551   0.88651678
954.00  -5.88556571   0.89208502
956.00  -5.92629840   0.89767633
958.00  -5.96711357   0.90329076
960.00  -6.00801120   0.90892836
962.00  -6.04899127   0.91458917
964.00  -6.09005377   0.92027324
966.00  -6.13119867   0.92598061
968.00  -6.17242597   0.93171133
970.00  -6.21373563   0.93746544
972.00  -6.25512765   0.94324299
974.00  -6.29660201   0.94904402
976.00  -6.33815868   0.95486859
978.00  -6.37979766   0.96071673
980.00  -6.42151892   0.96658850
982.00  -6.46332245   0.97248393
984.00  -6.50520822   0.97840307
986.00  -6.54717622   0.98434597
988.00  -6.58922644   0.99031268
990.00  -6.63135884   0.99630323
992.00  -6.67357343   1.00231768
994.00  -6.71587017   1.00835607
996.00  -6.75824905   1.01441844
998.00  -6.80071006   1.02050485
1000.00  -6.84325317   1.02661533
1002.00  -6.88587836   1.03274993
1004.00  -6.92858562   1.03890870
1006.00  -6.97137493   1.04509168
1008.00  -7.01424627   1.05129891
1010.00  -7.05719963   1.05753045
1012.00  -7.10023497   1.06378634
1014.00  -7.14335230   1.07006662
1016.00  -7.18655158   1.07637134
1018.00  -7.22983280   1.08270054
1020.00  -7.27319594   1.08905427
1022.00  -7.31664099   1.09543257
1024.00  -7.36016792   1.10183549
1026.00  -7.40377671   1.10826308
1028.00  -7.44746735   1.11471537
1030.00  -7.49123982   1.12119242
1032.00  -7.53509410   1.12769427
1034.00  -7.57903016   1.13422096
1036.00  -7.62304800   1.14077254
1038.00  -7.66714760   1.14734906
1040.00  -7.71132893   1.15395056
1042.00  -7.75559197   1.16057708
1044.00  -7.79993671   1.16722867
1046.00  -7.84436313   1.17390537
1048.00  -7.88887121   1.18060723
1050.00  -7.93346093   1.18733430
1052.00  -7.97813227   1.19408662
1054.00  -8.02288521   1.20086423
1056.00  -8.06771974   1.20766718
1058.00  -8.11263583   1.21449551
1060.00  -8.15763346   1.22134927
1062.00  -8.20271262   1.22822850
1064.00  -8.24787329   1.23513326
1066.00  -8.29311544   1.24206357
1068.00  -8.33843907   1.24901949
1070.00  -8.38384414   1.25600107
1072.00  -8.42933064   1.26300834
1074.00  -8.47489855   1.27004135
1076.00  -8.52054786   1.27710016
1078.00  -8.56627853   1.28418479
1080.00  -8.61209056   1.29129529
1082.00  -8.65798392   1.29843172
1084.00  -8.70395860   1.30559412
1086.00  -8.75001457   1.31278252
1088.00  -8.79615181   1.31999697
1090.00  -8.84237031   1.32723753
1092.00  -8.88867004   1.33450423
1094.00  -8.93505099   1.34179712
1096.00  -8.98151313   1.34911624
1098.00  -9.02805645   1.35646163
1100.00  -9.07468093   1.36383335
1102.00  -9.12138654   1.37123143
1104.00  -9.16817327   1.37865592
1106.00  -9.21504110   1.38610687
1108.00  -9.26199001   1.39358432
1110.00  -9.30901997   1.40108831
1112.00  -9.35613097   1.40861889
1114.00  -9.40332298   1.41617610
1116.00  -9.45059600   1.42375998
1118.00  -9.49794999   1.43137059
1120.00  -9.54538493   1.43900796
1122.00  -9.59290082   1.44667214
1124.00  -9.64049762   1.45436318
1126.00  -9.68817532   1.46208111
1128.00  -9.73593390   1.46982598
1130.00  -9.78377333   1.47759784
1132.00  -9.83169360   1.48539673
1134.00  -9.87969468   1.49322270
1136.00  -9.92777656   1.50107578
1138.00  -9.97593922   1.50895603
1140.00 -10.02418263   1.51686348
1142.00 -10.07250677   1.52479819
1144.00 -10.12091163   1.53276018
1146.00 -10.16939718   1.54074952
1148.00 -10.21796341   1.54876624
1150.00 -10.26661029   1.55681039
1152.00 -10.31533780   1.56488201
1154.00 -10.36414592   1.57298114
1156.00 -10.41303463   1.58110783
1158.00 -10.46200391   1.58926213
1160.00 -10.51105374   1.59744407
1162.00 -10.56018410   1.60565370
1164.00 -10.60939497   1.61389107
1166.00 -10.65868633   1.62215621
1168.00 -10.70805815   1.63044918
1170.00 -10.75751042   1.63877001
1172.00 -10.80704311   1.64711875
1174.00 -10.85665620   1.65549544
1176.00 -10.90634968   1.66390014
1178.00 -10.95612352   1.67233287
1180.00 -11.00597770   1.68079369
1182.00 -11.05591220   1.68928263
1184.00 -11.10592700   1.69779975
1186.00 -11.15602208   1.70634508
1188.00 -11.20619741   1.71491868
1190.00 -11.25645298   1.72352057
1192.00 -11.30678876   1.73215081
1194.00 -11.35720473   1.74080945
1196.00 -11.40770088   1.74949651
1198.00 -11.45827718   1.75821205
1200.00 -11.50893360   1.76695612
1202.00 -11.55967013   1.77572874
1204.00 -11.61048675   1.78452998
1206.00 -11.66138344   1.79335986
1208.00 -11.71236017   1.80221844
1210.00 -11.76341692   1.81110576
1212.00 -11.81455367   1.82002186
1214.00 -11.86577040   1.82896678
1216.00 -11.91706708   1.83794057
1218.00 -11.96844370   1.84694328
1220.00 -12.01990024   1.85597493
1222.00 -12.07143667   1.86503559
1224.00 -12.12305297   1.87412528
1226.00 -12.17474912   1.88324407
1228.00 -12.22652509   1.89239197
1230.00 -12.27838087   1.90156905
1232.00 -12.33031644   1.91077534
1234.00 -12.38233176   1.92001089
1236.00 -12.43442683   1.92927575
1238.00 -12.48660162   1.93856994
1240.00 -12.53885610   1.94789352
1242.00 -12.59119025   1.95724653
1244.00 -12.64360406   1.96662901
1246.00 -12.69609750   1.97604101
1248.00 -12.74867054   1.98548257
1250.00 -12.80132317   1.99495373
1252.00 -12.85405537   2.00445453
1254.00 -12.90686711   2.01398502
1256.00 -12.95975836   2.02354524
1258.00 -13.01272912   2.03313524
1260.00 -13.06577935   2.04275505
1262.00 -13.11890903   2.05240472
1264.00 -13.17211814   2.06208430
1266.00 -13.22540667   2.07179382
1268.00 -13.27877457   2.08153332
1270.00 -13.33222184   2.09130286
1272.00 -13.38574846   2.10110247
1274.00 -13.43935439   2.11093220
1276.00 -13.49303961   2.12079209
1278.00 -13.54680411   2.13068217
1280.00 -13.60064786   2.14060251
1282.00 -13.65457084   2.15055313
1284.00 -13.70857303   2.16053408
1286.00 -13.76265440   2.17054540
1288.00 -13.81681493   2.18058713
1290.00 -13.87105460   2.19065933
1292.00 -13.92537338   2.20076202
1294.00 -13.97977126   2.21089526
1296.00 -14.03424820   2.22105908
1298.00 -14.08880420   2.23125353
1300.00 -14.14343921   2.24147865
1302.00 -14.19815323   2.25173448
1304.00 -14.25294623   2.26202107
1306.00 -14.30781818   2.27233846
1308.00 -14.36276906   2.28268668
1310.00 -14.41779886   2.29306579
1312.00 -14.47290754   2.30347582
1314.00 -14.52809508   2.31391682
1316.00 -14.58336146   2.32438883
1318.00 -14.63870666   2.33489189
1320.00 -14.69413066   2.34542604
1322.00 -14.74963342   2.35599133
1324.00 -14.80521494   2.36658780
1326.00 -14.86087518   2.37721549
1328.00 -14.91661411   2.38787444
1330.00 -14.97243173   2.39856470
1332.00 -15.02832800   2.40928630
1334.00 -15.08430291   2.42003930
1336.00 -15.14035642   2.43082372
1338.00 -15.19648851   2.44163962
1340.00 -15.25269917   2.45248703
1342.00 -15.30898836   2.46336600
1344.00 -15.36535607   2.47427657
1346.00 -15.42180227   2.48521878
1348.00 -15.47832694   2.49619268
1350.00 -15.53493005   2.50719830
1352.00 -15.59161158   2.51823568
1354.00 -15.64837150   2.52930488
1356.00 -15.70520980   2.54040593
1358.00 -15.76212645   2.55153887
1360.00 -15.81912142   2.56270374
1362.00 -15.87619470   2.57390060
1364.00 -15.93334625   2.58512947
1366.00 -15.99057605   2.59639040
1368.00 -16.04788409   2.60768343
1370.00 -16.10527033   2.61900860
1372.00 -16.16273475   2.63036597
1374.00 -16.22027734   2.64175555
1376.00 -16.27789805   2.65317741
1378.00 -16.33559688   2.66463158
1380.00 -16.39337379   2.67611810
1382.00 -16.45122877   2.68763701
1384.00 -16.50916178   2.69918836
1386.00 -16.56717281   2.71077218
1388.00 -16.62526183   2.72238853
1390.00 -16.68342881   2.73403743
1392.00 -16.74167374   2.74571893
1394.00 -16.79999658   2.75743308
1396.00 -16.85839731   2.76917991
1398.00 -16.91687592   2.78095947
1400.00 -16.97543237   2.79277179
1402.00 -17.03406664   2.80461692
1404.00 -17.09277870   2.81649490
1406.00 -17.15156854   2.82840577
1408.00 -17.21043613   2.84034958
1410.00 -17.26938143   2.85232635
1412.00 -17.32840444   2.86433615
1414.00 -17.38750512   2.87637900
1416.00 -17.44668345   2.88845494
1418.00 -17.50593940   2.90056403
1420.00 -17.56527295   2.91270629
1422.00 -17.62468408   2.92488177
1424.00 -17.68417276   2.93709052
1426.00 -17.74373896   2.94933257
1428.00 -17.80338267   2.96160796
1430.00 -17.86310385   2.97391674
1432.00 -17.92290249   2.98625895
1434.00 -17.98277855   2.99863462
1436.00 -18.04273202   3.01104380
1438.00 -18.10276286   3.02348653
1440.00 -18.16287105   3.03596285
1442.00 -18.22305658   3.04847280
1444.00 -18.28331940   3.06101642
1446.00 -18.34365950   3.07359376
1448.00 -18.40407686   3.08620484
1450.00 -18.46457144   3.09884973
1452.00 -18.52514323   3.11152845
1454.00 -18.58579219   3.12424104
1456.00 -18.64651831   3.13698755
1458.00 -18.70732156   3.14976802
1460.00 -18.76820190   3.16258249
1462.00 -18.82915933   3.17543099
1464.00 -18.89019380   3.18831358
1466.00 -18.95130531   3.20123029
1468.00 -19.01249381   3.21418115
1470.00 -19.07375929   3.22716622
1472.00 -19.13510172   3.24018553
1474.00 -19.19652108   3.25323912
1476.00 -19.25801734   3.26632704
1478.00 -19.31959047   3.27944932
1480.00 -19.38124045   3.29260600
1482.00 -19.44296726   3.30579713
1484.00 -19.50477086   3.31902274
1486.00 -19.56665124   3.33228288
1488.00 -19.62860836   3.34557759
1490.00 -19.69064221   3.35890690
1492.00 -19.75275275   3.37227085
1494.00 -19.81493996   3.38566950
1496.00 -19.87720382   3.39910287
1498.00 -19.93954429   3.41257101
1500.00 -20.00196136   3.42607395
1502.00 -20.06445500   3.43961175
1504.00 -20.12702518   3.45318443
1506.00 -20.18967188   3.46679204
1508.00 -20.25239507   3.48043461
1510.00 -20.31519472   3.49411220
1512.00 -20.37807081   3.50782484
1514.00 -20.44102331   3.52157256
1516.00 -20.50405220   3.53535541
1518.00 -20.56715745   3.54917343
1520.00 -20.63033904   3.56302666
1522.00 -20.69359693   3.57691514
1524.00 -20.75693111   3.59083891
1526.00 -20.82034155   3.60479801
1528.00 -20.88382821   3.61879247
1530.00 -20.94739108   3.63282235
1532.00 -21.01103013   3.64688767
1534.00 -21.07474534   3.66098848
1536.00 -21.13853666   3.67512481
1538.00 -21.20240409   3.68929672
1540.00 -21.26634759   3.70350423
1542.00 -21.33036714   3.71774739
1544.00 -21.39446271   3.73202624
1546.00 -21.45863428   3.74634081
1548.00 -21.52288181   3.76069116
1550.00 -21.58720529   3.77507730
1552.00 -21.65160468   3.78949929
1554.00 -21.71607996   3.80395717
1556.00 -21.78063111   3.81845097
1558.00 -21.84525809   3.83298074
1560.00 -21.90996088   3.84754651
1562.00 -21.97473945   3.86214832
1564.00 -22.03959378   3.87678622
1566.00 -22.10452384   3.89146024
1568.00 -22.16952961   3.90617042
1570.00 -22.23461105   3.92091680
1572.00 -22.29976814   3.93569943
1574.00 -22.36500085   3.95051833
1576.00 -22.43030917   3.96537355
1578.00 -22.49569305   3.98026513
1580.00 -22.56115247   3.99519311
1582.00 -22.62668741   4.01015753
1584.00 -22.69229785   4.02515842
1586.00 -22.75798374   4.04019582
1588.00 -22.82374507   4.05526979
1590.00 -22.88958181   4.07038034
1592.00 -22.95549393   4.08552753
1594.00 -23.02148140   4.10071139
1596.00 -23.08754421   4.11593197
1598.00 -23.15368231   4.13118929
1600.00 -23.21989569   4.14648340
1602.00 -23.28618432   4.16181434
1604.00 -23.35254816   4.17718215
1606.00 -23.41898720   4.19258687
1608.00 -23.48550141   4.20802853
1610.00 -23.55209075   4.22350717
1612.00 -23.61875520   4.23902284
1614.00 -23.68549474   4.25457557
1616.00 -23.75230934   4.27016540
1618.00 -23.81919896   4.28579236
1620.00 -23.88616359   4.30145651
1622.00 -23.95320319   4.31715788
1624.00 -24.02031774   4.33289650
1626.00 -24.08750721   4.34867241
1628.00 -24.15477157   4.36448566
1630.00 -24.22211080   4.38033628
1632.00 -24.28952486   4.39622432
1634.00 -24.35701374   4.41214980
1636.00 -24.42457740   4.42811277
1638.00 -24.49221581   4.44411326
1640.00 -24.55992895   4.46015132
1642.00 -24.62771679   4.47622698
1644.00 -24.69557931   4.49234029
1646.00 -24.76351647   4.50849128
1648.00 -24.83152824   4.52467998
1650.00 -24.89961461   4.54090644
1652.00 -24.96777554   4.55717070
1654.00 -25.03601100   4.57347279
1656.00 -25.10432097   4.58981276
1658.00 -25.17270542   4.60619063
1660.00 -25.24116432   4.62260646
1662.00 -25.30969764   4.63906027
1664.00 -25.37830536   4.65555211
1666.00 -25.44698744   4.67208201
1668.00 -25.51574386   4.68865001
1670.00 -25.58457460   4.70525615
1672.00 -25.65347962   4.72190047
1674.00 -25.72245889   4.73858301
1676.00 -25.79151239   4.75530380
1678.00 -25.86064009   4.77206289
1680.00 -25.92984196   4.78886030
1682.00 -25.99911798   4.80569608
1684.00 -26.06846811   4.82257027
1686.00 -26.13789233   4.83948291
1688.00 -26.20739060   4.85643402
1690.00 -26.27696291   4.87342366
1692.00 -26.34660922   4.89045186
1694.00 -26.41632950   4.90751865
1696.00 -26.48612373   4.92462407
1698.00 -26.55599188   4.94176817
1700.00 -26.62593392   4.95895098
1702.00 -26.69594981   4.97617253
1704.00 -26.76603954   4.99343287
1706.00 -26.83620308   5.01073203
1708.00 -26.90644039   5.02807005
1710.00 -26.97675145   5.04544697
1712.00 -27.04713623   5.06286283
1714.00 -27.11759469   5.08031766
1716.00 -27.18812682   5.09781150
1718.00 -27.25873259   5.11534438
1720.00 -27.32941195   5.13291636
1722.00 -27.40016490   5.15052745
1724.00 -27.47099139   5.16817771
1726.00 -27.54189140   5.18586717
1728.00 -27.61286490   5.20359586
1730.00 -27.68391187   5.22136383
1732.00 -27.75503226   5.23917110
1734.00 -27.82622606   5.25701773
1736.00 -27.89749324   5.27490373
1738.00 -27.96883376   5.29282917
1740.00 -28.04024760   5.31079406
1742.00 -28.11173473   5.32879845
1744.00 -28.18329512   5.34684237
1746.00 -28.25492875   5.36492586
1748.00 -28.32663557   5.38304896
1750.00 -28.39841557   5.40121171
1752.00 -28.47026871   5.41941414
1754.00 -28.54219497   5.43765629
1756.00 -28.61419432   5.45593820
1758.00 -28.68626672   5.47425990
1760.00 -28.75841215   5.49262143
1762.00 -28.83063058   5.51102283
1764.00 -28.90292199   5.52946414
1766.00 -28.97528633   5.54794538
1768.00 -29.04772359   5.56646661
1770.00 -29.12023372   5.58502785
1772.00 -29.19281672   5.60362914
1774.00 -29.26547254   5.62227053
1776.00 -29.33820115   5.64095204
1778.00 -29.41100253   5.65967371
1780.00 -29.48387665   5.67843558
1782.00 -29.55682347   5.69723769
1784.00 -29.62984297   5.71608007
1786.00 -29.70293512   5.73496276
1788.00 -29.77609990   5.75388579
1790.00 -29.84933726   5.77284921
1792.00 -29.92264718   5.79185305
1794.00 -29.99602963   5.81089734
1796.00 -30.06948459   5.82998213
1798.00 -30.14301202   5.84910745
1800.00 -30.21661189   5.86827333
1802.00 -30.29028417   5.88747981
1804.00 -30.36402884   5.90672693
1806.00 -30.43784586   5.92601473
1808.00 -30.51173521   5.94534324
1810.00 -30.58569685   5.96471249
1812.00 -30.65973076   5.98412253
1814.00 -30.73383690   6.00357339
1816.00 -30.80801525   6.02306511
1818.00 -30.88226578   6.04259771
1820.00 -30.95658845   6.06217125
1822.00 -31.03098324   6.08178575
1824.00 -31.10545012   6.10144125
1826.00 -31.17998905   6.12113779
1828.00 -31.25460001   6.14087541
1830.00 -31.32928297   6.16065413
1832.00 -31.40403789   6.18047400
1834.00 -31.47886476   6.20033505
1836.00 -31.55376353   6.22023732
1838.00 -31.62873418   6.24018084
1840.00 -31.70377667   6.26016565
1842.00 -31.77889099   6.28019178
1844.00 -31.85407709   6.30025928
1846.00 -31.92933495   6.32036817
1848.00 -32.00466454   6.34051850
1850.00 -32.08006582   6.36071030
1852.00 -32.15553878   6.38094360
1854.00 -32.23108337   6.40121844
1856.00 -32.30669957   6.42153485
1858.00 -32.38238734   6.44189288
1860.00 -32.45814666   6.46229256
1862.00 -32.53397750   6.48273391
1864.00 -32.60987982   6.50321699
1866.00 -32.68585361   6.52374182
1868.00 -32.76189881   6.54430844
1870.00 -32.83801541   6.56491689
1872.00 -32.91420338   6.58556720
1874.00 -32.99046268   6.60625940
1876.00 -33.06679329   6.62699353
1878.00 -33.14319517   6.64776964
1880.00 -33.21966830   6.66858774
1882.00 -33.29621263   6.68944788
1884.00 -33.37282815   6.71035010
1886.00 -33.44951483   6.73129442
1888.00 -33.52627262   6.75228089
1890.00 -33.60310151   6.77330954
1892.00 -33.68000145   6.79438040
1894.00 -33.75697243   6.81549351
1896.00 -33.83401441   6.83664891
1898.00 -33.91112735   6.85784663
1900.00 -33.98831123   6.87908670
1902.00 -34.06556602   6.90036916
1904.00 -34.14289169   6.92169405
1906.00 -34.22028821   6.94306139
1908.00 -34.29775553   6.96447124
1910.00 -34.37529365   6.98592361
1912.00 -34.45290252   7.00741855
1914.00 -34.53058211   7.02895609
1916.00 -34.60833239   7.05053626
1918.00 -34.68615333   7.07215910
1920.00 -34.76404491   7.09382465
1922.00 -34.84200709   7.11553294
1924.00 -34.92003983   7.13728400
1926.00 -34.99814311   7.15907787
1928.00 -35.07631690   7.18091459
1930.00 -35.15456116   7.20279418
1932.00 -35.23287587   7.22471669
1934.00 -35.31126100   7.24668214
1936.00 -35.38971650   7.26869058
1938.00 -35.46824236   7.29074204
1940.00 -35.54683854   7.31283654
1942.00 -35.62550501   7.33497414
1944.00 -35.70424174   7.35715485
1946.00 -35.78304869   7.37937872
1948.00 -35.86192584   7.40164578
1950.00 -35.94087316   7.42395607
1952.00 -36.01989061   7.44630961
1954.00 -36.09897816   7.46870644
1956.00 -36.17813579   7.49114661
1958.00 -36.25736345   7.51363013
1960.00 -36.33666113   7.53615705
1962.00 -36.41602878   7.55872741
1964.00 -36.49546638   7.58134122
1966.00 -36.57497389   7.60399854
1968.00 -36.65455129   7.62669938
1970.00 -36.73419853   7.64944380
1972.00 -36.81391560   7.67223181
1974.00 -36.89370246   7.69506347
1976.00 -36.97355908   7.71793879
1978.00 -37.05348542   7.74085781
1980.00 -37.13348146   7.76382057
1982.00 -37.21354716   7.78682711
1984.00 -37.29368249   7.80987745
1986.00 -37.37388743   7.83297162
1988.00 -37.45416193   7.85610968
1990.00 -37.53450597   7.87929164
1992.00 -37.61491951   7.90251754
1994.00 -37.69540253   7.92578741
1996.00 -37.77595499   7.94910129
1998.00 -37.85657686   7.97245922
2000.00 -37.93726811   7.99586122
2002.00 -38.01802871   8.01930733
2004.00 -38.09885862   8.04279759
2006.00 -38.17975782   8.06633202
2008.00 -38.26072627   8.08991066
2010.00 -38.34176394   8.11353355
2012.00 -38.42287079   8.13720072
2014.00 -38.50404681   8.16091220
2016.00 -38.58529194   8.18466802
2018.00 -38.66660617   8.20846822
2020.00 -38.74798946   8.23231283
2022.00 -38.82944178   8.25620189
2024.00 -38.91096310   8.28013543
2026.00 -38.99255338   8.30411348
2028.00 -39.07421260   8.32813607
2030.00 -39.15594071   8.35220325
2032.00 -39.23773770   8.37631503
2034.00 -39.31960352   8.40047146
2036.00 -39.40153814   8.42467257
2038.00 -39.48354154   8.44891840
2040.00 -39.56561368   8.47320896
2042.00 -39.64775453   8.49754431
2044.00 -39.72996405   8.52192446
2046.00 -39.81224222   8.54634946
2048.00 -39.89458900   8.57081934
2050.00 -39.97700436   8.59533413
2052.00 -40.05948826   8.61989386
2054.00 -40.14204069   8.64449857
2056.00 -40.22466159   8.66914829
2058.00 -40.30735095   8.69384305
2060.00 -40.39010872   8.71858288
2062.00 -40.47293489   8.74336783
2064.00 -40.55582940   8.76819791
2066.00 -40.63879224   8.79307317
2068.00 -40.72182336   8.81799363
2070.00 -40.80492274   8.84295934
2072.00 -40.88809035   8.86797031
2074.00 -40.97132615   8.89302659
2076.00 -41.05463011   8.91812821
2078.00 -41.13800219   8.94327520
2080.00 -41.22144237   8.96846759
2082.00 -41.30495061   8.99370541
2084.00 -41.38852688   9.01898870
2086.00 -41.47217115   9.04431749
2088.00 -41.55588338   9.06969182
2090.00 -41.63966354   9.09511171
2092.00 -41.72351161   9.12057720
2094.00 -41.80742753   9.14608831
2096.00 -41.89141130   9.17164509
2098.00 -41.97546286   9.19724757
2100.00 -42.05958219   9.22289577
2102.00 -42.14376926   9.24858973
2104.00 -42.22802403   9.27432948
2106.00 -42.31234647   9.30011506
2108.00 -42.39673655   9.32594649
2110.00 -42.48119423   9.35182381
2112.00 -42.56571949   9.37774705
2114.00 -42.65031228   9.40371624
2116.00 -42.73497258   9.42973141
2118.00 -42.81970036   9.45579261
2120.00 -42.90449557   9.48189985
2122.00 -42.98935819   9.50805317
2124.00 -43.07428819   9.53425260
2126.00 -43.15928553   9.56049818
2128.00 -43.24435018   9.58678994
2130.00 -43.32948210   9.61312790
2132.00 -43.41468127   9.63951210
2134.00 -43.49994764   9.66594258
2136.00 -43.58528120   9.69241936
2138.00 -43.67068190   9.71894247
2140.00 -43.75614970   9.74551195
2142.00 -43.84168459   9.77212783
2144.00 -43.92728652   9.79879014
2146.00 -44.01295546   9.82549892
2148.00 -44.09869138   9.85225418
2150.00 -44.18449425   9.87905598
2152.00 -44.27036403   9.90590433
2154.00 -44.35630068   9.93279926
2156.00 -44.44230419   9.95974082
2158.00 -44.52837450   9.98672903
2160.00 -44.61451160  10.01376392
2162.00 -44.70071544  10.04084553
2164.00 -44.78698599  10.06797388
2166.00 -44.87332322  10.09514901
2168.00 -44.95972710  10.12237095
2170.00 -45.04619759  10.14963973
2172.00 -45.13273466  10.17695538
2174.00 -45.21933828  10.20431793
2176.00 -45.30600841  10.23172741
2178.00 -45.39274502  10.25918386
2180.00 -45.47954807  10.28668730
2182.00 -45.56641754  10.31423778
2184.00 -45.65335339  10.34183531
2186.00 -45.74035558  10.36947993
2188.00 -45.82742408  10.39717166
2190.00 -45.91455887  10.42491055
2192.00 -46.00175989  10.45269663
2194.00 -46.08902713  10.48052991
2196.00 -46.17636055  10.50841044
2198.00 -46.26376011  10.53633825
2200.00 -46.35122578  10.56431336
2202.00 -46.43875753  10.59233580
2204.00 -46.52635532  10.62040562
2206.00 -46.61401913  10.64852283
2208.00 -46.70174890  10.67668747
2210.00 -46.78954462  10.70489957
2212.00 -46.87740625  10.73315916
2214.00 -46.96533376  10.76146627
2216.00 -47.05332711  10.78982094
2218.00 -47.14138626  10.81822318
2220.00 -47.22951119  10.84667304
2222.00 -47.31770186  10.87517054
2224.00 -47.40595823  10.90371572
2226.00 -47.49428028  10.93230860
2228.00 -47.58266796  10.96094921
2230.00 -47.67112125  10.98963759
2232.00 -47.75964011  11.01837376
2234.00 -47.84822451  11.04715777
2236.00 -47.93687441  11.07598962
2238.00 -48.02558978  11.10486937
2240.00 -48.11437059  11.13379703
2242.00 -48.20321679  11.16277263
2244.00 -48.29212837  11.19179622
2246.00 -48.38110528  11.22086781
2248.00 -48.47014748  11.24998744
2250.00 -48.55925495  11.27915514
2252.00 -48.64842766  11.30837093
2254.00 -48.73766556  11.33763486
2256.00 -48.82696862  11.36694694
2258.00 -48.91633681  11.39630721
2260.00 -49.00577010  11.42571570
2262.00 -49.09526845  11.45517243
2264.00 -49.18483183  11.48467744
2266.00 -49.27446019  11.51423076
2268.00 -49.36415352  11.54383242
2270.00 -49.45391177  11.57348245
2272.00 -49.54373491  11.60318087
2274.00 -49.63362291  11.63292772
2276.00 -49.72357573  11.66272302
2278.00 -49.81359333  11.69256682
2280.00 -49.90367569  11.72245912
2282.00 -49.99382277  11.75239998
2284.00 -50.08403453  11.78238941
2286.00 -50.17431094  11.81242744
2288.00 -50.26465197  11.84251411
2290.00 -50.35505758  11.87264944
2292.00 -50.44552773  11.90283347
2294.00 -50.53606240  11.93306622
2296.00 -50.62666155  11.96334772
2298.00 -50.71732514  11.99367800
2300.00 -50.80805314  12.02405710
2302.00 -50.89884552  12.05448503
2304.00 -50.98970223  12.08496184
2306.00 -51.08062325  12.11548754
2308.00 -51.17160855  12.14606218
2310.00 -51.26265808  12.17668577
2312.00 -51.35377181  12.20735834
2314.00 -51.44494972  12.23807994
2316.00 -51.53619175  12.26885058
2318.00 -51.62749788  12.29967029
2320.00 -51.71886808  12.33053911
2322.00 -51.81030231  12.36145705
2324.00 -51.90180054  12.39242416
2326.00 -51.99336272  12.42344046
2328.00 -52.08498883  12.45450599
2330.00 -52.17667883  12.48562075
2332.00 -52.26843269  12.51678480
2334.00 -52.36025037  12.54799815
2336.00 -52.45213183  12.57926084
2338.00 -52.54407705  12.61057289
2340.00 -52.63608599  12.64193433
2342.00 -52.72815861  12.67334520
2344.00 -52.82029488  12.70480551
2346.00 -52.91249476  12.73631530
2348.00 -53.00475822  12.76787461
2350.00 -53.09708522  12.79948344
2352.00 -53.18947573  12.83114184
2354.00 -53.28192972  12.86284984
2356.00 -53.37444714  12.89460746
2358.00 -53.46702797  12.92641472
2360.00 -53.55967217  12.95827167
2362.00 -53.65237970  12.99017832
2364.00 -53.74515054  13.02213471
2366.00 -53.83798463  13.05414086
2368.00 -53.93088196  13.08619681
2370.00 -54.02384248  13.11830257
2372.00 -54.11686617  13.15045819
2374.00 -54.20995297  13.18266368
2376.00 -54.30310287  13.21491908
2378.00 -54.39631582  13.24722441
2380.00 -54.48959179  13.27957970
2382.00 -54.58293075  13.31198499
2384.00 -54.67633265  13.34444029
2386.00 -54.76979747  13.37694564
2388.00 -54.86332517  13.40950106
2390.00 -54.95691571  13.44210659
2392.00 -55.05056907  13.47476224
2394.00 -55.14428519  13.50746806
2396.00 -55.23806406  13.54022406
2398.00 -55.33190563  13.57303027
2400.00 -55.42580987  13.60588673
2402.00 -55.51977674  13.63879346
2404.00 -55.61380620  13.67175048
2406.00 -55.70789824  13.70475783
2408.00 -55.80205280  13.73781553
2410.00 -55.89626985  13.77092362
2412.00 -55.99054936  13.80408211
2414.00 -56.08489129  13.83729104
2416.00 -56.17929560  13.87055044
2418.00 -56.27376227  13.90386032
2420.00 -56.36829126  13.93722073
2422.00 -56.46288252  13.97063168
2424.00 -56.55753603  14.00409321
2426.00 -56.65225175  14.03760534
2428.00 -56.74702964  14.07116809
2430.00 -56.84186968  14.10478151
2432.00 -56.93677181  14.13844561
2434.00 -57.03173602  14.17216042
2436.00 -57.12676225  14.20592597
2438.00 -57.22185049  14.23974228
2440.00 -57.31700069  14.27360939
2442.00 -57.41221281  14.30752732
2444.00 -57.50748682  14.34149610
2446.00 -57.60282269  14.37551575
2448.00 -57.69822038  14.40958631
2450.00 -57.79367985  14.44370779
2452.00 -57.88920108  14.47788023
2454.00 -57.98478401  14.51210365
2456.00 -58.08042862  14.54637809
2458.00 -58.17613488  14.58070356
2460.00 -58.27190274  14.61508010
2462.00 -58.36773217  14.64950773
2464.00 -58.46362314  14.68398647
2466.00 -58.55957560  14.71851636
2468.00 -58.65558953  14.75309743
2470.00 -58.75166489  14.78772969
2472.00 -58.84780164  14.82241318
2474.00 -58.94399975  14.85714792
2476.00 -59.04025918  14.89193394
2478.00 -59.13657989  14.92677127
2480.00 -59.23296186  14.96165993
2482.00 -59.32940503  14.99659995
2484.00 -59.42590939  15.03159135
2486.00 -59.52247489  15.06663417
2488.00 -59.61910149  15.10172842
2490.00 -59.71578917  15.13687414
2492.00 -59.81253788  15.17207136
2494.00 -59.90934759  15.20732009
2496.00 -60.00621826  15.24262036
2498.00 -60.10314986  15.27797221
2500.00 -60.20014235  15.31337566
2502.00 -60.29719570  15.34883073
2504.00 -60.39430986  15.38433745
2506.00 -60.49148482  15.41989584
2508.00 -60.58872051  15.45550594
2510.00 -60.68601692  15.49116777
2512.00 -60.78337401  15.52688135
2514.00 -60.88079174  15.56264672
2516.00 -60.97827007  15.59846389
2518.00 -61.07580897  15.63433289
2520.00 -61.17340840  15.67025376
2522.00 -61.27106833  15.70622651
2524.00 -61.36878871  15.74225117
2526.00 -61.46656953  15.77832777
2528.00 -61.56441073  15.81445633
2530.00 -61.66231228  15.85063688
2532.00 -61.76027415  15.88686945
2534.00 -61.85829629  15.92315406
2536.00 -61.95637868  15.95949074
2538.00 -62.05452128  15.99587951
2540.00 -62.15272405  16.03232039
2542.00 -62.25098696  16.06881343
2544.00 -62.34930996  16.10535863
2546.00 -62.44769303  16.14195602
2548.00 -62.54613613  16.17860564
2550.00 -62.64463921  16.21530751
2552.00 -62.74320225  16.25206164
2554.00 -62.84182521  16.28886808
2556.00 -62.94050805  16.32572684
2558.00 -63.03925074  16.36263795
2560.00 -63.13805324  16.39960143
2562.00 -63.23691551  16.43661731
2564.00 -63.33583751  16.47368562
2566.00 -63.43481922  16.51080637
2568.00 -63.53386059  16.54797961
2570.00 -63.63296160  16.58520534
2572.00 -63.73212219  16.62248360
2574.00 -63.83134234  16.65981441
2576.00 -63.93062201  16.69719780
2578.00 -64.02996116  16.73463379
2580.00 -64.12935975  16.77212241
2582.00 -64.22881776  16.80966368
2584.00 -64.32833514  16.84725763
2586.00 -64.42791186  16.88490428
2588.00 -64.52754788  16.92260366
2590.00 -64.62724317  16.96035579
2592.00 -64.72699768  16.99816070
2594.00 -64.82681139  17.03601841
2596.00 -64.92668425  17.07392894
2598.00 -65.02661622  17.11189233
2600.00 -65.12660729  17.14990860
2602.00 -65.22665739  17.18797777
2604.00 -65.32676651  17.22609986
2606.00 -65.42693460  17.26427490
2608.00 -65.52716163  17.30250293
2610.00 -65.62744755  17.34078395
2612.00 -65.72779234  17.37911799
2614.00 -65.82819596  17.41750509
2616.00 -65.92865837  17.45594526
2618.00 -66.02917953  17.49443853
2620.00 -66.12975940  17.53298493
2622.00 -66.23039796  17.57158447
2624.00 -66.33109516  17.61023718
2626.00 -66.43185097  17.64894309
2628.00 -66.53266535  17.68770222
2630.00 -66.63353826  17.72651460
2632.00 -66.73446967  17.76538025
2634.00 -66.83545954  17.80429919
2636.00 -66.93650784  17.84327145
2638.00 -67.03761452  17.88229706
2640.00 -67.13877956  17.92137603
2642.00 -67.24000290  17.96050839
2644.00 -67.34128453  17.99969417
2646.00 -67.44262439  18.03893339
2648.00 -67.54402246  18.07822607
2650.00 -67.64547870  18.11757224
2652.00 -67.74699306  18.15697192
2654.00 -67.84856552  18.19642513
2656.00 -67.95019604  18.23593191
2658.00 -68.05188457  18.27549227
2660.00 -68.15363109  18.31510624
2662.00 -68.25543556  18.35477383
2664.00 -68.35729793  18.39449509
2666.00 -68.45921818  18.43427002
2668.00 -68.56119626  18.47409866
2670.00 -68.66323214  18.51398102
2672.00 -68.76532579  18.55391713
2674.00 -68.86747715  18.59390702
2676.00 -68.96968621  18.63395071
2678.00 -69.07195292  18.67404821
2680.00 -69.17427724  18.71419957
2682.00 -69.27665914  18.75440479
2684.00 -69.37909859  18.79466390
2686.00 -69.48159553  18.83497693
2688.00 -69.58414994  18.87534389
2690.00 -69.68676178  18.91576482
2692.00 -69.78943102  18.95623974
2694.00 -69.89215761  18.99676866
2696.00 -69.99494152  19.03735162
2698.00 -70.09778271  19.07798864
2700.00 -70.20068115  19.11867973
2702.00 -70.30363679  19.15942493
2704.00 -70.40664961  19.20022425
2706.00 -70.50971955  19.24107772
2708.00 -70.61284660  19.28198536
2710.00 -70.71603071  19.32294720
2712.00 -70.81927183  19.36396326
2714.00 -70.92256995  19.40503356
2716.00 -71.02592501  19.44615812
2718.00 -71.12933698  19.48733697
2720.00 -71.23280583  19.52857013
2722.00 -71.33633152  19.56985763
2724.00 -71.43991400  19.61119948
2726.00 -71.54355325  19.65259571
2728.00 -71.64724923  19.69404634
2730.00 -71.75100189  19.73555140
2732.00 -71.85481120  19.77711091
2734.00 -71.95867713  19.81872488
2736.00 -72.06259964  19.86039335
2738.00 -72.16657868  19.90211634
2740.00 -72.27061423  19.94389387
2742.00 -72.37470625  19.98572595
2744.00 -72.47885469  20.02761262
2746.00 -72.58305952  20.06955390
2748.00 -72.68732071  20.11154981
2750.00 -72.79163822  20.15360037
2752.00 -72.89601200  20.19570560
2754.00 -73.00044203  20.23786553
2756.00 -73.10492826  20.28008018
2758.00 -73.20947066  20.32234957
2760.00 -73.31406918  20.36467372
2762.00 -73.41872381  20.40705266
2764.00 -73.52343448  20.44948641
2766.00 -73.62820118  20.49197499
2768.00 -73.73302386  20.53451842
2770.00 -73.83790248  20.57711673
2772.00 -73.94283701  20.61976993
2774.00 -74.04782740  20.66247806
2776.00 -74.15287363  20.70524113
2778.00 -74.25797566  20.74805916
2780.00 -74.36313344  20.79093217
2782.00 -74.46834694  20.83386020
2784.00 -74.57361612  20.87684325
2786.00 -74.67894094  20.91988136
2788.00 -74.78432138  20.96297454
2790.00 -74.88975738  21.00612281
2792.00 -74.99524892  21.04932620
2794.00 -75.10079595  21.09258474
2796.00 -75.20639844  21.13589843
2798.00 -75.31205635  21.17926731
2800.00 -75.41776964  21.22269139
2802.00 -75.52353828  21.26617070
2804.00 -75.62936223  21.30970526
2806.00 -75.73524144  21.35329508
2808.00 -75.84117589  21.39694020
2810.00 -75.94716553  21.44064063
2812.00 -76.05321034  21.48439640
2814.00 -76.15931026  21.52820752
2816.00 -76.26546526  21.57207402
2818.00 -76.37167532  21.61599592
2820.00 -76.47794037  21.65997324
2822.00 -76.58426040  21.70400600
2824.00 -76.69063536  21.74809422
2826.00 -76.79706522  21.79223793
2828.00 -76.90354993  21.83643715
2830.00 -77.01008947  21.88069189
2832.00 -77.11668378  21.92500218
2834.00 -77.22333284  21.96936804
2836.00 -77.33003661  22.01378950
2838.00 -77.43679505  22.05826656
2840.00 -77.54360812  22.10279926
2842.00 -77.65047578  22.14738761
2844.00 -77.75739800  22.19203164
2846.00 -77.86437474  22.23673137
2848.00 -77.97140596  22.28148681
2850.00 -78.07849162  22.32629799
2852.00 -78.18563169  22.37116493
2854.00 -78.29282613  22.41608765
2856.00 -78.40007490  22.46106618
2858.00 -78.50737796  22.50610052
2860.00 -78.61473528  22.55119071
2862.00 -78.72214681  22.59633676
2864.00 -78.82961253  22.64153870
2866.00 -78.93713239  22.68679654
2868.00 -79.04470635  22.73211030
2870.00 -79.15233437  22.77748002
2872.00 -79.26001643  22.82290570
2874.00 -79.36775248  22.86838737
2876.00 -79.47554248  22.91392505
2878.00 -79.58338640  22.95951876
2880.00 -79.69128419  23.00516851
2882.00 -79.79923582  23.05087434
2884.00 -79.90724126  23.09663626
2886.00 -80.01530046  23.14245428
2888.00 -80.12341339  23.18832844
2890.00 -80.23158001  23.23425876
2892.00 -80.33980028  23.28024524
2894.00 -80.44807416  23.32628791
2896.00 -80.55640161  23.37238680
2898.00 -80.66478261  23.41854192
2900.00 -80.77321710  23.46475330
2902.00 -80.88170506  23.51102095
2904.00 -80.99024644  23.55734489
2906.00 -81.09884120  23.60372514
2908.00 -81.20748932  23.65016173
2910.00 -81.31619074  23.69665467
2912.00 -81.42494544  23.74320399
2914.00 -81.53375337  23.78980970
2916.00 -81.64261450  23.83647182
2918.00 -81.75152879  23.88319037
2920.00 -81.86049620  23.92996538
2922.00 -81.96951669  23.97679687
2924.00 -82.07859023  24.02368484
2926.00 -82.18771677  24.07062933
2928.00 -82.29689629  24.11763036
2930.00 -82.40612873  24.16468793
2932.00 -82.51541407  24.21180208
2934.00 -82.62475226  24.25897282
2936.00 -82.73414327  24.30620017
2938.00 -82.84358706  24.35348415
2940.00 -82.95308360  24.40082478
2942.00 -83.06263283  24.44822208
2944.00 -83.17223473  24.49567607
2946.00 -83.28188926  24.54318678
2948.00 -83.39159638  24.59075421
2950.00 -83.50135605  24.63837839
2952.00 -83.61116823  24.68605933
2954.00 -83.72103289  24.73379707
2956.00 -83.83094999  24.78159161
2958.00 -83.94091948  24.82944297
2960.00 -84.05094134  24.87735118
2962.00 -84.16101552  24.92531626
2964.00 -84.27114199  24.97333822
2966.00 -84.38132070  25.02141708
2968.00 -84.49155162  25.06955286
2970.00 -84.60183472  25.11774559
2972.00 -84.71216994  25.16599527
2974.00 -84.82255726  25.21430193
2976.00 -84.93299664  25.26266559
2978.00 -85.04348804  25.31108627
2980.00 -85.15403142  25.35956399
2982.00 -85.26462674  25.40809876
2984.00 -85.37527396  25.45669060
2986.00 -85.48597306  25.50533954
2988.00 -85.59672398  25.55404559
2990.00 -85.70752669  25.60280877
2992.00 -85.81838115  25.65162910
2994.00 -85.92928732  25.70050659
2996.00 -86.04024518  25.74944128
2998.00 -86.15125467  25.79843317
3000.00 -86.26231575  25.84748228
3002.00 -86.37342840  25.89658864
3004.00 -86.48459258  25.94575225
3006.00 -86.59580824  25.99497315
3008.00 -86.70707534  26.04425135
3010.00 -86.81839386  26.09358686
3012.00 -86.92976374  26.14297971
3014.00 -87.04118496  26.19242992
3016.00 -87.15265747  26.24193749
3018.00 -87.26418123  26.29150246
3020.00 -87.37575622  26.34112484
3022.00 -87.48738238  26.39080464
3024.00 -87.59905969  26.44054189
3026.00 -87.71078810  26.49033660
3028.00 -87.82256757  26.54018880
3030.00 -87.93439807  26.59009850
3032.00 -88.04627956  26.64006571
3034.00 -88.15821199  26.69009046
3036.00 -88.27019534  26.74017277
3038.00 -88.38222957  26.79031265
3040.00 -88.49431463  26.84051012
3042.00 -88.60645048  26.89076521
3044.00 -88.71863710  26.94107791
3046.00 -88.83087443  26.99144827
3048.00 -88.94316245  27.04187628
3050.00 -89.05550111  27.09236198
3052.00 -89.16789038  27.14290538
3054.00 -89.28033021  27.19350649
3056.00 -89.39282057  27.24416534
3058.00 -89.50536143  27.29488194
3060.00 -89.61795274  27.34565631
3062.00 -89.73059446  27.39648847
3064.00 -89.84328655  27.44737843
3066.00 -89.95602899  27.49832622
3068.00 -90.06882172  27.54933185
3070.00 -90.18166472  27.60039533
3072.00 -90.29455794  27.65151669
3074.00 -90.40750134  27.70269595
3076.00 -90.52049489  27.75393311
3078.00 -90.63353854  27.80522821
3080.00 -90.74663227  27.85658125
3082.00 -90.85977602  27.90799225
3084.00 -90.97296977  27.95946124
3086.00 -91.08621347  28.01098822
3088.00 -91.19950709  28.06257322
3090.00 -91.31285058  28.11421625
3092.00 -91.42624392  28.16591733
3094.00 -91.53968705  28.21767647
3096.00 -91.65317995  28.26949370
3098.00 -91.76672257  28.32136904
3100.00 -91.88031488  28.37330249
3102.00 -91.99395684  28.42529408
3104.00 -92.10764840  28.47734382
3106.00 -92.22138953  28.52945173
3108.00 -92.33518020  28.58161782
3110.00 -92.44902036  28.63384212
3112.00 -92.56290997  28.68612465
3114.00 -92.67684900  28.73846541
3116.00 -92.79083741  28.79086442
3118.00 -92.90487516  28.84332170
3120.00 -93.01896221  28.89583728
3122.00 -93.13309852  28.94841116
3124.00 -93.24728406  29.00104336
3126.00 -93.36151879  29.05373390
3128.00 -93.47580266  29.10648279
3130.00 -93.59013564  29.15929006
3132.00 -93.70451769  29.21215571
3134.00 -93.81894877  29.26507977
3136.00 -93.93342885  29.31806226
3138.00 -94.04795789  29.37110318
3140.00 -94.16253584  29.42420255
3142.00 -94.27716266  29.47736040
3144.00 -94.39183833  29.53057673
3146.00 -94.50656280  29.58385157
3148.00 -94.62133604  29.63718493
3150.00 -94.73615800  29.69057683
3152.00 -94.85102864  29.74402728
3154.00 -94.96594793  29.79753630
3156.00 -95.08091583  29.85110391
3158.00 -95.19593230  29.90473012
3160.00 -95.31099731  29.95841495
3162.00 -95.42611080  30.01215841
3164.00 -95.54127276  30.06596052
3166.00 -95.65648313  30.11982130
3168.00 -95.77174187  30.17374077
3170.00 -95.88704896  30.22771893
3172.00 -96.00240435  30.28175581
3174.00 -96.11780800  30.33585142
3176.00 -96.23325987  30.39000577
3178.00 -96.34875993  30.44421889
3180.00 -96.46430814  30.49849079
3182.00 -96.57990445  30.55282148
3184.00 -96.69554884  30.60721099
3186.00 -96.81124125  30.66165932
3188.00 -96.92698166  30.71616649
3190.00 -97.04277003  30.77073253
3192.00 -97.15860630  30.82535743
3194.00 -97.27449046  30.88004123
3196.00 -97.39042245  30.93478393
3198.00 -97.50640225  30.98958555
3200.00 -97.62242981  31.04444611
3202.00 -97.73850509  31.09936562
3204.00 -97.85462805  31.15434410
3206.00 -97.97079866  31.20938156
3208.00 -98.08701688  31.26447802
3210.00 -98.20328266  31.31963350
3212.00 -98.31959598  31.37484800
3214.00 -98.43595678  31.43012155
3216.00 -98.55236504  31.48545416
3218.00 -98.66882072  31.54084585
3220.00 -98.78532377  31.59629662
3222.00 -98.90187415  31.65180651
3224.00 -99.01847184  31.70737551
3226.00 -99.13511679  31.76300365
3228.00 -99.25180895  31.81869095
3230.00 -99.36854830  31.87443741
3232.00 -99.48533480  31.93024305
3234.00 -99.60216840  31.98610789
3236.00 -99.71904907  32.04203195
3238.00 -99.83597676  32.09801523
3240.00 -99.95295145  32.15405775
3242.00 -100.06997308  32.21015954
3244.00 -100.18704163  32.26632059
3246.00 -100.30415705  32.32254093
3248.00 -100.42131931  32.37882057
3250.00 -100.53852837  32.43515954
3252.00 -100.65578418  32.49155783
3254.00 -100.77308671  32.54801547
3256.00 -100.89043593  32.60453247
3258.00 -101.00783178  32.66110885
3260.00 -101.12527424  32.71774462
3262.00 -101.24276327  32.77443979
3264.00 -101.36029882  32.83119439
3266.00 -101.47788086  32.88800842
3268.00 -101.59550935  32.94488190
3270.00 -101.71318424  33.00181484
3272.00 -101.83090552  33.05880726
3274.00 -101.94867312  33.11585918
3276.00 -102.06648702  33.17297060
3278.00 -102.18434717  33.23014155
3280.00 -102.30225354  33.28737203
3282.00 -102.42020609  33.34466206
3284.00 -102.53820478  33.40201166
3286.00 -102.65624957  33.45942084
3288.00 -102.77434043  33.51688961
3290.00 -102.89247731  33.57441799
3292.00 -103.01066017  33.63200599
3294.00 -103.12888898  33.68965363
3296.00 -103.24716370  33.74736091
3298.00 -103.36548429  33.80512787
3300.00 -103.48385070  33.86295450
3302.00 -103.60226291  33.92084083
3304.00 -103.72072088  33.97878686
3306.00 -103.83922456  34.03679261
3308.00 -103.95777391  34.09485810
3310.00 -104.07636890  34.15298334
3312.00 -104.19500950  34.21116834
3314.00 -104.31369565  34.26941312
3316.00 -104.43242732  34.32771768
3318.00 -104.55120448  34.38608206
3320.00 -104.67002708  34.44450625
3322.00 -104.78889508  34.50299027
3324.00 -104.90780845  34.56153414
3326.00 -105.02676715  34.62013787
3328.00 -105.14577114  34.67880147
3330.00 -105.26482038  34.73752496
3332.00 -105.38391483  34.79630835
3334.00 -105.50305446  34.85515165
3336.00 -105.62223922  34.91405489
3338.00 -105.74146908  34.97301806
3340.00 -105.86074399  35.03204119
3342.00 -105.98006392  35.09112428
3344.00 -106.09942884  35.15026736
3346.00 -106.21883869  35.20947043
3348.00 -106.33829345  35.26873352
3350.00 -106.45779307  35.32805662
3352.00 -106.57733751  35.38743976
3354.00 -106.69692674  35.44688294
3356.00 -106.81656073  35.50638619
3358.00 -106.93623941  35.56594952
3360.00 -107.05596277  35.62557293
3362.00 -107.17573077  35.68525644
3364.00 -107.29554335  35.74500007
3366.00 -107.41540049  35.80480383
3368.00 -107.53530215  35.86466773
3370.00 -107.65524828  35.92459178
3372.00 -107.77523885  35.98457599
3374.00 -107.89527382  36.04462039
3376.00 -108.01535315  36.10472498
3378.00 -108.13547680  36.16488978
3380.00 -108.25564474  36.22511480
3382.00 -108.37585692  36.28540004
3384.00 -108.49611331  36.34574553
3386.00 -108.61641387  36.40615128
3388.00 -108.73675855  36.46661730
3390.00 -108.85714733  36.52714360
3392.00 -108.97758015  36.58773020
3394.00 -109.09805699  36.64837711
3396.00 -109.21857781  36.70908433
3398.00 -109.33914256  36.76985190
3400.00 -109.45975120  36.83067980
3402.00 -109.58040370  36.89156807
3404.00 -109.70110003  36.95251671
3406.00 -109.82184013  37.01352573
3408.00 -109.94262398  37.07459515
3410.00 -110.06345153  37.13572497
3412.00 -110.18432274  37.19691522
3414.00 -110.30523758  37.25816590
3416.00 -110.42619600  37.31947703
3418.00 -110.54719798  37.38084862
3420.00 -110.66824346  37.44228067
3422.00 -110.78933242  37.50377322
3424.00 -110.91046481  37.56532625
3426.00 -111.03164059  37.62693980
3428.00 -111.15285973  37.68861386
3430.00 -111.27412218  37.75034845
3432.00 -111.39542791  37.81214359
3434.00 -111.51677688  37.87399929
3436.00 -111.63816905  37.93591556
3438.00 -111.75960438  37.99789240
3440.00 -111.88108284  38.05992984
3442.00 -112.00260437  38.12202788
3444.00 -112.12416896  38.18418654
3446.00 -112.24577655  38.24640583
3448.00 -112.36742711  38.30868575
3450.00 -112.48912060  38.37102633
3452.00 -112.61085698  38.43342758
3454.00 -112.73263621  38.49588950
3456.00 -112.85445825  38.55841210
3458.00 -112.97632307  38.62099541
3460.00 -113.09823063  38.68363943
3462.00 -113.22018088  38.74634417
3464.00 -113.34217379  38.80910964
3466.00 -113.46420933  38.87193586
3468.00 -113.58628744  38.93482284
3470.00 -113.70840809  38.99777059
3472.00 -113.83057125  39.06077912
3474.00 -113.95277688  39.12384844
3476.00 -114.07502493  39.18697857
3478.00 -114.19731537  39.25016951
3480.00 -114.31964816  39.31342128
3482.00 -114.44202326  39.37673388
3484.00 -114.56444063  39.44010734
3486.00 -114.68690023  39.50354166
3488.00 -114.80940203  39.56703685
3490.00 -114.93194599  39.63059292
3492.00 -115.05453206  39.69420989
3494.00 -115.17716021  39.75788776
3496.00 -115.29983040  39.82162656
3498.00 -115.42254259  39.88542628
3500.00 -115.54529675  39.94928694
3502.00 -115.66809282  40.01320855
3504.00 -115.79093079  40.07719112
3506.00 -115.91381060  40.14123467
3508.00 -116.03673222  40.20533920
3510.00 -116.15969560  40.26950472
3512.00 -116.28270072  40.33373125
3514.00 -116.40574753  40.39801880
3516.00 -116.52883599  40.46236738
3518.00 -116.65196607  40.52677699
3520.00 -116.77513773  40.59124765
3522.00 -116.89835092  40.65577938
3524.00 -117.02160561  40.72037217
3526.00 -117.14490176  40.78502605
3528.00 -117.26823933  40.84974102
3530.00 -117.39161828  40.91451710
3532.00 -117.51503858  40.97935429
3534.00 -117.63850019  41.04425260
3536.00 -117.76200306  41.10921205
3538.00 -117.88554715  41.17423264
3540.00 -118.00913244  41.23931439
3542.00 -118.13275888  41.30445731
3544.00 -118.25642644  41.36966141
3546.00 -118.38013506  41.43492669
3548.00 -118.50388472  41.50025318
3550.00 -118.62767538  41.56564087
3552.00 -118.75150699  41.63108978
3554.00 -118.87537953  41.69659992
3556.00 -118.99929294  41.76217130
3558.00 -119.12324720  41.82780393
3560.00 -119.24724226  41.89349783
3562.00 -119.37127809  41.95925299
3564.00 -119.49535464  42.02506943
3566.00 -119.61947188  42.09094717
3568.00 -119.74362976  42.15688621
3570.00 -119.86782826  42.22288656
3572.00 -119.99206733  42.28894823
3574.00 -120.11634693  42.35507123
3576.00 -120.24066703  42.42125558
3578.00 -120.36502758  42.48750127
3580.00 -120.48942855  42.55380833
3582.00 -120.61386990  42.62017676
3584.00 -120.73835159  42.68660658
3586.00 -120.86287358  42.75309778
3588.00 -120.98743584  42.81965039
3590.00 -121.11203832  42.88626440
3592.00 -121.23668098  42.95293984
3594.00 -121.36136379  43.01967671
3596.00 -121.48608671  43.08647502
3598.00 -121.61084970  43.15333478
3600.00 -121.73565272  43.22025601
3602.00 -121.86049574  43.28723870
3604.00 -121.98537871  43.35428287
3606.00 -122.11030159  43.42138853
3608.00 -122.23526435  43.48855569
3610.00 -122.36026695  43.55578436
3612.00 -122.48530935  43.62307454
3614.00 -122.61039152  43.69042625
3616.00 -122.73551340  43.75783950
3618.00 -122.86067497  43.82531430
3620.00 -122.98587619  43.89285065
3622.00 -123.11111701  43.96044857
3624.00 -123.23639740  44.02810806
3626.00 -123.36171732  44.09582914
3628.00 -123.48707674  44.16361180
3630.00 -123.61247560  44.23145607
3632.00 -123.73791389  44.29936196
3634.00 -123.86339154  44.36732946
3636.00 -123.98890854  44.43535859
3638.00 -124.11446483  44.50344937
3640.00 -124.24006039  44.57160179
3642.00 -124.36569517  44.63981587
3644.00 -124.49136913  44.70809161
3646.00 -124.61708223  44.77642903
3648.00 -124.74283445  44.84482814
3650.00 -124.86862573  44.91328894
3652.00 -124.99445604  44.98181144
3654.00 -125.12032534  45.05039565
3656.00 -125.24623359  45.11904159
3658.00 -125.37218076  45.18774925
3660.00 -125.49816681  45.25651865
3662.00 -125.62419169  45.32534980
3664.00 -125.75025537  45.39424271
3666.00 -125.87635781  45.46319737
3668.00 -126.00249897  45.53221382
3670.00 -126.12867881  45.60129204
3672.00 -126.25489730  45.67043205
3674.00 -126.38115440  45.73963387
3676.00 -126.50745006  45.80889749
3678.00 -126.63378425  45.87822293
3680.00 -126.76015693  45.94761019
3682.00 -126.88656807  46.01705929
3684.00 -127.01301762  46.08657023
3686.00 -127.13950555  46.15614302
3688.00 -127.26603181  46.22577767
3690.00 -127.39259637  46.29547419
3692.00 -127.51919919  46.36523258
3694.00 -127.64584023  46.43505285
3696.00 -127.77251946  46.50493502
3698.00 -127.89923683  46.57487909
3700.00 -128.02599231  46.64488507
3702.00 -128.15278586  46.71495297
3704.00 -128.27961743  46.78508280
3706.00 -128.40648700  46.85527455
3708.00 -128.53339452  46.92552825
3710.00 -128.66033995  46.99584390
3712.00 -128.78732326  47.06622151
3714.00 -128.91434441  47.13666108
3716.00 -129.04140336  47.20716263
3718.00 -129.16850007  47.27772616
3720.00 -129.29563450  47.34835168
3722.00 -129.42280661  47.41903920
3724.00 -129.55001637  47.48978873
3726.00 -129.67726374  47.56060027
3728.00 -129.80454868  47.63147384
3730.00 -129.93187115  47.70240943
3732.00 -130.05923111  47.77340706
3734.00 -130.18662852  47.84446674
3736.00 -130.31406335  47.91558847
3738.00 -130.44153556  47.98677226
3740.00 -130.56904510  48.05801812
3742.00 -130.69659195  48.12932606
3744.00 -130.82417606  48.20069609
3746.00 -130.95179739  48.27212820
3748.00 -131.07945591  48.34362242
3750.00 -131.20715157  48.41517874
3752.00 -131.33488435  48.48679717
3754.00 -131.46265419  48.55847773
3756.00 -131.59046107  48.63022042
3758.00 -131.71830494  48.70202525
3760.00 -131.84618576  48.77389222
3762.00 -131.97410351  48.84582134
3764.00 -132.10205813  48.91781263
3766.00 -132.23004959  48.98986608
3768.00 -132.35807786  49.06198170
3770.00 -132.48614289  49.13415951
3772.00 -132.61424465  49.20639950
3774.00 -132.74238309  49.27870169
3776.00 -132.87055818  49.35106609
3778.00 -132.99876989  49.42349269
3780.00 -133.12701817  49.49598152
3782.00 -133.25530298  49.56853257
3784.00 -133.38362429  49.64114585
3786.00 -133.51198205  49.71382136
3788.00 -133.64037624  49.78655913
3790.00 -133.76880681  49.85935915
3792.00 -133.89727372  49.93222143
3794.00 -134.02577694  50.00514597
3796.00 -134.15431642  50.07813279
3798.00 -134.28289213  50.15118189
3800.00 -134.41150404  50.22429328
3802.00 -134.54015209  50.29746697
3804.00 -134.66883626  50.37070295
3806.00 -134.79755651  50.44400125
3808.00 -134.92631279  50.51736186
3810.00 -135.05510507  50.59078479
3812.00 -135.18393332  50.66427005
3814.00 -135.31279748  50.73781764
3816.00 -135.44169753  50.81142758
3818.00 -135.57063343  50.88509987
3820.00 -135.69960514  50.95883451
3822.00 -135.82861262  51.03263152
3824.00 -135.95765583  51.10649089
3826.00 -136.08673474  51.18041264
3828.00 -136.21584930  51.25439677
3830.00 -136.34499947  51.32844328
3832.00 -136.47418523  51.40255220
3834.00 -136.60340653  51.47672351
3836.00 -136.73266334  51.55095723
3838.00 -136.86195561  51.62525336
3840.00 -136.99128330  51.69961192
3842.00 -137.12064639  51.77403290
3844.00 -137.25004482  51.84851631
3846.00 -137.37947857  51.92306217
3848.00 -137.50894760  51.99767046
3850.00 -137.63845186  52.07234121
3852.00 -137.76799132  52.14707442
3854.00 -137.89756594  52.22187009
3856.00 -138.02717568  52.29672823
3858.00 -138.15682051  52.37164885
3860.00 -138.28650039  52.44663195
3862.00 -138.41621527  52.52167753
3864.00 -138.54596512  52.59678562
3866.00 -138.67574991  52.67195620
3868.00 -138.80556959  52.74718929
3870.00 -138.93542412  52.82248489
3872.00 -139.06531348  52.89784300
3874.00 -139.19523761  52.97326364
3876.00 -139.32519649  53.04874682
3878.00 -139.45519007  53.12429252
3880.00 -139.58521831  53.19990077
3882.00 -139.71528119  53.27557157
3884.00 -139.84537865  53.35130492
3886.00 -139.97551067  53.42710082
3888.00 -140.10567720  53.50295929
3890.00 -140.23587821  53.57888034
3892.00 -140.36611365  53.65486395
3894.00 -140.49638350  53.73091015
3896.00 -140.62668770  53.80701894
3898.00 -140.75702624  53.88319031
3900.00 -140.88739905  53.95942429
3902.00 -141.01780612  54.03572087
3904.00 -141.14824740  54.11208006
3906.00 -141.27872285  54.18850186
3908.00 -141.40923243  54.26498628
3910.00 -141.53977611  54.34153333
3912.00 -141.67035385  54.41814301
3914.00 -141.80096561  54.49481532
3916.00 -141.93161136  54.57155028
3918.00 -142.06229104  54.64834788
3920.00 -142.19300464  54.72520813
3922.00 -142.32375210  54.80213105
3924.00 -142.45453340  54.87911662
3926.00 -142.58534849  54.95616486
3928.00 -142.71619734  55.03327577
3930.00 -142.84707990  55.11044936
3932.00 -142.97799614  55.18768564
3934.00 -143.10894603  55.26498460
3936.00 -143.23992952  55.34234626
3938.00 -143.37094657  55.41977061
3940.00 -143.50199716  55.49725767
3942.00 -143.63308123  55.57480743
3944.00 -143.76419876  55.65241991
3946.00 -143.89534970  55.73009510
3948.00 -144.02653403  55.80783302
3950.00 -144.15775169  55.88563367
3952.00 -144.28900265  55.96349705
3954.00 -144.42028687  56.04142316
3956.00 -144.55160432  56.11941202
3958.00 -144.68295496  56.19746362
3960.00 -144.81433876  56.27557798
3962.00 -144.94575566  56.35375509
3964.00 -145.07720564  56.43199497
3966.00 -145.20868865  56.51029761
3968.00 -145.34020467  56.58866302
3970.00 -145.47175365  56.66709120
3972.00 -145.60333555  56.74558217
3974.00 -145.73495034  56.82413591
3976.00 -145.86659797  56.90275245
3978.00 -145.99827842  56.98143178
3980.00 -146.12999164  57.06017391
3982.00 -146.26173760  57.13897884
3984.00 -146.39351625  57.21784657
3986.00 -146.52532757  57.29677712
3988.00 -146.65717150  57.37577048
3990.00 -146.78904803  57.45482666
3992.00 -146.92095710  57.53394567
3994.00 -147.05289867  57.61312750
3996.00 -147.18487272  57.69237217
3998.00 -147.31687921  57.77167967
4000.00 -147.44891809  57.85105001
4002.00 -147.58098933  57.93048320
4004.00 -147.71309289  58.00997924
4006.00 -147.84522874  58.08953813
4008.00 -147.97739683  58.16915988
4010.00 -148.10959713  58.24884449
4012.00 -148.24182960  58.32859196
4014.00 -148.37409420  58.40840230
4016.00 -148.50639090  58.48827552
4018.00 -148.63871966  58.56821162
4020.00 -148.77108044  58.64821060
4022.00 -148.90347320  58.72827246
4024.00 -149.03589791  58.80839721
4026.00 -149.16835453  58.88858485
4028.00 -149.30084301  58.96883540
4030.00 -149.43336333  59.04914884
4032.00 -149.56591544  59.12952519
4034.00 -149.69849932  59.20996444
4036.00 -149.83111491  59.29046661
4038.00 -149.96376218  59.37103169
4040.00 -150.09644110  59.45165970
4042.00 -150.22915163  59.53235062
4044.00 -150.36189373  59.61310448
4046.00 -150.49466736  59.69392126
4048.00 -150.62747249  59.77480098
4050.00 -150.76030907  59.85574364
4052.00 -150.89317708  59.93674923
4054.00 -151.02607646  60.01781777
4056.00 -151.15900720  60.09894926
4058.00 -151.29196924  60.18014370
4060.00 -151.42496255  60.26140110
4062.00 -151.55798710  60.34272146
4064.00 -151.69104284  60.42410477
4066.00 -151.82412974  60.50555105
4068.00 -151.95724776  60.58706030
4070.00 -152.09039686  60.66863253
4072.00 -152.22357702  60.75026772
4074.00 -152.35678818  60.83196590
4076.00 -152.49003031  60.91372705
4078.00 -152.62330337  60.99555120
4080.00 -152.75660734  61.07743833
4082.00 -152.88994216  61.15938845
4084.00 -153.02330780  61.24140156
4086.00 -153.15670423  61.32347767
4088.00 -153.29013141  61.40561678
4090.00 -153.42358930  61.48781890
4092.00 -153.55707786  61.57008402
4094.00 -153.69059706  61.65241215
4096.00 -153.82414685  61.73480330
4098.00 -153.95772721  61.81725746
4100.00 -154.09133808  61.89977463
4102.00 -154.22497945  61.98235483
4104.00 -154.35865127  62.06499806
4106.00 -154.49235349  62.14770431
4108.00 -154.62608609  62.23047358
4110.00 -154.75984903  62.31330590
4112.00 -154.89364227  62.39620124
4114.00 -155.02746578  62.47915963
4116.00 -155.16131951  62.56218105
4118.00 -155.29520342  62.64526552
4120.00 -155.42911749  62.72841304
4122.00 -155.56306168  62.81162360
4124.00 -155.69703594  62.89489722
4126.00 -155.83104024  62.97823388
4128.00 -155.96507454  63.06163361
4130.00 -156.09913881  63.14509639
4132.00 -156.23323301  63.22862224
4134.00 -156.36735710  63.31221115
4136.00 -156.50151104  63.39586313
4138.00 -156.63569480  63.47957817
4140.00 -156.76990834  63.56335629
4142.00 -156.90415162  63.64719748
4144.00 -157.03842461  63.73110174
4146.00 -157.17272727  63.81506909
4148.00 -157.30705956  63.89909951
4150.00 -157.44142144  63.98319302
4152.00 -157.57581288  64.06734962
4154.00 -157.71023384  64.15156930
4156.00 -157.84468429  64.23585207
4158.00 -157.97916418  64.32019793
4160.00 -158.11367348  64.40460689
4162.00 -158.24821215  64.48907894
4164.00 -158.38278016  64.57361409
4166.00 -158.51737747  64.65821234
4168.00 -158.65200404  64.74287370
4170.00 -158.78665983  64.82759815
4172.00 -158.92134481  64.91238572
4174.00 -159.05605894  64.99723639
4176.00 -159.19080218  65.08215018
4178.00 -159.32557450  65.16712707
4180.00 -159.46037586  65.25216708
4182.00 -159.59520622  65.33727021
4184.00 -159.73006554  65.42243645
4186.00 -159.86495380  65.50766582
4188.00 -159.99987095  65.59295830
4190.00 -160.13481695  65.67831391
4192.00 -160.26979177  65.76373265
4194.00 -160.40479537  65.84921451
4196.00 -160.53982771  65.93475950
4198.00 -160.67488876  66.02036762
4200.00 -160.80997849  66.10603887
4202.00 -160.94509684  66.19177326
4204.00 -161.08024379  66.27757078
4206.00 -161.21541931  66.36343144
4208.00 -161.35062334  66.44935524
4210.00 -161.48585586  66.53534218
4212.00 -161.62111683  66.62139226
4214.00 -161.75640622  66.70750548
4216.00 -161.89172398  66.79368184
4218.00 -162.02707008  66.87992136
4220.00 -162.16244448  66.96622402
4222.00 -162.29784714  67.05258982
4224.00 -162.43327804  67.13901878
4226.00 -162.56873712  67.22551089
4228.00 -162.70422436  67.31206615
4230.00 -162.83973972  67.39868457
4232.00 -162.97528317  67.48536614
4234.00 -163.11085465  67.57211087
4236.00 -163.24645415  67.65891876
4238.00 -163.38208162  67.74578980
4240.00 -163.51773702  67.83272401
4242.00 -163.65342032  67.91972137
4244.00 -163.78913148  68.00678190
4246.00 -163.92487047  68.09390560
4248.00 -164.06063724  68.18109245
4250.00 -164.19643177  68.26834248
4252.00 -164.33225401  68.35565567
4254.00 -164.46810393  68.44303202
4256.00 -164.60398149  68.53047155
4258.00 -164.73988666  68.61797424
4260.00 -164.87581940  68.70554011
4262.00 -165.01177966  68.79316915
4264.00 -165.14776743  68.88086136
4266.00 -165.28378265  68.96861674
4268.00 -165.41982529  69.05643530
4270.00 -165.55589532  69.14431703
4272.00 -165.69199270  69.23226194
4274.00 -165.82811739  69.32027002
4276.00 -165.96426936  69.40834128
4278.00 -166.10044857  69.49647572
4280.00 -166.23665498  69.58467334
4282.00 -166.37288855  69.67293414
4284.00 -166.50914926  69.76125811
4286.00 -166.64543706  69.84964527
4288.00 -166.78175192  69.93809561
4290.00 -166.91809380  70.02660913
4292.00 -167.05446266  70.11518583
4294.00 -167.19085847  70.20382571
4296.00 -167.32728120  70.29252878
4298.00 -167.46373079  70.38129503
4300.00 -167.60020723  70.47012446
4302.00 -167.73671047  70.55901708
4304.00 -167.87324047  70.64797289
4306.00 -168.00979720  70.73699188
4308.00 -168.14638063  70.82607405
4310.00 -168.28299071  70.91521941
4312.00 -168.41962742  71.00442796
4314.00 -168.55629070  71.09369970
4316.00 -168.69298054  71.18303462
4318.00 -168.82969688  71.27243272
4320.00 -168.96643971  71.36189402
4322.00 -169.10320897  71.45141850
4324.00 -169.24000463  71.54100617
4326.00 -169.37682666  71.63065703
4328.00 -169.51367501  71.72037107
4330.00 -169.65054967  71.81014831
4332.00 -169.78745057  71.89998873
4334.00 -169.92437770  71.98989234
4336.00 -170.06133102  72.07985914
4338.00 -170.19831048  72.16988912
4340.00 -170.33531606  72.25998230
4342.00 -170.47234771  72.35013866
4344.00 -170.60940540  72.44035821
4346.00 -170.74648910  72.53064094
4348.00 -170.88359876  72.62098687
4350.00 -171.02073436  72.71139598
4352.00 -171.15789585  72.80186828
4354.00 -171.29508320  72.89240377
4356.00 -171.43229637  72.98300244
4358.00 -171.56953533  73.07366430
4360.00 -171.70680004  73.16438935
4362.00 -171.84409046  73.25517758
4364.00 -171.98140656  73.34602900
4366.00 -172.11874831  73.43694361
4368.00 -172.25611566  73.52792140
4370.00 -172.39350858  73.61896237
4372.00 -172.53092704  73.71006653
4374.00 -172.66837100  73.80123387
4376.00 -172.80584041  73.89246440
4378.00 -172.94333525  73.98375811
4380.00 -173.08085549  74.07511500
4382.00 -173.21840107  74.16653507
4384.00 -173.35597198  74.25801833
4386.00 -173.49356817  74.34956476
4388.00 -173.63118960  74.44117438
4390.00 -173.76883624  74.53284718
4392.00 -173.90650806  74.62458315
4394.00 -174.04420502  74.71638231
4396.00 -174.18192708  74.80824464
4398.00 -174.31967420  74.90017014
4400.00 -174.45744636  74.99215883
4402.00 -174.59524351  75.08421069
4404.00 -174.73306562  75.17632572
4406.00 -174.87091265  75.26850393
4408.00 -175.00878457  75.36074531
4410.00 -175.14668133  75.45304987
4412.00 -175.28460292  75.54541759
4414.00 -175.42254928  75.63784849
4416.00 -175.56052039  75.73034256
4418.00 -175.69851621  75.82289979
4420.00 -175.83653669  75.91552019
4422.00 -175.97458182  76.00820376
4424.00 -176.11265154  76.10095050
4426.00 -176.25074583  76.19376039
4428.00 -176.38886464  76.28663346
4430.00 -176.52700795  76.37956968
4432.00 -176.66517572  76.47256907
4434.00 -176.80336791  76.56563162
4436.00 -176.94158448  76.65875732
4438.00 -177.07982541  76.75194619
4440.00 -177.21809065  76.84519821
4442.00 -177.35638016  76.93851339
4444.00 -177.49469393  77.03189172
4446.00 -177.63303189  77.12533320
4448.00 -177.77139403  77.21883784
4450.00 -177.90978031  77.31240562
4452.00 -178.04819068  77.40603656
4454.00 -178.18662512  77.49973064
4456.00 -178.32508359  77.59348787
4458.00 -178.46356605  77.68730825
4460.00 -178.60207248  77.78119177
4462.00 -178.74060282  77.87513843
4464.00 -178.87915705  77.96914823
4466.00 -179.01773513  78.06322117
4468.00 -179.15633702  78.15735725
4470.00 -179.29496270  78.25155647
4472.00 -179.43361212  78.34581882
4474.00 -179.57228525  78.44014430
4476.00 -179.71098205  78.53453292
4478.00 -179.84970250  78.62898466
4480.00 -179.98844654  78.72349954
4482.00 -180.12721415  78.81807754
4484.00 -180.26600529  78.91271866
4486.00 -180.40481993  79.00742291
4488.00 -180.54365803  79.10219028
4490.00 -180.68251955  79.19702077
4492.00 -180.82140446  79.29191438
4494.00 -180.96031273  79.38687110
4496.00 -181.09924432  79.48189094
4498.00 -181.23819919  79.57697389
4500.00 -181.37717731  79.67211995
4502.00 -181.51617864  79.76732912
4504.00 -181.65520315  79.86260140
4506.00 -181.79425080  79.95793678
4508.00 -181.93332155  80.05333527
4510.00 -182.07241538  80.14879685
4512.00 -182.21153225  80.24432154
4514.00 -182.35067211  80.33990932
4516.00 -182.48983494  80.43556019
4518.00 -182.62902070  80.53127416
4520.00 -182.76822936  80.62705122
4522.00 -182.90746087  80.72289137
4524.00 -183.04671521  80.81879461
4526.00 -183.18599234  80.91476093
4528.00 -183.32529222  81.01079033
4530.00 -183.46461483  81.10688281
4532.00 -183.60396011  81.20303837
4534.00 -183.74332804  81.29925701
4536.00 -183.88271859  81.39553872
4538.00 -184.02213171  81.49188350
4540.00 -184.16156738  81.58829134
4542.00 -184.30102556  81.68476226
4544.00 -184.44050620  81.78129624
4546.00 -184.58000929  81.87789328
4548.00 -184.71953477  81.97455338
4550.00 -184.85908263  82.07127653
4552.00 -184.99865281  82.16806274
4554.00 -185.13824530  82.26491201
4556.00 -185.27786004  82.36182432
4558.00 -185.41749701  82.45879968
4560.00 -185.55715617  82.55583808
4562.00 -185.69683749  82.65293952
4564.00 -185.83654094  82.75010401
4566.00 -185.97626647  82.84733153
4568.00 -186.11601405  82.94462208
4570.00 -186.25578364  83.04197567
4572.00 -186.39557522  83.13939229
4574.00 -186.53538875  83.23687193
4576.00 -186.67522418  83.33441459
4578.00 -186.81508150  83.43202028
4580.00 -186.95496065  83.52968898
4582.00 -187.09486162  83.62742070
4584.00 -187.23478435  83.72521543
4586.00 -187.37472883  83.82307317
4588.00 -187.51469500  83.92099392
4590.00 -187.65468284  84.01897767
4592.00 -187.79469232  84.11702442
4594.00 -187.93472339  84.21513417
4596.00 -188.07477603  84.31330691
4598.00 -188.21485019  84.41154265
4600.00 -188.35494585  84.50984138
4602.00 -188.49506296  84.60820309
4604.00 -188.63520150  84.70662779
4606.00 -188.77536143  84.80511546
4608.00 -188.91554271  84.90366611
4610.00 -189.05574531  85.00227974
4612.00 -189.19596920  85.10095634
4614.00 -189.33621434  85.19969591
4616.00 -189.47648069  85.29849844
4618.00 -189.61676822  85.39736393
4620.00 -189.75707690  85.49629238
4622.00 -189.89740669  85.59528379
4624.00 -190.03775755  85.69433815
4626.00 -190.17812946  85.79345546
4628.00 -190.31852237  85.89263571
4630.00 -190.45893626  85.99187891
4632.00 -190.59937108  86.09118504
4634.00 -190.73982681  86.19055411
4636.00 -190.88030341  86.28998611
4638.00 -191.02080084  86.38948105
4640.00 -191.16131907  86.48903890
4642.00 -191.30185806  86.58865968
4644.00 -191.44241778  86.68834338
4646.00 -191.58299820  86.78808999
4648.00 -191.72359929  86.88789952
4650.00 -191.86422100  86.98777195
4652.00 -192.00486330  87.08770729
4654.00 -192.14552615  87.18770553
4656.00 -192.28620954  87.28776667
4658.00 -192.42691341  87.38789070
4660.00 -192.56763773  87.48807762
4662.00 -192.70838248  87.58832743
4664.00 -192.84914761  87.68864012
4666.00 -192.98993309  87.78901569
4668.00 -193.13073888  87.88945414
4670.00 -193.27156496  87.98995546
4672.00 -193.41241129  88.09051965
4674.00 -193.55327783  88.19114670
4676.00 -193.69416455  88.29183662
4678.00 -193.83507142  88.39258939
4680.00 -193.97599839  88.49340501
4682.00 -194.11694544  88.59428349
4684.00 -194.25791254  88.69522481
4686.00 -194.39889964  88.79622897
4688.00 -194.53990671  88.89729597
4690.00 -194.68093373  88.99842580
4692.00 -194.82198064  89.09961847
4694.00 -194.96304743  89.20087396
4696.00 -195.10413405  89.30219227
4698.00 -195.24524048  89.40357340
4700.00 -195.38636667  89.50501735
4702.00 -195.52751260  89.60652410
4704.00 -195.66867823  89.70809366
4706.00 -195.80986352  89.80972603
4708.00 -195.95106844  89.91142119
4710.00 -196.09229296  90.01317914
4712.00 -196.23353704  90.11499989
4714.00 -196.37480065  90.21688342
4716.00 -196.51608376  90.31882973
4718.00 -196.65738632  90.42083882
4720.00 -196.79870831  90.52291068
4722.00 -196.94004970  90.62504531
4724.00 -197.08141044  90.72724271
4726.00 -197.22279050  90.82950286
4728.00 -197.36418986  90.93182577
4730.00 -197.50560847  91.03421144
4732.00 -197.64704630  91.13665985
4734.00 -197.78850332  91.23917100
4736.00 -197.92997950  91.34174489
4738.00 -198.07147480  91.44438152
4740.00 -198.21298918  91.54708087
4742.00 -198.35452261  91.64984295
4744.00 -198.49607506  91.75266775
4746.00 -198.63764650  91.85555527
4748.00 -198.77923688  91.95850550
4750.00 -198.92084619  92.06151843
4752.00 -199.06247437  92.16459407
4754.00 -199.20412140  92.26773241
4756.00 -199.34578725  92.37093344
4758.00 -199.48747188  92.47419716
4760.00 -199.62917526  92.57752356
4762.00 -199.77089735  92.68091265
4764.00 -199.91263811  92.78436441
4766.00 -200.05439753  92.88787884
4768.00 -200.19617556  92.99145593
4770.00 -200.33797216  93.09509569
4772.00 -200.47978731  93.19879810
4774.00 -200.62162097  93.30256316
4776.00 -200.76347310  93.40639087
4778.00 -200.90534368  93.51028122
4780.00 -201.04723267  93.61423421
4782.00 -201.18914003  93.71824983
4784.00 -201.33106574  93.82232808
4786.00 -201.47300975  93.92646895
4788.00 -201.61497204  94.03067243
4790.00 -201.75695257  94.13493853
4792.00 -201.89895131  94.23926724
4794.00 -202.04096822  94.34365855
4796.00 -202.18300327  94.44811246
4798.00 -202.32505643  94.55262896
4800.00 -202.46712766  94.65720805
4802.00 -202.60921693  94.76184972
4804.00 -202.75132420  94.86655397
4806.00 -202.89344945  94.97132079
4808.00 -203.03559264  95.07615017
4810.00 -203.17775373  95.18104213
4812.00 -203.31993269  95.28599663
4814.00 -203.46212949  95.39101369
4816.00 -203.60434410  95.49609330
4818.00 -203.74657648  95.60123544
4820.00 -203.88882659  95.70644013
4822.00 -204.03109441  95.81170734
4824.00 -204.17337990  95.91703708
4826.00 -204.31568303  96.02242935
4828.00 -204.45800376  96.12788412
4830.00 -204.60034206  96.23340141
4832.00 -204.74269790  96.33898120
4834.00 -204.88507125  96.44462349
4836.00 -205.02746206  96.55032827
4838.00 -205.16987032  96.65609555
4840.00 -205.31229597  96.76192530
4842.00 -205.45473900  96.86781753
4844.00 -205.59719936  96.97377224
4846.00 -205.73967703  97.07978941
4848.00 -205.88217197  97.18586905
4850.00 -206.02468415  97.29201113
4852.00 -206.16721353  97.39821567
4854.00 -206.30976008  97.50448266
4856.00 -206.45232377  97.61081208
4858.00 -206.59490456  97.71720394
4860.00 -206.73750243  97.82365822
4862.00 -206.88011733  97.93017493
4864.00 -207.02274924  98.03675405
4866.00 -207.16539812  98.14339558
4868.00 -207.30806394  98.25009952
4870.00 -207.45074667  98.35686586
4872.00 -207.59344627  98.46369459
4874.00 -207.73616271  98.57058571
4876.00 -207.87889595  98.67753921
4878.00 -208.02164597  98.78455509
4880.00 -208.16441273  98.89163334
4882.00 -208.30719619  98.99877396
4884.00 -208.44999633  99.10597693
4886.00 -208.59281311  99.21324226
4888.00 -208.73564650  99.32056993
4890.00 -208.87849646  99.42795995
4892.00 -209.02136297  99.53541230
4894.00 -209.16424599  99.64292698
4896.00 -209.30714548  99.75050398
4898.00 -209.45006141  99.85814330
4900.00 -209.59299376  99.96584494
4902.00 -209.73594248 100.07360888
4904.00 -209.87890755 100.18143512
4906.00 -210.02188893 100.28932365
4908.00 -210.16488658 100.39727447
4910.00 -210.30790049 100.50528757
4912.00 -210.45093061 100.61336295
4914.00 -210.59397690 100.72150059
4916.00 -210.73703935 100.82970050
4918.00 -210.88011791 100.93796267
4920.00 -211.02321255 101.04628708
4922.00 -211.16632324 101.15467374
4924.00 -211.30944995 101.26312264
4926.00 -211.45259264 101.37163377
4928.00 -211.59575128 101.48020713
4930.00 -211.73892584 101.58884271
4932.00 -211.88211628 101.69754050
4934.00 -212.02532258 101.80630050
4936.00 -212.16854470 101.91512269
4938.00 -212.31178260 102.02400709
4940.00 -212.45503626 102.13295367
4942.00 -212.59830565 102.24196243
4944.00 -212.74159072 102.35103336
4946.00 -212.88489145 102.46016647
4948.00 -213.02820780 102.56936174
4950.00 -213.17153974 102.67861916
4952.00 -213.31488724 102.78793873
4954.00 -213.45825027 102.89732045
4956.00 -213.60162880 103.00676430
4958.00 -213.74502278 103.11627028
4960.00 -213.88843220 103.22583839
4962.00 -214.03185701 103.33546861
4964.00 -214.17529718 103.44516094
4966.00 -214.31875269 103.55491538
4968.00 -214.46222349 103.66473191
4970.00 -214.60570957 103.77461053
4972.00 -214.74921087 103.88455124
4974.00 -214.89272738 103.99455402
4976.00 -215.03625905 104.10461888
4978.00 -215.17980587 104.21474579
4980.00 -215.32336779 104.32493477
4982.00 -215.46694478 104.43518579
4984.00 -215.61053681 104.54549886
4986.00 -215.75414384 104.65587396
4988.00 -215.89776585 104.76631109
4990.00 -216.04140281 104.87681025
4992.00 -216.18505468 104.98737142
4994.00 -216.32872142 105.09799460
4996.00 -216.47240301 105.20867979
4998.00 -216.61609941 105.31942697
5000.00 -216.75981060 105.43023614
