wavelength(nm)         real         imag
100.00   3.71724790   0.00174636
102.00   3.70986542   0.00185325
104.00   3.70233680   0.00196441
106.00   3.69466206   0.00207992
108.00   3.68684119   0.00219988
110.00   3.67887420   0.00232436
112.00   3.67076109   0.00245346
114.00   3.66250187   0.00258724
116.00   3.65409654   0.00272580
118.00   3.64554510   0.00286923
120.00   3.63684755   0.00301759
122.00   3.62800391   0.00317099
124.00   3.61901417   0.00332949
126.00   3.60987834   0.00349319
128.00   3.60059642   0.00366217
130.00   3.59116841   0.00383652
132.00   3.58159433   0.00401630
134.00   3.57187417   0.00420162
136.00   3.56200794   0.00439256
138.00   3.55199564   0.00458919
140.00   3.54183728   0.00479160
142.00   3.53153287   0.00499987
144.00   3.52108240   0.00521410
146.00   3.51048588   0.00543435
148.00   3.49974331   0.00566073
150.00   3.48885471   0.00589330
152.00   3.47782007   0.00613215
154.00   3.46663940   0.00637738
156.00   3.45531271   0.00662905
158.00   3.44383999   0.00688726
160.00   3.43222126   0.00715208
162.00   3.42045652   0.00742361
164.00   3.40854578   0.00770192
166.00   3.39648903   0.00798710
168.00   3.38428630   0.00827923
170.00   3.37193757   0.00857840
172.00   3.35944286   0.00888468
174.00   3.34680217   0.00919817
176.00   3.33401550   0.00951895
178.00   3.32108288   0.00984710
180.00   3.30800429   0.01018270
182.00   3.29477974   0.01052584
184.00   3.28140924   0.01087660
186.00   3.26789280   0.01123507
188.00   3.25423042   0.01160132
190.00   3.24042211   0.01197544
192.00   3.22646788   0.01235752
194.00   3.21236772   0.01274764
196.00   3.19812165   0.01314589
198.00   3.18372967   0.01355233
200.00   3.16919180   0.01396707
202.00   3.15450802   0.01439018
204.00   3.13967836   0.01482175
206.00   3.12470282   0.01526186
208.00   3.10958140   0.01571059
210.00   3.09431411   0.01616803
212.00   3.07890096   0.01663425
214.00   3.06334195   0.01710936
216.00   3.04763710   0.01759342
218.00   3.03178640   0.01808652
220.00   3.01578987   0.01858875
222.00   2.99964751   0.01910018
224.00   2.98335933   0.01962091
226.00   2.96692534   0.02015101
228.00   2.95034554   0.02069057
230.00   2.93361994   0.02123967
232.00   2.91674855   0.02179839
234.00   2.89973138   0.02236683
236.00   2.88256843   0.02294506
238.00   2.86525971   0.02353316
240.00   2.84780523   0.02413122
242.00   2.83020499   0.02473933
244.00   2.81245901   0.02535756
246.00   2.79456729   0.02598600
248.00   2.77652983   0.02662473
250.00   2.75834666   0.02727383
252.00   2.74001777   0.02793340
254.00   2.72154317   0.02860351
256.00   2.70292287   0.02928424
258.00   2.68415689   0.02997569
260.00   2.66524522   0.03067793
262.00   2.64618787   0.03139104
264.00   2.62698486   0.03211511
266.00   2.60763619   0.03285023
268.00   2.58814188   0.03359647
270.00   2.56850192   0.03435392
272.00   2.54871633   0.03512266
274.00   2.52878512   0.03590277
276.00   2.50870829   0.03669435
278.00   2.48848586   0.03749747
280.00   2.46811783   0.03831221
282.00   2.44760421   0.03913867
284.00   2.42694501   0.03997691
286.00   2.40614024   0.04082703
288.00   2.38518992   0.04168911
290.00   2.36409403   0.04256323
292.00   2.34285261   0.04344947
294.00   2.32146566   0.04434792
296.00   2.29993318   0.04525867
298.00   2.27825518   0.04618179
300.00   2.25643168   0.04711736
302.00   2.23446269   0.04806548
304.00   2.21234820   0.04902621
306.00   2.19008825   0.04999966
308.00   2.16768282   0.05098590
310.00   2.14513194   0.05198501
312.00   2.12243562   0.05299707
314.00   2.09959385   0.05402218
316.00   2.07660666   0.05506040
318.00   2.05347405   0.05611183
320.00   2.03019604   0.05717656
322.00   2.00677263   0.05825465
324.00   1.98320383   0.05934619
326.00   1.95948965   0.06045128
328.00   1.93563011   0.06156998
330.00   1.91162522   0.06270239
332.00   1.88747498   0.06384859
334.00   1.86317940   0.06500865
336.00   1.83873851   0.06618267
338.00   1.81415230   0.06737073
340.00   1.78942078   0.06857290
342.00   1.76454398   0.06978927
344.00   1.73952189   0.07101993
346.00   1.71435454   0.07226496
348.00   1.68904193   0.07352443
350.00   1.66358407   0.07479844
352.00   1.63798097   0.07608707
354.00   1.61223265   0.07739039
356.00   1.58633911   0.07870850
358.00   1.56030037   0.08004147
360.00   1.53411644   0.08138939
362.00   1.50778733   0.08275234
364.00   1.48131305   0.08413040
366.00   1.45469362   0.08552366
368.00   1.42792904   0.08693220
370.00   1.40101933   0.08835610
372.00   1.37396449   0.08979545
374.00   1.34676455   0.09125032
376.00   1.31941950   0.09272080
378.00   1.29192937   0.09420698
380.00   1.26429417   0.09570893
382.00   1.23651390   0.09722674
384.00   1.20858859   0.09876049
386.00   1.18051823   0.10031027
388.00   1.15230286   0.10187615
390.00   1.12394246   0.10345822
392.00   1.09543707   0.10505656
394.00   1.06678669   0.10667126
396.00   1.03799133   0.10830240
398.00   1.00905101   0.10995005
400.00   0.97996574   0.11161431
402.00   0.95073553   0.11329525
404.00   0.92136040   0.11499296
406.00   0.89184035   0.11670752
408.00   0.86217541   0.11843902
410.00   0.83236558   0.12018753
412.00   0.80241087   0.12195313
414.00   0.77231130   0.12373592
416.00   0.74206689   0.12553597
418.00   0.71167764   0.12735337
420.00   0.68114357   0.12918819
422.00   0.65046470   0.13104053
424.00   0.61964103   0.13291046
426.00   0.58867258   0.13479807
428.00   0.55755936   0.13670343
430.00   0.52630139   0.13862663
432.00   0.49489868   0.14056776
434.00   0.46335124   0.14252689
436.00   0.43165909   0.14450411
438.00   0.39982224   0.14649950
440.00   0.36784070   0.14851314
442.00   0.33571450   0.15054512
444.00   0.30344364   0.15259552
446.00   0.27102813   0.15466441
448.00   0.23846800   0.15675189
450.00   0.20576325   0.15885803
452.00   0.17291390   0.16098292
454.00   0.13991997   0.16312663
456.00   0.10678146   0.16528926
458.00   0.07349840   0.16747088
460.00   0.04007079   0.16967158
462.00   0.00649866   0.17189144
464.00  -0.02721799   0.17413053
466.00  -0.06107914   0.17638895
468.00  -0.09508477   0.17866677
470.00  -0.12923487   0.18096408
472.00  -0.16352942   0.18328096
474.00  -0.19796841   0.18561748
476.00  -0.23255183   0.18797375
478.00  -0.26727966   0.19034982
480.00  -0.30215188   0.19274580
482.00  -0.33716848   0.19516175
484.00  -0.37232944   0.19759777
486.00  -0.40763475   0.20005392
488.00  -0.44308440   0.20253031
490.00  -0.47867836   0.20502700
492.00  -0.51441662   0.20754408
494.00  -0.55029917   0.21008164
496.00  -0.58632599   0.21263974
498.00  -0.62249707   0.21521849
500.00  -0.65881239   0.21781795
502.00  -0.69527193   0.22043821
504.00  -0.73187568   0.22307935
506.00  -0.76862361   0.22574145
508.00  -0.80551573   0.22842460
510.00  -0.84255201   0.23112888
512.00  -0.87973242   0.23385436
514.00  -0.91705697   0.23660114
516.00  -0.95452563   0.23936929
518.00  -0.99213838   0.24215890
520.00  -1.02989521   0.24497004
522.00  -1.06779611   0.24780279
524.00  -1.10584104   0.25065725
526.00  -1.14403001   0.25353349
528.00  -1.18236299   0.25643160
530.00  -1.22083997   0.25935165
532.00  -1.25946093   0.26229372
534.00  -1.29822584   0.26525790
536.00  -1.33713471   0.26824428
538.00  -1.37618750   0.27125293
540.00  -1.41538420   0.27428392
542.00  -1.45472480   0.27733736
544.00  -1.49420928   0.28041331
546.00  -1.53383761   0.28351186
548.00  -1.57360979   0.28663309
550.00  -1.61352579   0.28977708
552.00  -1.65358561   0.29294392
554.00  -1.69378921   0.29613367
556.00  -1.73413659   0.29934644
558.00  -1.77462772   0.30258229
560.00  -1.81526259   0.30584131
562.00  -1.85604118   0.30912359
564.00  -1.89696348   0.31242919
566.00  -1.93802946   0.31575821
568.00  -1.97923910   0.31911072
570.00  -2.02059240   0.32248681
572.00  -2.06208933   0.32588655
574.00  -2.10372987   0.32931004
576.00  -2.14551401   0.33275734
578.00  -2.18744172   0.33622855
580.00  -2.22951299   0.33972374
582.00  -2.27172781   0.34324299
584.00  -2.31408614   0.34678639
586.00  -2.35658798   0.35035402
588.00  -2.39923331   0.35394596
590.00  -2.44202210   0.35756228
592.00  -2.48495434   0.36120307
594.00  -2.52803001   0.36486842
596.00  -2.57124909   0.36855840
598.00  -2.61461157   0.37227309
600.00  -2.65811742   0.37601258
602.00  -2.70176662   0.37977694
604.00  -2.74555916   0.38356626
606.00  -2.78949501   0.38738062
608.00  -2.83357416   0.39122010
610.00  -2.87779659   0.39508478
612.00  -2.92216228   0.39897474
614.00  -2.96667121   0.40289007
616.00  -3.01132336   0.40683083
618.00  -3.05611872   0.41079712
620.00  -3.10105725   0.41478902
622.00  -3.14613895   0.41880660
624.00  -3.19136379   0.42284995
626.00  -3.23673175   0.42691915
628.00  -3.28224281   0.43101428
630.00  -3.32789696   0.43513542
632.00  -3.37369418   0.43928265
634.00  -3.41963444   0.44345605
636.00  -3.46571772   0.44765570
638.00  -3.51194401   0.45188169
640.00  -3.55831328   0.45613409
642.00  -3.60482551   0.46041298
644.00  -3.65148069   0.46471845
646.00  -3.69827880   0.46905058
648.00  -3.74521980   0.47340944
650.00  -3.79230369   0.47779512
652.00  -3.83953045   0.48220770
654.00  -3.88690004   0.48664726
656.00  -3.93441246   0.49111388
658.00  -3.98206768   0.49560763
660.00  -4.02986567   0.50012861
662.00  -4.07780643   0.50467689
664.00  -4.12588993   0.50925255
666.00  -4.17411615   0.51385567
668.00  -4.22248506   0.51848634
670.00  -4.27099665   0.52314463
672.00  -4.31965089   0.52783062
674.00  -4.36844777   0.53254439
676.00  -4.41738727   0.53728604
678.00  -4.46646935   0.54205562
680.00  -4.51569401   0.54685323
682.00  -4.56506121   0.55167895
684.00  -4.61457095   0.55653285
686.00  -4.66422319   0.56141502
688.00  -4.71401791   0.56632553
690.00  -4.76395510   0.57126447
692.00  -4.81403473   0.57623192
694.00  -4.86425678   0.58122796
696.00  -4.91462123   0.58625266
698.00  -4.96512806   0.59130611
700.00  -5.01577724   0.59638839
702.00  -5.06656876   0.60149958
704.00  -5.11750259   0.60663976
706.00  -5.16857870   0.61180900
708.00  -5.21979709   0.61700739
710.00  -5.27115771   0.62223501
712.00  -5.32266057   0.62749194
714.00  -5.37430562   0.63277826
716.00  -5.42609285   0.63809404
718.00  -5.47802223   0.64343938
720.00  -5.53009375   0.64881434
722.00  -5.58230738   0.65421901
724.00  -5.63466310   0.65965347
726.00  -5.68716088   0.66511780
728.00  -5.73980071   0.67061207
730.00  -5.79258255   0.67613638
732.00  -5.84550640   0.68169079
734.00  -5.89857222   0.68727539
736.00  -5.95177999   0.69289025
738.00  -6.00512968   0.69853547
740.00  -6.05862129   0.70421111
742.00  -6.11225478   0.70991725
744.00  -6.16603012   0.71565399
746.00  -6.21994731   0.72142139
748.00  -6.27400630   0.72721953
750.00  -6.32820709   0.73304850
752.00  -6.38254964   0.73890838
754.00  -6.43703393   0.74479923
756.00  -6.49165994   0.75072116
758.00  -6.54642765   0.75667422
760.00  -6.60133703   0.76265851
762.00  -6.65638806   0.76867411
764.00  -6.71158071   0.77472108
766.00  -6.76691497   0.78079952
768.00  -6.82239080   0.78690950
770.00  -6.87800818   0.79305109
772.00  -6.93376710   0.79922439
774.00  -6.98966751   0.80542947
776.00  -7.04570941   0.81166640
778.00  -7.10189277   0.81793528
780.00  -7.15821756   0.82423617
782.00  -7.21468375   0.83056915
784.00  -7.27129133   0.83693431
786.00  -7.32804027   0.84333173
788.00  -7.38493054   0.84976148
790.00  -7.44196213   0.85622365
792.00  -7.49913500   0.86271830
794.00  -7.55644913   0.86924553
796.00  -7.61390450   0.87580541
798.00  -7.67150108   0.88239802
800.00  -7.72923884   0.88902344
802.00  -7.78711777   0.89568174
804.00  -7.84513784   0.90237302
806.00  -7.90329901   0.90909734
808.00  -7.96160128   0.91585478
810.00  -8.02004461   0.92264543
812.00  -8.07862897   0.92946936
814.00  -8.13735434   0.93632665
816.00  -8.19622071   0.94321738
818.00  -8.25522803   0.95014163
820.00  -8.31437629   0.95709948
822.00  -8.37366546   0.96409101
824.00  -8.43309551   0.97111629
826.00  -8.49266642   0.97817541
828.00  -8.55237817   0.98526844
830.00  -8.61223072   0.99239546
832.00  -8.67222406   0.99955656
834.00  -8.73235815   1.00675180
836.00  -8.79263297   1.01398127
838.00  -8.85304850   1.02124505
840.00  -8.91360470   1.02854321
842.00  -8.97430156   1.03587584
844.00  -9.03513904   1.04324301
846.00  -9.09611713   1.05064480
848.00  -9.15723579   1.05808128
850.00  -9.21849499   1.06555255
852.00  -9.27989472   1.07305867
854.00  -9.34143494   1.08059973
856.00  -9.40311563   1.08817580
858.00  -9.46493676   1.09578696
860.00  -9.52689831   1.10343330
862.00  -9.58900025   1.11111488
864.00  -9.65124255   1.11883178
866.00  -9.71362518   1.12658409
868.00  -9.77614813   1.13437189
870.00  -9.83881135   1.14219524
872.00  -9.90161483   1.15005424
874.00  -9.96455854   1.15794895
876.00 -10.02764245   1.16587945
878.00 -10.09086653   1.17384583
880.00 -10.15423076   1.18184817
882.00 -10.21773511   1.18988653
884.00 -10.28137955   1.19796100
886.00 -10.34516406   1.20607166
888.00 -10.40908860   1.21421858
890.00 -10.47315316   1.22240184
892.00 -10.53735769   1.23062152
894.00 -10.60170218   1.23887770
896.00 -10.66618660   1.24717045
898.00 -10.73081092   1.25549986
900.00 -10.79557512   1.26386600
902.00 -10.86047915   1.27226895
904.00 -10.92552301   1.28070878
906.00 -10.99070665   1.28918558
908.00 -11.05603005   1.29769942
910.00 -11.12149318   1.30625038
912.00 -11.18709603   1.31483854
914.00 -11.25283854   1.32346398
916.00 -11.31872071   1.33212677
918.00 -11.38474249   1.34082698
920.00 -11.45090387   1.34956471
922.00 -11.51720481   1.35834002
924.00 -11.58364529   1.36715300
926.00 -11.65022527   1.37600371
928.00 -11.71694473   1.38489225
930.00 -11.78380364   1.39381867
932.00 -11.85080198   1.40278308
934.00 -11.91793970   1.41178553
936.00 -11.98521679   1.42082611
938.00 -12.05263321   1.42990489
940.00 -12.12018894   1.43902196
942.00 -12.18788395   1.44817739
944.00 -12.25571820   1.45737125
946.00 -12.32369168   1.46660363
948.00 -12.39180434   1.47587459
950.00 -12.46005617   1.48518423
952.00 -12.52844712   1.49453261
954.00 -12.59697718   1.50391982
956.00 -12.66564632   1.51334592
958.00 -12.73445449   1.52281100
960.00 -12.80340168   1.53231514
962.00 -12.87248786   1.54185840
964.00 -12.94171299   1.55144088
966.00 -13.01107705   1.56106263
968.00 -13.08058000   1.57072375
970.00 -13.15022182   1.58042431
972.00 -13.22000248   1.59016438
974.00 -13.28992195   1.59994405
976.00 -13.35998019   1.60976338
978.00 -13.43017717   1.61962246
980.00 -13.50051288   1.62952136
982.00 -13.57098727   1.63946017
984.00 -13.64160032   1.64943894
986.00 -13.71235200   1.65945777
988.00 -13.78324227   1.66951673
990.00 -13.85427111   1.67961589
992.00 -13.92543849   1.68975534
994.00 -13.99674437   1.69993515
996.00 -14.06818873   1.71015539
998.00 -14.13977153   1.72041614
1000.00 -14.21149275   1.73071748
1002.00 -14.28335235   1.74105949
1004.00 -14.35535031   1.75144223
1006.00 -14.42748658   1.76186580
1008.00 -14.49976115   1.77233026
1010.00 -14.57217398   1.78283568
1012.00 -14.64472504   1.79338216
1014.00 -14.71741430   1.80396976
1016.00 -14.79024173   1.81459855
1018.00 -14.86320729   1.82526862
1020.00 -14.93631096   1.83598005
1022.00 -15.00955270   1.84673290
1024.00 -15.08293249   1.85752725
1026.00 -15.15645029   1.86836318
1028.00 -15.23010607   1.87924077
1030.00 -15.30389981   1.89016009
1032.00 -15.37783146   1.90112122
1034.00 -15.45190099   1.91212424
1036.00 -15.52610838   1.92316921
1038.00 -15.60045360   1.93425621
1040.00 -15.67493661   1.94538533
1042.00 -15.74955738   1.95655664
1044.00 -15.82431587   1.96777021
1046.00 -15.89921207   1.97902612
1048.00 -15.97424592   1.99032444
1050.00 -16.04941742   2.00166525
1052.00 -16.12472651   2.01304863
1054.00 -16.20017317   2.02447465
1056.00 -16.27575737   2.03594339
1058.00 -16.35147907   2.04745492
1060.00 -16.42733825   2.05900932
1062.00 -16.50333487   2.07060667
1064.00 -16.57946889   2.08224703
1066.00 -16.65574029   2.09393049
1068.00 -16.73214903   2.10565712
1070.00 -16.80869509   2.11742699
1072.00 -16.88537842   2.12924019
1074.00 -16.96219900   2.14109678
1076.00 -17.03915679   2.15299685
1078.00 -17.11625176   2.16494046
1080.00 -17.19348388   2.17692770
1082.00 -17.27085312   2.18895863
1084.00 -17.34835944   2.20103334
1086.00 -17.42600280   2.21315189
1088.00 -17.50378319   2.22531437
1090.00 -17.58170055   2.23752085
1092.00 -17.65975487   2.24977140
1094.00 -17.73794610   2.26206610
1096.00 -17.81627422   2.27440502
1098.00 -17.89473918   2.28678824
1100.00 -17.97334097   2.29921584
1102.00 -18.05207954   2.31168788
1104.00 -18.13095486   2.32420445
1106.00 -18.20996689   2.33676561
1108.00 -18.28911561   2.34937145
1110.00 -18.36840098   2.36202204
1112.00 -18.44782297   2.37471745
1114.00 -18.52738154   2.38745776
1116.00 -18.60707666   2.40024304
1118.00 -18.68690830   2.41307336
1120.00 -18.76687641   2.42594881
1122.00 -18.84698098   2.43886946
1124.00 -18.92722195   2.45183537
1126.00 -19.00759931   2.46484664
1128.00 -19.08811301   2.47790332
1130.00 -19.16876303   2.49100549
1132.00 -19.24954932   2.50415324
1134.00 -19.33047186   2.51734663
1136.00 -19.41153060   2.53058573
1138.00 -19.49272552   2.54387063
1140.00 -19.57405658   2.55720139
1142.00 -19.65552375   2.57057810
1144.00 -19.73712699   2.58400082
1146.00 -19.81886626   2.59746963
1148.00 -19.90074154   2.61098460
1150.00 -19.98275279   2.62454581
1152.00 -20.06489997   2.63815333
1154.00 -20.14718305   2.65180724
1156.00 -20.22960199   2.66550761
1158.00 -20.31215676   2.67925451
1160.00 -20.39484732   2.69304802
1162.00 -20.47767365   2.70688821
1164.00 -20.56063569   2.72077516
1166.00 -20.64373343   2.73470894
1168.00 -20.72696682   2.74868962
1170.00 -20.81033583   2.76271728
1172.00 -20.89384042   2.77679199
1174.00 -20.97748056   2.79091382
1176.00 -21.06125622   2.80508286
1178.00 -21.14516735   2.81929916
1180.00 -21.22921392   2.83356282
1182.00 -21.31339591   2.84787389
1184.00 -21.39771326   2.86223245
1186.00 -21.48216595   2.87663859
1188.00 -21.56675394   2.89109236
1190.00 -21.65147719   2.90559385
1192.00 -21.73633567   2.92014313
1194.00 -21.82132934   2.93474027
1196.00 -21.90645818   2.94938534
1198.00 -21.99172213   2.96407842
1200.00 -22.07712117   2.97881958
1202.00 -22.16265525   2.99360890
1204.00 -22.24832435   3.00844644
1206.00 -22.33412843   3.02333229
1208.00 -22.42006745   3.03826651
1210.00 -22.50614137   3.05324917
1212.00 -22.59235017   3.06828036
1214.00 -22.67869379   3.08336014
1216.00 -22.76517221   3.09848859
1218.00 -22.85178539   3.11366578
1220.00 -22.93853329   3.12889178
1222.00 -23.02541588   3.14416667
1224.00 -23.11243312   3.15949052
1226.00 -23.19958498   3.17486340
1228.00 -23.28687140   3.19028538
1230.00 -23.37429237   3.20575654
1232.00 -23.46184785   3.22127695
1234.00 -23.54953778   3.23684669
1236.00 -23.63736215   3.25246582
1238.00 -23.72532091   3.26813441
1240.00 -23.81341403   3.28385255
1242.00 -23.90164147   3.29962031
1244.00 -23.99000318   3.31543775
1246.00 -24.07849914   3.33130495
1248.00 -24.16712931   3.34722198
1250.00 -24.25589365   3.36318892
1252.00 -24.34479212   3.37920583
1254.00 -24.43382469   3.39527279
1256.00 -24.52299131   3.41138987
1258.00 -24.61229196   3.42755715
1260.00 -24.70172658   3.44377469
1262.00 -24.79129516   3.46004257
1264.00 -24.88099764   3.47636086
1266.00 -24.97083399   3.49272963
1268.00 -25.06080417   3.50914896
1270.00 -25.15090815   3.52561892
1272.00 -25.24114589   3.54213958
1274.00 -25.33151734   3.55871100
1276.00 -25.42202248   3.57533327
1278.00 -25.51266126   3.59200646
1280.00 -25.60343365   3.60873063
1282.00 -25.69433960   3.62550587
1284.00 -25.78537908   3.64233223
1286.00 -25.87655205   3.65920980
1288.00 -25.96785848   3.67613864
1290.00 -26.05929832   3.69311883
1292.00 -26.15087154   3.71015044
1294.00 -26.24257809   3.72723353
1296.00 -26.33441795   3.74436819
1298.00 -26.42639106   3.76155449
1300.00 -26.51849740   3.77879249
1302.00 -26.61073692   3.79608226
1304.00 -26.70310959   3.81342389
1306.00 -26.79561536   3.83081743
1308.00 -26.88825421   3.84826297
1310.00 -26.98102608   3.86576057
1312.00 -27.07393094   3.88331030
1314.00 -27.16696875   3.90091224
1316.00 -27.26013948   3.91856645
1318.00 -27.35344308   3.93627302
1320.00 -27.44687952   3.95403200
1322.00 -27.54044875   3.97184347
1324.00 -27.63415074   3.98970751
1326.00 -27.72798544   4.00762418
1328.00 -27.82195283   4.02559355
1330.00 -27.91605285   4.04361570
1332.00 -28.01028547   4.06169070
1334.00 -28.10465066   4.07981861
1336.00 -28.19914836   4.09799951
1338.00 -28.29377855   4.11623347
1340.00 -28.38854117   4.13452056
1342.00 -28.48343620   4.15286085
1344.00 -28.57846360   4.17125441
1346.00 -28.67362331   4.18970132
1348.00 -28.76891531   4.20820164
1350.00 -28.86433956   4.22675544
1352.00 -28.95989601   4.24536280
1354.00 -29.05558462   4.26402378
1356.00 -29.15140535   4.28273846
1358.00 -29.24735817   4.30150691
1360.00 -29.34344304   4.32032919
1362.00 -29.43965991   4.33920538
1364.00 -29.53600874   4.35813555
1366.00 -29.63248950   4.37711977
1368.00 -29.72910214   4.39615811
1370.00 -29.82584663   4.41525063
1372.00 -29.92272292   4.43439742
1374.00 -30.01973097   4.45359854
1376.00 -30.11687074   4.47285405
1378.00 -30.21414220   4.49216404
1380.00 -30.31154530   4.51152856
1382.00 -30.40908000   4.53094770
1384.00 -30.50674626   4.55042152
1386.00 -30.60454404   4.56995009
1388.00 -30.70247330   4.58953348
1390.00 -30.80053399   4.60917176
1392.00 -30.89872609   4.62886500
1394.00 -30.99704954   4.64861327
1396.00 -31.09550431   4.66841664
1398.00 -31.19409035   4.68827518
1400.00 -31.29280763   4.70818897
1402.00 -31.39165610   4.72815806
1404.00 -31.49063573   4.74818253
1406.00 -31.58974646   4.76826245
1408.00 -31.68898827   4.78839789
1410.00 -31.78836110   4.80858892
1412.00 -31.88786492   4.82883560
1414.00 -31.98749969   4.84913801
1416.00 -32.08726536   4.86949622
1418.00 -32.18716189   4.88991030
1420.00 -32.28718925   4.91038031
1422.00 -32.38734738   4.93090633
1424.00 -32.48763626   4.95148842
1426.00 -32.58805583   4.97212666
1428.00 -32.68860606   4.99282111
1430.00 -32.78928690   5.01357184
1432.00 -32.89009832   5.03437892
1434.00 -32.99104026   5.05524242
1436.00 -33.09211270   5.07616242
1438.00 -33.19331558   5.09713897
1440.00 -33.29464886   5.11817215
1442.00 -33.39611251   5.13926202
1444.00 -33.49770648   5.16040866
1446.00 -33.59943072   5.18161214
1448.00 -33.70128521   5.20287252
1450.00 -33.80326989   5.22418987
1452.00 -33.90538472   5.24556427
1454.00 -34.00762966   5.26699577
1456.00 -34.11000466   5.28848445
1458.00 -34.21250970   5.31003038
1460.00 -34.31514471   5.33163362
1462.00 -34.41790967   5.35329425
1464.00 -34.52080453   5.37501233
1466.00 -34.62382924   5.39678794
1468.00 -34.72698376   5.41862113
1470.00 -34.83026805   5.44051198
1472.00 -34.93368207   5.46246056
1474.00 -35.03722578   5.48446694
1476.00 -35.14089912   5.50653118
1478.00 -35.24470207   5.52865335
1480.00 -35.34863457   5.55083352
1482.00 -35.45269659   5.57307175
1484.00 -35.55688808   5.59536813
1486.00 -35.66120899   5.61772271
1488.00 -35.76565929   5.64013556
1490.00 -35.87023893   5.66260675
1492.00 -35.97494787   5.68513635
1494.00 -36.07978606   5.70772443
1496.00 -36.18475347   5.73037105
1498.00 -36.28985004   5.75307629
1500.00 -36.39507574   5.77584020
1502.00 -36.50043052   5.79866287
1504.00 -36.60591434   5.82154434
1506.00 -36.71152715   5.84448471
1508.00 -36.81726891   5.86748402
1510.00 -36.92313959   5.89054235
1512.00 -37.02913912   5.91365977
1514.00 -37.13526748   5.93683635
1516.00 -37.24152461   5.96007214
1518.00 -37.34791048   5.98336723
1520.00 -37.45442503   6.00672167
1522.00 -37.56106824   6.03013554
1524.00 -37.66784004   6.05360889
1526.00 -37.77474040   6.07714181
1528.00 -37.88176927   6.10073435
1530.00 -37.98892662   6.12438659
1532.00 -38.09621239   6.14809858
1534.00 -38.20362654   6.17187040
1536.00 -38.31116903   6.19570212
1538.00 -38.41883981   6.21959380
1540.00 -38.52663884   6.24354551
1542.00 -38.63456607   6.26755731
1544.00 -38.74262147   6.29162928
1546.00 -38.85080498   6.31576148
1548.00 -38.95911656   6.33995397
1550.00 -39.06755617   6.36420683
1552.00 -39.17612376   6.38852012
1554.00 -39.28481929   6.41289390
1556.00 -39.39364271   6.43732825
1558.00 -39.50259398   6.46182323
1560.00 -39.61167306   6.48637891
1562.00 -39.72087989   6.51099535
1564.00 -39.83021444   6.53567262
1566.00 -39.93967666   6.56041078
1568.00 -40.04926650   6.58520992
1570.00 -40.15898393   6.61007008
1572.00 -40.26882888   6.63499133
1574.00 -40.37880133   6.65997375
1576.00 -40.48890122   6.68501740
1578.00 -40.59912851   6.71012234
1580.00 -40.70948316   6.73528864
1582.00 -40.81996511   6.76051638
1584.00 -40.93057433   6.78580560
1586.00 -41.04131077   6.81115638
1588.00 -41.15217438   6.83656880
1590.00 -41.26316512   6.86204290
1592.00 -41.37428295   6.88757876
1594.00 -41.48552780   6.91317644
1596.00 -41.59689966   6.93883601
1598.00 -41.70839845   6.96455754
1600.00 -41.82002415   6.99034109
1602.00 -41.93177671   7.01618673
1604.00 -42.04365607   7.04209452
1606.00 -42.15566219   7.06806453
1608.00 -42.26779504   7.09409682
1610.00 -42.38005455   7.12019146
1612.00 -42.49244070   7.14634852
1614.00 -42.60495342   7.17256806
1616.00 -42.71759267   7.19885014
1618.00 -42.83035842   7.22519484
1620.00 -42.94325061   7.25160221
1622.00 -43.05626919   7.27807233
1624.00 -43.16941412   7.30460525
1626.00 -43.28268536   7.33120105
1628.00 -43.39608286   7.35785979
1630.00 -43.50960657   7.38458153
1632.00 -43.62325644   7.41136633
1634.00 -43.73703243   7.43821428
1636.00 -43.85093449   7.46512542
1638.00 -43.96496258   7.49209982
1640.00 -44.07911665   7.51913755
1642.00 -44.19339666   7.54623868
1644.00 -44.30780255   7.57340326
1646.00 -44.42233428   7.60063137
1648.00 -44.53699180   7.62792307
1650.00 -44.65177507   7.65527842
1652.00 -44.76668404   7.68269749
1654.00 -44.88171867   7.71018034
1656.00 -44.99687890   7.73772704
1658.00 -45.11216469   7.76533765
1660.00 -45.22757599   7.79301223
1662.00 -45.34311276   7.82075086
1664.00 -45.45877495   7.84855359
1666.00 -45.57456251   7.87642049
1668.00 -45.69047539   7.90435163
1670.00 -45.80651355   7.93234706
1672.00 -45.92267695   7.96040686
1674.00 -46.03896552   7.98853108
1676.00 -46.15537923   8.01671980
1678.00 -46.27191804   8.04497307
1680.00 -46.38858188   8.07329095
1682.00 -46.50537072   8.10167353
1684.00 -46.62228450   8.13012085
1686.00 -46.73932318   8.15863298
1688.00 -46.85648672   8.18720999
1690.00 -46.97377506   8.21585193
1692.00 -47.09118816   8.24455888
1694.00 -47.20872596   8.27333090
1696.00 -47.32638843   8.30216805
1698.00 -47.44417551   8.33107039
1700.00 -47.56208716   8.36003799
1702.00 -47.68012333   8.38907092
1704.00 -47.79828397   8.41816923
1706.00 -47.91656903   8.44733299
1708.00 -48.03497846   8.47656226
1710.00 -48.15351223   8.50585710
1712.00 -48.27217027   8.53521759
1714.00 -48.39095254   8.56464378
1716.00 -48.50985899   8.59413573
1718.00 -48.62888958   8.62369352
1720.00 -48.74804426   8.65331720
1722.00 -48.86732298   8.68300683
1724.00 -48.98672568   8.71276249
1726.00 -49.10625233   8.74258422
1728.00 -49.22590287   8.77247210
1730.00 -49.34567726   8.80242620
1732.00 -49.46557544   8.83244656
1734.00 -49.58559738   8.86253325
1736.00 -49.70574301   8.89268635
1738.00 -49.82601229   8.92290590
1740.00 -49.94640518   8.95319198
1742.00 -50.06692162   8.98354464
1744.00 -50.18756157   9.01396395
1746.00 -50.30832497   9.04444998
1748.00 -50.42921179   9.07500277
1750.00 -50.55022196   9.10562241
1752.00 -50.67135544   9.13630894
1754.00 -50.79261219   9.16706243
1756.00 -50.91399215   9.19788295
1758.00 -51.03549527   9.22877056
1760.00 -51.15712151   9.25972531
1762.00 -51.27887081   9.29074728
1764.00 -51.40074313   9.32183651
1766.00 -51.52273842   9.35299309
1768.00 -51.64485663   9.38421706
1770.00 -51.76709771   9.41550849
1772.00 -51.88946161   9.44686745
1774.00 -52.01194828   9.47829399
1776.00 -52.13455768   9.50978817
1778.00 -52.25728974   9.54135007
1780.00 -52.38014443   9.57297973
1782.00 -52.50312170   9.60467723
1784.00 -52.62622148   9.63644262
1786.00 -52.74944375   9.66827597
1788.00 -52.87278844   9.70017733
1790.00 -52.99625550   9.73214677
1792.00 -53.11984490   9.76418436
1794.00 -53.24355656   9.79629015
1796.00 -53.36739046   9.82846420
1798.00 -53.49134653   9.86070657
1800.00 -53.61542474   9.89301734
1802.00 -53.73962502   9.92539655
1804.00 -53.86394732   9.95784427
1806.00 -53.98839161   9.99036057
1808.00 -54.11295782  10.02294550
1810.00 -54.23764592  10.05559912
1812.00 -54.36245584  10.08832150
1814.00 -54.48738754  10.12111269
1816.00 -54.61244097  10.15397276
1818.00 -54.73761607  10.18690177
1820.00 -54.86291281  10.21989978
1822.00 -54.98833112  10.25296685
1824.00 -55.11387096  10.28610304
1826.00 -55.23953228  10.31930841
1828.00 -55.36531502  10.35258303
1830.00 -55.49121914  10.38592695
1832.00 -55.61724459  10.41934024
1834.00 -55.74339132  10.45282295
1836.00 -55.86965926  10.48637515
1838.00 -55.99604839  10.51999690
1840.00 -56.12255864  10.55368825
1842.00 -56.24918996  10.58744928
1844.00 -56.37594231  10.62128003
1846.00 -56.50281563  10.65518057
1848.00 -56.62980987  10.68915096
1850.00 -56.75692498  10.72319126
1852.00 -56.88416091  10.75730153
1854.00 -57.01151762  10.79148183
1856.00 -57.13899504  10.82573222
1858.00 -57.26659313  10.86005276
1860.00 -57.39431184  10.89444352
1862.00 -57.52215111  10.92890454
1864.00 -57.65011090  10.96343590
1866.00 -57.77819115  10.99803764
1868.00 -57.90639182  11.03270984
1870.00 -58.03471284  11.06745255
1872.00 -58.16315418  11.10226583
1874.00 -58.29171578  11.13714974
1876.00 -58.42039759  11.17210434
1878.00 -58.54919955  11.20712970
1880.00 -58.67812162  11.24222586
1882.00 -58.80716375  11.27739289
1884.00 -58.93632588  11.31263085
1886.00 -59.06560796  11.34793980
1888.00 -59.19500994  11.38331980
1890.00 -59.32453177  11.41877090
1892.00 -59.45417339  11.45429317
1894.00 -59.58393477  11.48988667
1896.00 -59.71381584  11.52555146
1898.00 -59.84381655  11.56128759
1900.00 -59.97393685  11.59709512
1902.00 -60.10417669  11.63297412
1904.00 -60.23453602  11.66892464
1906.00 -60.36501478  11.70494674
1908.00 -60.49561293  11.74104048
1910.00 -60.62633041  11.77720592
1912.00 -60.75716717  11.81344312
1914.00 -60.88812316  11.84975214
1916.00 -61.01919832  11.88613303
1918.00 -61.15039261  11.92258586
1920.00 -61.28170598  11.95911069
1922.00 -61.41313836  11.99570756
1924.00 -61.54468971  12.03237655
1926.00 -61.67635998  12.06911770
1928.00 -61.80814911  12.10593109
1930.00 -61.94005705  12.14281676
1932.00 -62.07208376  12.17977478
1934.00 -62.20422917  12.21680520
1936.00 -62.33649323  12.25390808
1938.00 -62.46887590  12.29108348
1940.00 -62.60137712  12.32833147
1942.00 -62.73399683  12.36565209
1944.00 -62.86673500  12.40304540
1946.00 -62.99959155  12.44051147
1948.00 -63.13256644  12.47805035
1950.00 -63.26565963  12.51566210
1952.00 -63.39887104  12.55334678
1954.00 -63.53220064  12.59110444
1956.00 -63.66564837  12.62893515
1958.00 -63.79921418  12.66683895
1960.00 -63.93289801  12.70481592
1962.00 -64.06669982  12.74286610
1964.00 -64.20061954  12.78098956
1966.00 -64.33465713  12.81918635
1968.00 -64.46881253  12.85745653
1970.00 -64.60308569  12.89580016
1972.00 -64.73747656  12.93421729
1974.00 -64.87198508  12.97270799
1976.00 -65.00661120  13.01127231
1978.00 -65.14135487  13.04991030
1980.00 -65.27621604  13.08862203
1982.00 -65.41119465  13.12740755
1984.00 -65.54629065  13.16626692
1986.00 -65.68150398  13.20520019
1988.00 -65.81683460  13.24420743
1990.00 -65.95228244  13.28328870
1992.00 -66.08784746  13.32244403
1994.00 -66.22352960  13.36167351
1996.00 -66.35932881  13.40097717
1998.00 -66.49524504  13.44035509
2000.00 -66.63127823  13.47980731
2002.00 -66.76742833  13.51933389
2004.00 -66.90369528  13.55893489
2006.00 -67.04007904  13.59861037
2008.00 -67.17657954  13.63836038
2010.00 -67.31319674  13.67818498
2012.00 -67.44993058  13.71808423
2014.00 -67.58678100  13.75805818
2016.00 -67.72374796  13.79810689
2018.00 -67.86083140  13.83823041
2020.00 -67.99803127  13.87842880
2022.00 -68.13534750  13.91870213
2024.00 -68.27278006  13.95905044
2026.00 -68.41032888  13.99947378
2028.00 -68.54799391  14.03997223
2030.00 -68.68577509  14.08054583
2032.00 -68.82367238  14.12119464
2034.00 -68.96168572  14.16191871
2036.00 -69.09981505  14.20271811
2038.00 -69.23806032  14.24359288
2040.00 -69.37642148  14.28454308
2042.00 -69.51489847  14.32556878
2044.00 -69.65349124  14.36667002
2046.00 -69.79219973  14.40784686
2048.00 -69.93102389  14.44909936
2050.00 -70.06996367  14.49042756
2052.00 -70.20901900  14.53183154
2054.00 -70.34818985  14.57331134
2056.00 -70.48747614  14.61486702
2058.00 -70.62687783  14.65649863
2060.00 -70.76639487  14.69820624
2062.00 -70.90602719  14.73998989
2064.00 -71.04577475  14.78184964
2066.00 -71.18563749  14.82378554
2068.00 -71.32561536  14.86579766
2070.00 -71.46570829  14.90788604
2072.00 -71.60591624  14.95005075
2074.00 -71.74623915  14.99229183
2076.00 -71.88667697  15.03460934
2078.00 -72.02722964  15.07700334
2080.00 -72.16789710  15.11947388
2082.00 -72.30867931  15.16202102
2084.00 -72.44957621  15.20464481
2086.00 -72.59058773  15.24734531
2088.00 -72.73171384  15.29012256
2090.00 -72.87295447  15.33297664
2092.00 -73.01430956  15.37590758
2094.00 -73.15577907  15.41891545
2096.00 -73.29736293  15.46200029
2098.00 -73.43906110  15.50516218
2100.00 -73.58087351  15.54840115
2102.00 -73.72280012  15.59171726
2104.00 -73.86484086  15.63511057
2106.00 -74.00699569  15.67858113
2108.00 -74.14926454  15.72212900
2110.00 -74.29164737  15.76575423
2112.00 -74.43414411  15.80945688
2114.00 -74.57675471  15.85323699
2116.00 -74.71947911  15.89709462
2118.00 -74.86231727  15.94102984
2120.00 -75.00526912  15.98504268
2122.00 -75.14833461  16.02913321
2124.00 -75.29151368  16.07330147
2126.00 -75.43480628  16.11754753
2128.00 -75.57821235  16.16187144
2130.00 -75.72173184  16.20627324
2132.00 -75.86536469  16.25075300
2134.00 -76.00911085  16.29531076
2136.00 -76.15297026  16.33994659
2138.00 -76.29694286  16.38466053
2140.00 -76.44102860  16.42945264
2142.00 -76.58522743  16.47432297
2144.00 -76.72953928  16.51927158
2146.00 -76.87396410  16.56429851
2148.00 -77.01850184  16.60940383
2150.00 -77.16315243  16.65458758
2152.00 -77.30791583  16.69984981
2154.00 -77.45279198  16.74519059
2156.00 -77.59778082  16.79060997
2158.00 -77.74288230  16.83610799
2160.00 -77.88809635  16.88168471
2162.00 -78.03342293  16.92734018
2164.00 -78.17886198  16.97307446
2166.00 -78.32441344  17.01888760
2168.00 -78.47007725  17.06477966
2170.00 -78.61585336  17.11075067
2172.00 -78.76174172  17.15680071
2174.00 -78.90774226  17.20292981
2176.00 -79.05385493  17.24913804
2178.00 -79.20007968  17.29542544
2180.00 -79.34641644  17.34179207
2182.00 -79.49286516  17.38823798
2184.00 -79.63942579  17.43476322
2186.00 -79.78609827  17.48136785
2188.00 -79.93288254  17.52805191
2190.00 -80.07977855  17.57481547
2192.00 -80.22678623  17.62165857
2194.00 -80.37390554  17.66858126
2196.00 -80.52113641  17.71558359
2198.00 -80.66847880  17.76266563
2200.00 -80.81593263  17.80982741
2202.00 -80.96349786  17.85706900
2204.00 -81.11117443  17.90439044
2206.00 -81.25896229  17.95179179
2208.00 -81.40686136  17.99927310
2210.00 -81.55487161  18.04683441
2212.00 -81.70299297  18.09447579
2214.00 -81.85122539  18.14219728
2216.00 -81.99956880  18.18999894
2218.00 -82.14802316  18.23788081
2220.00 -82.29658840  18.28584295
2222.00 -82.44526447  18.33388540
2224.00 -82.59405131  18.38200823
2226.00 -82.74294886  18.43021148
2228.00 -82.89195707  18.47849521
2230.00 -83.04107588  18.52685946
2232.00 -83.19030523  18.57530428
2234.00 -83.33964507  18.62382974
2236.00 -83.48909533  18.67243587
2238.00 -83.63865597  18.72112273
2240.00 -83.78832692  18.76989037
2242.00 -83.93810813  18.81873884
2244.00 -84.08799953  18.86766820
2246.00 -84.23800108  18.91667849
2248.00 -84.38811272  18.96576976
2250.00 -84.53833438  19.01494207
2252.00 -84.68866601  19.06419546
2254.00 -84.83910755  19.11352999
2256.00 -84.98965895  19.16294570
2258.00 -85.14032015  19.21244266
2260.00 -85.29109108  19.26202090
2262.00 -85.44197170  19.31168048
2264.00 -85.59296195  19.36142145
2266.00 -85.74406176  19.41124386
2268.00 -85.89527108  19.46114775
2270.00 -86.04658986  19.51113319
2272.00 -86.19801803  19.56120022
2274.00 -86.34955553  19.61134889
2276.00 -86.50120232  19.66157925
2278.00 -86.65295833  19.71189135
2280.00 -86.80482350  19.76228524
2282.00 -86.95679778  19.81276097
2284.00 -87.10888110  19.86331859
2286.00 -87.26107342  19.91395815
2288.00 -87.41337466  19.96467971
2290.00 -87.56578479  20.01548330
2292.00 -87.71830373  20.06636898
2294.00 -87.87093142  20.11733681
2296.00 -88.02366782  20.16838682
2298.00 -88.17651286  20.21951907
2300.00 -88.32946649  20.27073361
2302.00 -88.48252864  20.32203048
2304.00 -88.63569926  20.37340975
2306.00 -88.78897829  20.42487145
2308.00 -88.94236568  20.47641563
2310.00 -89.09586135  20.52804235
2312.00 -89.24946527  20.57975166
2314.00 -89.40317736  20.63154360
2316.00 -89.55699757  20.68341822
2318.00 -89.71092584  20.73537557
2320.00 -89.86496211  20.78741571
2322.00 -90.01910633  20.83953867
2324.00 -90.17335844  20.89174452
2326.00 -90.32771837  20.94403329
2328.00 -90.48218607  20.99640503
2330.00 -90.63676148  21.04885981
2332.00 -90.79144455  21.10139765
2334.00 -90.94623521  21.15401862
2336.00 -91.10113340  21.20672276
2338.00 -91.25613907  21.25951012
2340.00 -91.41125216  21.31238075
2342.00 -91.56647261  21.36533470
2344.00 -91.72180036  21.41837201
2346.00 -91.87723535  21.47149274
2348.00 -92.03277753  21.52469692
2350.00 -92.18842683  21.57798462
2352.00 -92.34418320  21.63135588
2354.00 -92.50004657  21.68481074
2356.00 -92.65601690  21.73834926
2358.00 -92.81209411  21.79197148
2360.00 -92.96827815  21.84567745
2362.00 -93.12456897  21.89946722
2364.00 -93.28096650  21.95334083
2366.00 -93.43747069  22.00729834
2368.00 -93.59408147  22.06133980
2370.00 -93.75079879  22.11546524
2372.00 -93.90762258  22.16967472
2374.00 -94.06455280  22.22396829
2376.00 -94.22158937  22.27834599
2378.00 -94.37873225  22.33280787
2380.00 -94.53598137  22.38735398
2382.00 -94.69333666  22.44198437
2384.00 -94.85079809  22.49669908
2386.00 -95.00836557  22.55149816
2388.00 -95.16603907  22.60638165
2390.00 -95.32381850  22.66134962
2392.00 -95.48170383  22.71640209
2394.00 -95.63969498  22.77153912
2396.00 -95.79779190  22.82676076
2398.00 -95.95599453  22.88206706
2400.00 -96.11430281  22.93745805
2402.00 -96.27271668  22.99293380
2404.00 -96.43123608  23.04849433
2406.00 -96.58986095  23.10413971
2408.00 -96.74859123  23.15986998
2410.00 -96.90742687  23.21568518
2412.00 -97.06636780  23.27158536
2414.00 -97.22541396  23.32757057
2416.00 -97.38456530  23.38364086
2418.00 -97.54382175  23.43979627
2420.00 -97.70318325  23.49603684
2422.00 -97.86264976  23.55236263
2424.00 -98.02222119  23.60877368
2426.00 -98.18189751  23.66527004
2428.00 -98.34167864  23.72185175
2430.00 -98.50156453  23.77851886
2432.00 -98.66155511  23.83527142
2434.00 -98.82165033  23.89210947
2436.00 -98.98185013  23.94903305
2438.00 -99.14215445  24.00604222
2440.00 -99.30256323  24.06313702
2442.00 -99.46307640  24.12031750
2444.00 -99.62369392  24.17758370
2446.00 -99.78441571  24.23493566
2448.00 -99.94524172  24.29237344
2450.00 -100.10617189  24.34989708
2452.00 -100.26720616  24.40750663
2454.00 -100.42834446  24.46520212
2456.00 -100.58958675  24.52298361
2458.00 -100.75093296  24.58085114
2460.00 -100.91238302  24.63880476
2462.00 -101.07393689  24.69684451
2464.00 -101.23559449  24.75497044
2466.00 -101.39735577  24.81318259
2468.00 -101.55922067  24.87148101
2470.00 -101.72118913  24.92986575
2472.00 -101.88326108  24.98833684
2474.00 -102.04543648  25.04689434
2476.00 -102.20771525  25.10553828
2478.00 -102.37009734  25.16426872
2480.00 -102.53258269  25.22308570
2482.00 -102.69517124  25.28198926
2484.00 -102.85786292  25.34097946
2486.00 -103.02065768  25.40005632
2488.00 -103.18355546  25.45921990
2490.00 -103.34655619  25.51847025
2492.00 -103.50965982  25.57780741
2494.00 -103.67286628  25.63723141
2496.00 -103.83617552  25.69674231
2498.00 -103.99958747  25.75634016
2500.00 -104.16310207  25.81602499
2502.00 -104.32671927  25.87579685
2504.00 -104.49043901  25.93565579
2506.00 -104.65426121  25.99560184
2508.00 -104.81818583  26.05563506
2510.00 -104.98221279  26.11575548
2512.00 -105.14634205  26.17596315
2514.00 -105.31057354  26.23625813
2516.00 -105.47490720  26.29664044
2518.00 -105.63934296  26.35711013
2520.00 -105.80388078  26.41766725
2522.00 -105.96852058  26.47831184
2524.00 -106.13326231  26.53904395
2526.00 -106.29810590  26.59986362
2528.00 -106.46305130  26.66077089
2530.00 -106.62809844  26.72176580
2532.00 -106.79324727  26.78284841
2534.00 -106.95849772  26.84401874
2536.00 -107.12384973  26.90527686
2538.00 -107.28930324  26.96662280
2540.00 -107.45485819  27.02805660
2542.00 -107.62051453  27.08957830
2544.00 -107.78627218  27.15118796
2546.00 -107.95213108  27.21288561
2548.00 -108.11809119  27.27467130
2550.00 -108.28415242  27.33654507
2552.00 -108.45031474  27.39850696
2554.00 -108.61657806  27.46055702
2556.00 -108.78294234  27.52269529
2558.00 -108.94940751  27.58492181
2560.00 -109.11597351  27.64723662
2562.00 -109.28264028  27.70963977
2564.00 -109.44940775  27.77213131
2566.00 -109.61627588  27.83471127
2568.00 -109.78324459  27.89737969
2570.00 -109.95031382  27.96013662
2572.00 -110.11748351  28.02298211
2574.00 -110.28475361  28.08591619
2576.00 -110.45212405  28.14893890
2578.00 -110.61959477  28.21205029
2580.00 -110.78716570  28.27525041
2582.00 -110.95483679  28.33853929
2584.00 -111.12260798  28.40191697
2586.00 -111.29047920  28.46538351
2588.00 -111.45845039  28.52893893
2590.00 -111.62652150  28.59258329
2592.00 -111.79469245  28.65631662
2594.00 -111.96296320  28.72013897
2596.00 -112.13133367  28.78405037
2598.00 -112.29980380  28.84805088
2600.00 -112.46837354  28.91214053
2602.00 -112.63704282  28.97631936
2604.00 -112.80581159  29.04058742
2606.00 -112.97467977  29.10494475
2608.00 -113.14364731  29.16939138
2610.00 -113.31271414  29.23392737
2612.00 -113.48188022  29.29855275
2614.00 -113.65114546  29.36326756
2616.00 -113.82050981  29.42807185
2618.00 -113.98997322  29.49296565
2620.00 -114.15953561  29.55794902
2622.00 -114.32919693  29.62302198
2624.00 -114.49895712  29.68818459
2626.00 -114.66881610  29.75343687
2628.00 -114.83877383  29.81877888
2630.00 -115.00883024  29.88421065
2632.00 -115.17898526  29.94973223
2634.00 -115.34923884  30.01534366
2636.00 -115.51959092  30.08104497
2638.00 -115.69004143  30.14683621
2640.00 -115.86059030  30.21271742
2642.00 -116.03123749  30.27868863
2644.00 -116.20198292  30.34474990
2646.00 -116.37282654  30.41090126
2648.00 -116.54376828  30.47714275
2650.00 -116.71480808  30.54347442
2652.00 -116.88594588  30.60989629
2654.00 -117.05718161  30.67640842
2656.00 -117.22851522  30.74301084
2658.00 -117.39994664  30.80970360
2660.00 -117.57147582  30.87648673
2662.00 -117.74310268  30.94336028
2664.00 -117.91482717  31.01032428
2666.00 -118.08664922  31.07737877
2668.00 -118.25856878  31.14452380
2670.00 -118.43058577  31.21175941
2672.00 -118.60270015  31.27908563
2674.00 -118.77491184  31.34650250
2676.00 -118.94722078  31.41401007
2678.00 -119.11962691  31.48160838
2680.00 -119.29213018  31.54929745
2682.00 -119.46473051  31.61707735
2684.00 -119.63742784  31.68494810
2686.00 -119.81022212  31.75290974
2688.00 -119.98311328  31.82096231
2690.00 -120.15610126  31.88910586
2692.00 -120.32918599  31.95734042
2694.00 -120.50236742  32.02566603
2696.00 -120.67564547  32.09408273
2698.00 -120.84902010  32.16259056
2700.00 -121.02249123  32.23118956
2702.00 -121.19605881  32.29987977
2704.00 -121.36972276  32.36866123
2706.00 -121.54348304  32.43753398
2708.00 -121.71733957  32.50649805
2710.00 -121.89129230  32.57555349
2712.00 -122.06534115  32.64470033
2714.00 -122.23948608  32.71393861
2716.00 -122.41372701  32.78326838
2718.00 -122.58806389  32.85268967
2720.00 -122.76249665  32.92220251
2722.00 -122.93702523  32.99180696
2724.00 -123.11164956  33.06150304
2726.00 -123.28636959  33.13129079
2728.00 -123.46118525  33.20117026
2730.00 -123.63609648  33.27114149
2732.00 -123.81110321  33.34120450
2734.00 -123.98620539  33.41135934
2736.00 -124.16140295  33.48160606
2738.00 -124.33669582  33.55194467
2740.00 -124.51208395  33.62237523
2742.00 -124.68756727  33.69289778
2744.00 -124.86314573  33.76351234
2746.00 -125.03881925  33.83421896
2748.00 -125.21458777  33.90501768
2750.00 -125.39045124  33.97590853
2752.00 -125.56640958  34.04689156
2754.00 -125.74246274  34.11796680
2756.00 -125.91861065  34.18913428
2758.00 -126.09485325  34.26039405
2760.00 -126.27119048  34.33174614
2762.00 -126.44762228  34.40319060
2764.00 -126.62414857  34.47472745
2766.00 -126.80076931  34.54635674
2768.00 -126.97748442  34.61807851
2770.00 -127.15429384  34.68989278
2772.00 -127.33119751  34.76179961
2774.00 -127.50819537  34.83379902
2776.00 -127.68528735  34.90589105
2778.00 -127.86247340  34.97807574
2780.00 -128.03975344  35.05035314
2782.00 -128.21712742  35.12272326
2784.00 -128.39459526  35.19518616
2786.00 -128.57215692  35.26774187
2788.00 -128.74981232  35.34039043
2790.00 -128.92756141  35.41313186
2792.00 -129.10540411  35.48596622
2794.00 -129.28334038  35.55889354
2796.00 -129.46137013  35.63191384
2798.00 -129.63949331  35.70502718
2800.00 -129.81770987  35.77823359
2802.00 -129.99601972  35.85153310
2804.00 -130.17442282  35.92492574
2806.00 -130.35291909  35.99841157
2808.00 -130.53150848  36.07199061
2810.00 -130.71019092  36.14566290
2812.00 -130.88896634  36.21942847
2814.00 -131.06783469  36.29328737
2816.00 -131.24679591  36.36723962
2818.00 -131.42584992  36.44128527
2820.00 -131.60499666  36.51542435
2822.00 -131.78423608  36.58965690
2824.00 -131.96356810  36.66398294
2826.00 -132.14299267  36.73840253
2828.00 -132.32250972  36.81291570
2830.00 -132.50211919  36.88752247
2832.00 -132.68182101  36.96222289
2834.00 -132.86161513  37.03701699
2836.00 -133.04150147  37.11190481
2838.00 -133.22147998  37.18688639
2840.00 -133.40155058  37.26196175
2842.00 -133.58171323  37.33713094
2844.00 -133.76196785  37.41239399
2846.00 -133.94231438  37.48775094
2848.00 -134.12275276  37.56320182
2850.00 -134.30328292  37.63874666
2852.00 -134.48390480  37.71438551
2854.00 -134.66461834  37.79011839
2856.00 -134.84542347  37.86594534
2858.00 -135.02632013  37.94186641
2860.00 -135.20730826  38.01788162
2862.00 -135.38838779  38.09399100
2864.00 -135.56955865  38.17019460
2866.00 -135.75082080  38.24649244
2868.00 -135.93217415  38.32288457
2870.00 -136.11361866  38.39937102
2872.00 -136.29515425  38.47595181
2874.00 -136.47678086  38.55262700
2876.00 -136.65849842  38.62939661
2878.00 -136.84030688  38.70626067
2880.00 -137.02220617  38.78321923
2882.00 -137.20419623  38.86027231
2884.00 -137.38627699  38.93741995
2886.00 -137.56844838  39.01466218
2888.00 -137.75071036  39.09199905
2890.00 -137.93306284  39.16943057
2892.00 -138.11550577  39.24695680
2894.00 -138.29803909  39.32457775
2896.00 -138.48066272  39.40229348
2898.00 -138.66337661  39.48010400
2900.00 -138.84618070  39.55800936
2902.00 -139.02907491  39.63600958
2904.00 -139.21205919  39.71410471
2906.00 -139.39513347  39.79229477
2908.00 -139.57829768  39.87057980
2910.00 -139.76155177  39.94895984
2912.00 -139.94489567  40.02743492
2914.00 -140.12832931  40.10600506
2916.00 -140.31185264  40.18467031
2918.00 -140.49546558  40.26343070
2920.00 -140.67916808  40.34228626
2922.00 -140.86296007  40.42123703
2924.00 -141.04684148  40.50028303
2926.00 -141.23081225  40.57942431
2928.00 -141.41487233  40.65866089
2930.00 -141.59902163  40.73799281
2932.00 -141.78326011  40.81742011
2934.00 -141.96758770  40.89694281
2936.00 -142.15200432  40.97656094
2938.00 -142.33650993  41.05627455
2940.00 -142.52110445  41.13608367
2942.00 -142.70578781  41.21598832
2944.00 -142.89055997  41.29598854
2946.00 -143.07542085  41.37608437
2948.00 -143.26037038  41.45627583
2950.00 -143.44540851  41.53656296
2952.00 -143.63053517  41.61694579
2954.00 -143.81575029  41.69742436
2956.00 -144.00105382  41.77799869
2958.00 -144.18644568  41.85866883
2960.00 -144.37192582  41.93943479
2962.00 -144.55749417  42.02029662
2964.00 -144.74315066  42.10125435
2966.00 -144.92889523  42.18230800
2968.00 -145.11472782  42.26345762
2970.00 -145.30064836  42.34470323
2972.00 -145.48665679  42.42604487
2974.00 -145.67275304  42.50748257
2976.00 -145.85893706  42.58901635
2978.00 -146.04520877  42.67064626
2980.00 -146.23156811  42.75237232
2982.00 -146.41801502  42.83419457
2984.00 -146.60454943  42.91611304
2986.00 -146.79117129  42.99812776
2988.00 -146.97788051  43.08023876
2990.00 -147.16467705  43.16244607
2992.00 -147.35156083  43.24474973
2994.00 -147.53853180  43.32714976
2996.00 -147.72558988  43.40964620
2998.00 -147.91273501  43.49223909
3000.00 -148.09996714  43.57492844
3002.00 -148.28728618  43.65771430
3004.00 -148.47469209  43.74059669
3006.00 -148.66218480  43.82357565
3008.00 -148.84976423  43.90665120
3010.00 -149.03743034  43.98982338
3012.00 -149.22518304  44.07309222
3014.00 -149.41302229  44.15645775
3016.00 -149.60094801  44.23992000
3018.00 -149.78896013  44.32347901
3020.00 -149.97705861  44.40713480
3022.00 -150.16524336  44.49088740
3024.00 -150.35351433  44.57473685
3026.00 -150.54187146  44.65868317
3028.00 -150.73031467  44.74272640
3030.00 -150.91884390  44.82686656
3032.00 -151.10745909  44.91110370
3034.00 -151.29616018  44.99543783
3036.00 -151.48494709  45.07986899
3038.00 -151.67381977  45.16439722
3040.00 -151.86277815  45.24902253
3042.00 -152.05182217  45.33374496
3044.00 -152.24095176  45.41856454
3046.00 -152.43016686  45.50348131
3048.00 -152.61946739  45.58849528
3050.00 -152.80885331  45.67360650
3052.00 -152.99832454  45.75881499
3054.00 -153.18788102  45.84412078
3056.00 -153.37752268  45.92952390
3058.00 -153.56724947  46.01502438
3060.00 -153.75706131  46.10062226
3062.00 -153.94695814  46.18631755
3064.00 -154.13693989  46.27211030
3066.00 -154.32700651  46.35800053
3068.00 -154.51715792  46.44398827
3070.00 -154.70739407  46.53007355
3072.00 -154.89771489  46.61625640
3074.00 -155.08812030  46.70253685
3076.00 -155.27861026  46.78891492
3078.00 -155.46918469  46.87539066
3080.00 -155.65984353  46.96196408
3082.00 -155.85058671  47.04863523
3084.00 -156.04141417  47.13540411
3086.00 -156.23232585  47.22227078
3088.00 -156.42332168  47.30923525
3090.00 -156.61440160  47.39629755
3092.00 -156.80556553  47.48345772
3094.00 -156.99681342  47.57071578
3096.00 -157.18814521  47.65807176
3098.00 -157.37956082  47.74552569
3100.00 -157.57106019  47.83307760
3102.00 -157.76264326  47.92072752
3104.00 -157.95430997  48.00847547
3106.00 -158.14606024  48.09632149
3108.00 -158.33789401  48.18426561
3110.00 -158.52981123  48.27230784
3112.00 -158.72181181  48.36044823
3114.00 -158.91389571  48.44868680
3116.00 -159.10606285  48.53702358
3118.00 -159.29831317  48.62545859
3120.00 -159.49064661  48.71399187
3122.00 -159.68306309  48.80262344
3124.00 -159.87556256  48.89135334
3126.00 -160.06814495  48.98018158
3128.00 -160.26081020  49.06910820
3130.00 -160.45355824  49.15813323
3132.00 -160.64638900  49.24725670
3134.00 -160.83930242  49.33647862
3136.00 -161.03229844  49.42579904
3138.00 -161.22537699  49.51521797
3140.00 -161.41853801  49.60473545
3142.00 -161.61178143  49.69435151
3144.00 -161.80510719  49.78406617
3146.00 -161.99851522  49.87387945
3148.00 -162.19200545  49.96379139
3150.00 -162.38557783  50.05380202
3152.00 -162.57923229  50.14391136
3154.00 -162.77296875  50.23411944
3156.00 -162.96678717  50.32442629
3158.00 -163.16068747  50.41483193
3160.00 -163.35466958  50.50533640
3162.00 -163.54873345  50.59593971
3164.00 -163.74287901  50.68664190
3166.00 -163.93710619  50.77744299
3168.00 -164.13141492  50.86834301
3170.00 -164.32580515  50.95934200
3172.00 -164.52027681  51.05043996
3174.00 -164.71482984  51.14163694
3176.00 -164.90946416  51.23293296
3178.00 -165.10417971  51.32432804
3180.00 -165.29897643  51.41582222
3182.00 -165.49385426  51.50741552
3184.00 -165.68881312  51.59910796
3186.00 -165.88385296  51.69089957
3188.00 -166.07897371  51.78279039
3190.00 -166.27417530  51.87478043
3192.00 -166.46945767  51.96686972
3194.00 -166.66482075  52.05905829
3196.00 -166.86026448  52.15134617
3198.00 -167.05578879  52.24373338
3200.00 -167.25139363  52.33621995
3202.00 -167.44707891  52.42880590
3204.00 -167.64284459  52.52149126
3206.00 -167.83869059  52.61427606
3208.00 -168.03461685  52.70716032
3210.00 -168.23062330  52.80014408
3212.00 -168.42670988  52.89322734
3214.00 -168.62287652  52.98641015
3216.00 -168.81912316  53.07969253
3218.00 -169.01544974  53.17307449
3220.00 -169.21185618  53.26655608
3222.00 -169.40834243  53.36013731
3224.00 -169.60490841  53.45381821
3226.00 -169.80155407  53.54759881
3228.00 -169.99827934  53.64147913
3230.00 -170.19508415  53.73545919
3232.00 -170.39196844  53.82953903
3234.00 -170.58893214  53.92371866
3236.00 -170.78597519  54.01799812
3238.00 -170.98309752  54.11237743
3240.00 -171.18029907  54.20685661
3242.00 -171.37757977  54.30143569
3244.00 -171.57493956  54.39611470
3246.00 -171.77237837  54.49089365
3248.00 -171.96989614  54.58577258
3250.00 -172.16749280  54.68075151
3252.00 -172.36516829  54.77583047
3254.00 -172.56292254  54.87100947
3256.00 -172.76075548  54.96628855
3258.00 -172.95866706  55.06166773
3260.00 -173.15665721  55.15714703
3262.00 -173.35472585  55.25272648
3264.00 -173.55287294  55.34840611
3266.00 -173.75109839  55.44418593
3268.00 -173.94940215  55.54006598
3270.00 -174.14778416  55.63604627
3272.00 -174.34624433  55.73212684
3274.00 -174.54478262  55.82830770
3276.00 -174.74339896  55.92458888
3278.00 -174.94209327  56.02097041
3280.00 -175.14086550  56.11745231
3282.00 -175.33971558  56.21403460
3284.00 -175.53864345  56.31071731
3286.00 -175.73764903  56.40750046
3288.00 -175.93673227  56.50438408
3290.00 -176.13589310  56.60136819
3292.00 -176.33513145  56.69845281
3294.00 -176.53444727  56.79563797
3296.00 -176.73384047  56.89292369
3298.00 -176.93331101  56.99031000
3300.00 -177.13285881  57.08779691
3302.00 -177.33248381  57.18538447
3304.00 -177.53218594  57.28307267
3306.00 -177.73196514  57.38086156
3308.00 -177.93182134  57.47875115
3310.00 -178.13175448  57.57674148
3312.00 -178.33176450  57.67483255
3314.00 -178.53185132  57.77302439
3316.00 -178.73201488  57.87131704
3318.00 -178.93225512  57.96971050
3320.00 -179.13257197  58.06820481
3322.00 -179.33296537  58.16679999
3324.00 -179.53343525  58.26549606
3326.00 -179.73398155  58.36429305
3328.00 -179.93460419  58.46319097
3330.00 -180.13530313  58.56218985
3332.00 -180.33607828  58.66128971
3334.00 -180.53692959  58.76049058
3336.00 -180.73785699  58.85979249
3338.00 -180.93886042  58.95919544
3340.00 -181.13993980  59.05869946
3342.00 -181.34109508  59.15830459
3344.00 -181.54232619  59.25801083
3346.00 -181.74363306  59.35781822
3348.00 -181.94501563  59.45772677
3350.00 -182.14647384  59.55773651
3352.00 -182.34800761  59.65784746
3354.00 -182.54961689  59.75805965
3356.00 -182.75130161  59.85837308
3358.00 -182.95306170  59.95878780
3360.00 -183.15489709  60.05930382
3362.00 -183.35680773  60.15992115
3364.00 -183.55879355  60.26063983
3366.00 -183.76085448  60.36145988
3368.00 -183.96299045  60.46238132
3370.00 -184.16520141  60.56340416
3372.00 -184.36748728  60.66452844
3374.00 -184.56984801  60.76575418
3376.00 -184.77228352  60.86708139
3378.00 -184.97479375  60.96851009
3380.00 -185.17737864  61.07004032
3382.00 -185.38003811  61.17167209
3384.00 -185.58277212  61.27340542
3386.00 -185.78558058  61.37524033
3388.00 -185.98846343  61.47717686
3390.00 -186.19142062  61.57921501
3392.00 -186.39445207  61.68135481
3394.00 -186.59755772  61.78359628
3396.00 -186.80073750  61.88593944
3398.00 -187.00399135  61.98838432
3400.00 -187.20731920  62.09093093
3402.00 -187.41072100  62.19357929
3404.00 -187.61419666  62.29632944
3406.00 -187.81774613  62.39918138
3408.00 -188.02136935  62.50213514
3410.00 -188.22506624  62.60519074
3412.00 -188.42883674  62.70834820
3414.00 -188.63268079  62.81160755
3416.00 -188.83659832  62.91496879
3418.00 -189.04058927  63.01843197
3420.00 -189.24465357  63.12199708
3422.00 -189.44879115  63.22566416
3424.00 -189.65300196  63.32943323
3426.00 -189.85728592  63.43330431
3428.00 -190.06164297  63.53727741
3430.00 -190.26607304  63.64135256
3432.00 -190.47057607  63.74552978
3434.00 -190.67515200  63.84980908
3436.00 -190.87980076  63.95419050
3438.00 -191.08452228  64.05867405
3440.00 -191.28931650  64.16325974
3442.00 -191.49418335  64.26794761
3444.00 -191.69912277  64.37273766
3446.00 -191.90413470  64.47762993
3448.00 -192.10921906  64.58262442
3450.00 -192.31437579  64.68772117
3452.00 -192.51960484  64.79292019
3454.00 -192.72490612  64.89822149
3456.00 -192.93027958  65.00362511
3458.00 -193.13572515  65.10913106
3460.00 -193.34124277  65.21473936
3462.00 -193.54683237  65.32045002
3464.00 -193.75249389  65.42626308
3466.00 -193.95822725  65.53217854
3468.00 -194.16403241  65.63819643
3470.00 -194.36990928  65.74431678
3472.00 -194.57585781  65.85053958
3474.00 -194.78187793  65.95686488
3476.00 -194.98796957  66.06329268
3478.00 -195.19413267  66.16982301
3480.00 -195.40036717  66.27645588
3482.00 -195.60667300  66.38319132
3484.00 -195.81305009  66.49002934
3486.00 -196.01949838  66.59696996
3488.00 -196.22601780  66.70401320
3490.00 -196.43260829  66.81115909
3492.00 -196.63926978  66.91840763
3494.00 -196.84600222  67.02575885
3496.00 -197.05280552  67.13321277
3498.00 -197.25967964  67.24076941
3500.00 -197.46662449  67.34842878
3502.00 -197.67364002  67.45619091
3504.00 -197.88072617  67.56405580
3506.00 -198.08788286  67.67202349
3508.00 -198.29511004  67.78009399
3510.00 -198.50240763  67.88826732
3512.00 -198.70977557  67.99654349
3514.00 -198.91721380  68.10492253
3516.00 -199.12472225  68.21340446
3518.00 -199.33230085  68.32198928
3520.00 -199.53994955  68.43067703
3522.00 -199.74766827  68.53946771
3524.00 -199.95545696  68.64836135
3526.00 -200.16331553  68.75735797
3528.00 -200.37124394  68.86645758
3530.00 -200.57924212  68.97566020
3532.00 -200.78730999  69.08496585
3534.00 -200.99544750  69.19437455
3536.00 -201.20365458  69.30388631
3538.00 -201.41193116  69.41350115
3540.00 -201.62027718  69.52321910
3542.00 -201.82869258  69.63304016
3544.00 -202.03717728  69.74296436
3546.00 -202.24573123  69.85299172
3548.00 -202.45435436  69.96312224
3550.00 -202.66304660  70.07335596
3552.00 -202.87180789  70.18369288
3554.00 -203.08063817  70.29413303
3556.00 -203.28953736  70.40467641
3558.00 -203.49850541  70.51532306
3560.00 -203.70754224  70.62607298
3562.00 -203.91664780  70.73692620
3564.00 -204.12582201  70.84788273
3566.00 -204.33506482  70.95894258
3568.00 -204.54437616  71.07010578
3570.00 -204.75375596  71.18137234
3572.00 -204.96320416  71.29274229
3574.00 -205.17272069  71.40421562
3576.00 -205.38230548  71.51579237
3578.00 -205.59195848  71.62747256
3580.00 -205.80167962  71.73925618
3582.00 -206.01146883  71.85114328
3584.00 -206.22132605  71.96313385
3586.00 -206.43125121  72.07522792
3588.00 -206.64124425  72.18742550
3590.00 -206.85130509  72.29972661
3592.00 -207.06143369  72.41213127
3594.00 -207.27162997  72.52463950
3596.00 -207.48189386  72.63725130
3598.00 -207.69222531  72.74996670
3600.00 -207.90262425  72.86278572
3602.00 -208.11309060  72.97570836
3604.00 -208.32362432  73.08873465
3606.00 -208.53422532  73.20186459
3608.00 -208.74489355  73.31509822
3610.00 -208.95562895  73.42843554
3612.00 -209.16643144  73.54187657
3614.00 -209.37730096  73.65542133
3616.00 -209.58823745  73.76906982
3618.00 -209.79924085  73.88282208
3620.00 -210.01031108  73.99667811
3622.00 -210.22144808  74.11063793
3624.00 -210.43265179  74.22470155
3626.00 -210.64392214  74.33886900
3628.00 -210.85525906  74.45314028
3630.00 -211.06666250  74.56751541
3632.00 -211.27813239  74.68199442
3634.00 -211.48966866  74.79657730
3636.00 -211.70127125  74.91126409
3638.00 -211.91294008  75.02605479
3640.00 -212.12467511  75.14094941
3642.00 -212.33647626  75.25594799
3644.00 -212.54834347  75.37105052
3646.00 -212.76027666  75.48625703
3648.00 -212.97227579  75.60156753
3650.00 -213.18434078  75.71698204
3652.00 -213.39647157  75.83250057
3654.00 -213.60866809  75.94812313
3656.00 -213.82093028  76.06384975
3658.00 -214.03325807  76.17968043
3660.00 -214.24565140  76.29561520
3662.00 -214.45811020  76.41165405
3664.00 -214.67063441  76.52779703
3666.00 -214.88322397  76.64404412
3668.00 -215.09587881  76.76039536
3670.00 -215.30859885  76.87685075
3672.00 -215.52138405  76.99341031
3674.00 -215.73423433  77.11007406
3676.00 -215.94714964  77.22684200
3678.00 -216.16012989  77.34371416
3680.00 -216.37317504  77.46069054
3682.00 -216.58628501  77.57777117
3684.00 -216.79945974  77.69495605
3686.00 -217.01269917  77.81224521
3688.00 -217.22600322  77.92963865
3690.00 -217.43937185  78.04713639
3692.00 -217.65280497  78.16473844
3694.00 -217.86630253  78.28244482
3696.00 -218.07986446  78.40025554
3698.00 -218.29349070  78.51817062
3700.00 -218.50718118  78.63619007
3702.00 -218.72093583  78.75431390
3704.00 -218.93475460  78.87254212
3706.00 -219.14863742  78.99087476
3708.00 -219.36258422  79.10931183
3710.00 -219.57659494  79.22785333
3712.00 -219.79066951  79.34649928
3714.00 -220.00480786  79.46524971
3716.00 -220.21900995  79.58410461
3718.00 -220.43327569  79.70306400
3720.00 -220.64760503  79.82212790
3722.00 -220.86199789  79.94129632
3724.00 -221.07645422  80.06056928
3726.00 -221.29097395  80.17994678
3728.00 -221.50555702  80.29942884
3730.00 -221.72020336  80.41901547
3732.00 -221.93491290  80.53870669
3734.00 -222.14968559  80.65850251
3736.00 -222.36452135  80.77840295
3738.00 -222.57942013  80.89840801
3740.00 -222.79438185  81.01851771
3742.00 -223.00940646  81.13873206
3744.00 -223.22449388  81.25905108
3746.00 -223.43964406  81.37947477
3748.00 -223.65485693  81.50000315
3750.00 -223.87013242  81.62063624
3752.00 -224.08547047  81.74137405
3754.00 -224.30087102  81.86221658
3756.00 -224.51633400  81.98316386
3758.00 -224.73185934  82.10421588
3760.00 -224.94744699  82.22537268
3762.00 -225.16309687  82.34663426
3764.00 -225.37880893  82.46800062
3766.00 -225.59458309  82.58947179
3768.00 -225.81041930  82.71104778
3770.00 -226.02631748  82.83272860
3772.00 -226.24227758  82.95451425
3774.00 -226.45829953  83.07640476
3776.00 -226.67438327  83.19840014
3778.00 -226.89052873  83.32050039
3780.00 -227.10673584  83.44270554
3782.00 -227.32300454  83.56501558
3784.00 -227.53933477  83.68743054
3786.00 -227.75572647  83.80995043
3788.00 -227.97217956  83.93257525
3790.00 -228.18869399  84.05530502
3792.00 -228.40526969  84.17813975
3794.00 -228.62190659  84.30107946
3796.00 -228.83860463  84.42412415
3798.00 -229.05536375  84.54727384
3800.00 -229.27218388  84.67052853
3802.00 -229.48906496  84.79388825
3804.00 -229.70600692  84.91735299
3806.00 -229.92300969  85.04092278
3808.00 -230.14007323  85.16459762
3810.00 -230.35719745  85.28837753
3812.00 -230.57438230  85.41226252
3814.00 -230.79162771  85.53625259
3816.00 -231.00893361  85.66034776
3818.00 -231.22629995  85.78454805
3820.00 -231.44372666  85.90885345
3822.00 -231.66121367  86.03326399
3824.00 -231.87876092  86.15777967
3826.00 -232.09636834  86.28240051
3828.00 -232.31403588  86.40712651
3830.00 -232.53176346  86.53195769
3832.00 -232.74955102  86.65689406
3834.00 -232.96739850  86.78193562
3836.00 -233.18530584  86.90708240
3838.00 -233.40327296  87.03233440
3840.00 -233.62129981  87.15769162
3842.00 -233.83938632  87.28315409
3844.00 -234.05753242  87.40872181
3846.00 -234.27573806  87.53439479
3848.00 -234.49400317  87.66017305
3850.00 -234.71232768  87.78605659
3852.00 -234.93071153  87.91204542
3854.00 -235.14915466  88.03813956
3856.00 -235.36765699  88.16433902
3858.00 -235.58621848  88.29064379
3860.00 -235.80483905  88.41705391
3862.00 -236.02351863  88.54356937
3864.00 -236.24225717  88.67019018
3866.00 -236.46105460  88.79691636
3868.00 -236.67991086  88.92374792
3870.00 -236.89882588  89.05068486
3872.00 -237.11779960  89.17772720
3874.00 -237.33683195  89.30487494
3876.00 -237.55592287  89.43212810
3878.00 -237.77507230  89.55948669
3880.00 -237.99428017  89.68695071
3882.00 -238.21354642  89.81452018
3884.00 -238.43287098  89.94219510
3886.00 -238.65225379  90.06997548
3888.00 -238.87169479  90.19786134
3890.00 -239.09119390  90.32585268
3892.00 -239.31075108  90.45394952
3894.00 -239.53036625  90.58215185
3896.00 -239.75003935  90.71045970
3898.00 -239.96977031  90.83887308
3900.00 -240.18955908  90.96739198
3902.00 -240.40940558  91.09601642
3904.00 -240.62930976  91.22474641
3906.00 -240.84927154  91.35358196
3908.00 -241.06929088  91.48252308
3910.00 -241.28936769  91.61156977
3912.00 -241.50950192  91.74072205
3914.00 -241.72969351  91.86997992
3916.00 -241.94994238  91.99934340
3918.00 -242.17024849  92.12881249
3920.00 -242.39061175  92.25838720
3922.00 -242.61103211  92.38806754
3924.00 -242.83150951  92.51785353
3926.00 -243.05204388  92.64774516
3928.00 -243.27263516  92.77774244
3930.00 -243.49328327  92.90784539
3932.00 -243.71398817  93.03805402
3934.00 -243.93474978  93.16836832
3936.00 -244.15556805  93.29878832
3938.00 -244.37644290  93.42931402
3940.00 -244.59737428  93.55994543
3942.00 -244.81836212  93.69068255
3944.00 -245.03940635  93.82152539
3946.00 -245.26050691  93.95247397
3948.00 -245.48166375  94.08352829
3950.00 -245.70287679  94.21468836
3952.00 -245.92414597  94.34595419
3954.00 -246.14547123  94.47732578
3956.00 -246.36685251  94.60880315
3958.00 -246.58828973  94.74038630
3960.00 -246.80978284  94.87207524
3962.00 -247.03133178  95.00386997
3964.00 -247.25293647  95.13577051
3966.00 -247.47459686  95.26777687
3968.00 -247.69631289  95.39988904
3970.00 -247.91808448  95.53210705
3972.00 -248.13991158  95.66443089
3974.00 -248.36179411  95.79686057
3976.00 -248.58373203  95.92939611
3978.00 -248.80572526  96.06203751
3980.00 -249.02777374  96.19478477
3982.00 -249.24987741  96.32763791
3984.00 -249.47203620  96.46059693
3986.00 -249.69425005  96.59366185
3988.00 -249.91651890  96.72683265
3990.00 -250.13884268  96.86010936
3992.00 -250.36122133  96.99349199
3994.00 -250.58365479  97.12698053
3996.00 -250.80614299  97.26057500
3998.00 -251.02868587  97.39427540
4000.00 -251.25128336  97.52808174
4002.00 -251.47393541  97.66199403
4004.00 -251.69664195  97.79601227
4006.00 -251.91940291  97.93013647
4008.00 -252.14221823  98.06436664
4010.00 -252.36508786  98.19870279
4012.00 -252.58801171  98.33314492
4014.00 -252.81098974  98.46769303
4016.00 -253.03402188  98.60234714
4018.00 -253.25710806  98.73710726
4020.00 -253.48024823  98.87197338
4022.00 -253.70344231  99.00694552
4024.00 -253.92669025  99.14202368
4026.00 -254.14999198  99.27720786
4028.00 -254.37334744  99.41249809
4030.00 -254.59675657  99.54789435
4032.00 -254.82021929  99.68339666
4034.00 -255.04373556  99.81900503
4036.00 -255.26730530  99.95471945
4038.00 -255.49092845 100.09053994
4040.00 -255.71460496 100.22646651
4042.00 -255.93833475 100.36249915
4044.00 -256.16211776 100.49863788
4046.00 -256.38595393 100.63488270
4048.00 -256.60984320 100.77123362
4050.00 -256.83378550 100.90769064
4052.00 -257.05778077 101.04425377
4054.00 -257.28182895 101.18092302
4056.00 -257.50592997 101.31769838
4058.00 -257.73008377 101.45457987
4060.00 -257.95429029 101.59156750
4062.00 -258.17854947 101.72866126
4064.00 -258.40286124 101.86586117
4066.00 -258.62722553 102.00316723
4068.00 -258.85164229 102.14057944
4070.00 -259.07611146 102.27809782
4072.00 -259.30063296 102.41572236
4074.00 -259.52520674 102.55345307
4076.00 -259.74983273 102.69128996
4078.00 -259.97451087 102.82923303
4080.00 -260.19924110 102.96728229
4082.00 -260.42402336 103.10543774
4084.00 -260.64885757 103.24369939
4086.00 -260.87374369 103.38206725
4088.00 -261.09868164 103.52054132
4090.00 -261.32367136 103.65912160
4092.00 -261.54871280 103.79780809
4094.00 -261.77380588 103.93660082
4096.00 -261.99895054 104.07549977
4098.00 -262.22414673 104.21450495
4100.00 -262.44939437 104.35361638
4102.00 -262.67469342 104.49283405
4104.00 -262.90004379 104.63215797
4106.00 -263.12544543 104.77158814
4108.00 -263.35089828 104.91112457
4110.00 -263.57640228 105.05076726
4112.00 -263.80195735 105.19051623
4114.00 -264.02756345 105.33037146
4116.00 -264.25322050 105.47033297
4118.00 -264.47892845 105.61040076
4120.00 -264.70468723 105.75057484
4122.00 -264.93049677 105.89085521
4124.00 -265.15635702 106.03124188
4126.00 -265.38226791 106.17173484
4128.00 -265.60822939 106.31233411
4130.00 -265.83424138 106.45303968
4132.00 -266.06030382 106.59385157
4134.00 -266.28641666 106.73476977
4136.00 -266.51257983 106.87579430
4138.00 -266.73879326 107.01692514
4140.00 -266.96505690 107.15816232
4142.00 -267.19137069 107.29950583
4144.00 -267.41773455 107.44095568
4146.00 -267.64414842 107.58251186
4148.00 -267.87061226 107.72417439
4150.00 -268.09712598 107.86594327
4152.00 -268.32368953 108.00781851
4154.00 -268.55030285 108.14980009
4156.00 -268.77696588 108.29188804
4158.00 -269.00367855 108.43408235
4160.00 -269.23044079 108.57638303
4162.00 -269.45725256 108.71879008
4164.00 -269.68411377 108.86130350
4166.00 -269.91102438 109.00392330
4168.00 -270.13798433 109.14664948
4170.00 -270.36499353 109.28948205
4172.00 -270.59205195 109.43242100
4174.00 -270.81915950 109.57546634
4176.00 -271.04631614 109.71861808
4178.00 -271.27352180 109.86187622
4180.00 -271.50077641 110.00524076
4182.00 -271.72807991 110.14871170
4184.00 -271.95543225 110.29228905
4186.00 -272.18283336 110.43597281
4188.00 -272.41028317 110.57976299
4190.00 -272.63778163 110.72365958
4192.00 -272.86532867 110.86766259
4194.00 -273.09292423 111.01177202
4196.00 -273.32056825 111.15598788
4198.00 -273.54826066 111.30031017
4200.00 -273.77600141 111.44473888
4202.00 -274.00379043 111.58927404
4204.00 -274.23162766 111.73391562
4206.00 -274.45951304 111.87866365
4208.00 -274.68744651 112.02351812
4210.00 -274.91542799 112.16847903
4212.00 -275.14345744 112.31354639
4214.00 -275.37153479 112.45872020
4216.00 -275.59965997 112.60400047
4218.00 -275.82783293 112.74938718
4220.00 -276.05605361 112.89488035
4222.00 -276.28432193 113.04047999
4224.00 -276.51263785 113.18618608
4226.00 -276.74100129 113.33199864
4228.00 -276.96941220 113.47791766
4230.00 -277.19787051 113.62394315
4232.00 -277.42637616 113.77007511
4234.00 -277.65492909 113.91631355
4236.00 -277.88352924 114.06265846
4238.00 -278.11217654 114.20910984
4240.00 -278.34087094 114.35566771
4242.00 -278.56961237 114.50233205
4244.00 -278.79840078 114.64910288
4246.00 -279.02723609 114.79598019
4248.00 -279.25611824 114.94296398
4250.00 -279.48504719 115.09005427
4252.00 -279.71402285 115.23725104
4254.00 -279.94304518 115.38455430
4256.00 -280.17211411 115.53196406
4258.00 -280.40122957 115.67948031
4260.00 -280.63039151 115.82710306
4262.00 -280.85959987 115.97483230
4264.00 -281.08885458 116.12266805
4266.00 -281.31815558 116.27061029
4268.00 -281.54750281 116.41865904
4270.00 -281.77689621 116.56681429
4272.00 -282.00633572 116.71507604
4274.00 -282.23582127 116.86344430
4276.00 -282.46535280 117.01191907
4278.00 -282.69493026 117.16050034
4280.00 -282.92455357 117.30918813
4282.00 -283.15422269 117.45798242
4284.00 -283.38393754 117.60688323
4286.00 -283.61369807 117.75589054
4288.00 -283.84350421 117.90500438
4290.00 -284.07335590 118.05422472
4292.00 -284.30325309 118.20355159
4294.00 -284.53319571 118.35298496
4296.00 -284.76318369 118.50252486
4298.00 -284.99321698 118.65217127
4300.00 -285.22329552 118.80192421
4302.00 -285.45341924 118.95178366
4304.00 -285.68358809 119.10174963
4306.00 -285.91380199 119.25182212
4308.00 -286.14406090 119.40200114
4310.00 -286.37436475 119.55228668
4312.00 -286.60471347 119.70267873
4314.00 -286.83510701 119.85317732
4316.00 -287.06554531 120.00378242
4318.00 -287.29602830 120.15449405
4320.00 -287.52655592 120.30531220
4322.00 -287.75712812 120.45623688
4324.00 -287.98774482 120.60726808
4326.00 -288.21840597 120.75840581
4328.00 -288.44911152 120.90965006
4330.00 -288.67986139 121.06100084
4332.00 -288.91065552 121.21245814
4334.00 -289.14149386 121.36402197
4336.00 -289.37237634 121.51569232
4338.00 -289.60330291 121.66746920
4340.00 -289.83427350 121.81935260
4342.00 -290.06528804 121.97134253
4344.00 -290.29634649 122.12343898
4346.00 -290.52744878 122.27564196
4348.00 -290.75859484 122.42795147
4350.00 -290.98978462 122.58036750
4352.00 -291.22101805 122.73289005
4354.00 -291.45229508 122.88551913
4356.00 -291.68361565 123.03825473
4358.00 -291.91497968 123.19109685
4360.00 -292.14638713 123.34404550
4362.00 -292.37783793 123.49710067
4364.00 -292.60933202 123.65026236
4366.00 -292.84086934 123.80353057
4368.00 -293.07244982 123.95690530
4370.00 -293.30407342 124.11038655
4372.00 -293.53574006 124.26397433
4374.00 -293.76744969 124.41766862
4376.00 -293.99920224 124.57146942
4378.00 -294.23099766 124.72537675
4380.00 -294.46283588 124.87939059
4382.00 -294.69471684 125.03351094
4384.00 -294.92664049 125.18773782
4386.00 -295.15860676 125.34207120
4388.00 -295.39061559 125.49651109
4390.00 -295.62266692 125.65105750
4392.00 -295.85476069 125.80571042
4394.00 -296.08689684 125.96046985
4396.00 -296.31907531 126.11533578
4398.00 -296.55129603 126.27030822
4400.00 -296.78355896 126.42538717
4402.00 -297.01586402 126.58057262
4404.00 -297.24821115 126.73586458
4406.00 -297.48060031 126.89126303
4408.00 -297.71303142 127.04676799
4410.00 -297.94550442 127.20237945
4412.00 -298.17801926 127.35809740
4414.00 -298.41057587 127.51392185
4416.00 -298.64317420 127.66985279
4418.00 -298.87581418 127.82589023
4420.00 -299.10849575 127.98203415
4422.00 -299.34121886 128.13828457
4424.00 -299.57398344 128.29464148
4426.00 -299.80678943 128.45110487
4428.00 -300.03963677 128.60767474
4430.00 -300.27252541 128.76435110
4432.00 -300.50545527 128.92113394
4434.00 -300.73842631 129.07802325
4436.00 -300.97143845 129.23501905
4438.00 -301.20449165 129.39212131
4440.00 -301.43758584 129.54933006
4442.00 -301.67072096 129.70664527
4444.00 -301.90389694 129.86406695
4446.00 -302.13711374 130.02159510
4448.00 -302.37037129 130.17922971
4450.00 -302.60366953 130.33697078
4452.00 -302.83700839 130.49481832
4454.00 -303.07038783 130.65277231
4456.00 -303.30380777 130.81083275
4458.00 -303.53726817 130.96899965
4460.00 -303.77076895 131.12727301
4462.00 -304.00431006 131.28565280
4464.00 -304.23789145 131.44413905
4466.00 -304.47151304 131.60273174
4468.00 -304.70517478 131.76143087
4470.00 -304.93887661 131.92023643
4472.00 -305.17261847 132.07914844
4474.00 -305.40640030 132.23816687
4476.00 -305.64022204 132.39729174
4478.00 -305.87408363 132.55652303
4480.00 -306.10798501 132.71586075
4482.00 -306.34192612 132.87530489
4484.00 -306.57590690 133.03485545
4486.00 -306.80992729 133.19451243
4488.00 -307.04398723 133.35427581
4490.00 -307.27808666 133.51414561
4492.00 -307.51222553 133.67412182
4494.00 -307.74640377 133.83420443
4496.00 -307.98062131 133.99439344
4498.00 -308.21487812 134.15468885
4500.00 -308.44917411 134.31509066
4502.00 -308.68350924 134.47559885
4504.00 -308.91788344 134.63621344
4506.00 -309.15229665 134.79693441
4508.00 -309.38674882 134.95776176
4510.00 -309.62123988 135.11869549
4512.00 -309.85576978 135.27973560
4514.00 -310.09033846 135.44088208
4516.00 -310.32494585 135.60213493
4518.00 -310.55959190 135.76349414
4520.00 -310.79427654 135.92495971
4522.00 -311.02899973 136.08653164
4524.00 -311.26376139 136.24820993
4526.00 -311.49856147 136.40999456
4528.00 -311.73339991 136.57188555
4530.00 -311.96827665 136.73388287
4532.00 -312.20319163 136.89598654
4534.00 -312.43814479 137.05819654
4536.00 -312.67313608 137.22051287
4538.00 -312.90816542 137.38293554
4540.00 -313.14323278 137.54546452
4542.00 -313.37833807 137.70809983
4544.00 -313.61348125 137.87084145
4546.00 -313.84866226 138.03368939
4548.00 -314.08388104 138.19664363
4550.00 -314.31913752 138.35970418
4552.00 -314.55443165 138.52287102
4554.00 -314.78976337 138.68614417
4556.00 -315.02513262 138.84952360
4558.00 -315.26053934 139.01300933
4560.00 -315.49598347 139.17660133
4562.00 -315.73146495 139.34029962
4564.00 -315.96698373 139.50410418
4566.00 -316.20253975 139.66801501
4568.00 -316.43813294 139.83203210
4570.00 -316.67376325 139.99615546
4572.00 -316.90943061 140.16038507
4574.00 -317.14513497 140.32472094
4576.00 -317.38087628 140.48916305
4578.00 -317.61665446 140.65371141
4580.00 -317.85246947 140.81836601
4582.00 -318.08832124 140.98312684
4584.00 -318.32420972 141.14799389
4586.00 -318.56013484 141.31296718
4588.00 -318.79609655 141.47804668
4590.00 -319.03209478 141.64323240
4592.00 -319.26812949 141.80852433
4594.00 -319.50420060 141.97392246
4596.00 -319.74030807 142.13942680
4598.00 -319.97645183 142.30503732
4600.00 -320.21263182 142.47075404
4602.00 -320.44884799 142.63657695
4604.00 -320.68510028 142.80250603
4606.00 -320.92138863 142.96854129
4608.00 -321.15771297 143.13468272
4610.00 -321.39407326 143.30093032
4612.00 -321.63046943 143.46728407
4614.00 -321.86690143 143.63374398
4616.00 -322.10336918 143.80031004
4618.00 -322.33987265 143.96698224
4620.00 -322.57641177 144.13376058
4622.00 -322.81298647 144.30064506
4624.00 -323.04959671 144.46763566
4626.00 -323.28624242 144.63473238
4628.00 -323.52292354 144.80193522
4630.00 -323.75964002 144.96924417
4632.00 -323.99639180 145.13665923
4634.00 -324.23317882 145.30418039
4636.00 -324.47000102 145.47180764
4638.00 -324.70685834 145.63954098
4640.00 -324.94375073 145.80738040
4642.00 -325.18067813 145.97532590
4644.00 -325.41764047 146.14337747
4646.00 -325.65463770 146.31153511
4648.00 -325.89166977 146.47979880
4650.00 -326.12873660 146.64816855
4652.00 -326.36583816 146.81664435
4654.00 -326.60297437 146.98522619
4656.00 -326.84014518 147.15391407
4658.00 -327.07735053 147.32270797
4660.00 -327.31459036 147.49160790
4662.00 -327.55186462 147.66061385
4664.00 -327.78917324 147.82972581
4666.00 -328.02651617 147.99894378
4668.00 -328.26389336 148.16826774
4670.00 -328.50130474 148.33769770
4672.00 -328.73875025 148.50723364
4674.00 -328.97622984 148.67687557
4676.00 -329.21374344 148.84662347
4678.00 -329.45129101 149.01647733
4680.00 -329.68887248 149.18643716
4682.00 -329.92648780 149.35650294
4684.00 -330.16413690 149.52667467
4686.00 -330.40181973 149.69695235
4688.00 -330.63953624 149.86733596
4690.00 -330.87728636 150.03782549
4692.00 -331.11507003 150.20842095
4694.00 -331.35288721 150.37912233
4696.00 -331.59073782 150.54992961
4698.00 -331.82862182 150.72084279
4700.00 -332.06653914 150.89186187
4702.00 -332.30448973 151.06298684
4704.00 -332.54247353 151.23421769
4706.00 -332.78049048 151.40555442
4708.00 -333.01854053 151.57699701
4710.00 -333.25662362 151.74854547
4712.00 -333.49473968 151.92019977
4714.00 -333.73288867 152.09195993
4716.00 -333.97107052 152.26382592
4718.00 -334.20928518 152.43579775
4720.00 -334.44753259 152.60787540
4722.00 -334.68581269 152.78005887
4724.00 -334.92412542 152.95234816
4726.00 -335.16247073 153.12474324
4728.00 -335.40084857 153.29724413
4730.00 -335.63925886 153.46985080
4732.00 -335.87770156 153.64256326
4734.00 -336.11617661 153.81538149
4736.00 -336.35468395 153.98830548
4738.00 -336.59322352 154.16133524
4740.00 -336.83179527 154.33447075
4742.00 -337.07039914 154.50771201
4744.00 -337.30903507 154.68105900
4746.00 -337.54770300 154.85451173
4748.00 -337.78640288 155.02807017
4750.00 -338.02513465 155.20173433
4752.00 -338.26389825 155.37550420
4754.00 -338.50269363 155.54937977
4756.00 -338.74152073 155.72336103
4758.00 -338.98037949 155.89744797
4760.00 -339.21926986 156.07164059
4762.00 -339.45819177 156.24593888
4764.00 -339.69714517 156.42034283
4766.00 -339.93613001 156.59485243
4768.00 -340.17514622 156.76946768
4770.00 -340.41419376 156.94418856
4772.00 -340.65327255 157.11901507
4774.00 -340.89238255 157.29394720
4776.00 -341.13152370 157.46898495
4778.00 -341.37069595 157.64412830
4780.00 -341.60989923 157.81937724
4782.00 -341.84913348 157.99473178
4784.00 -342.08839866 158.17019189
4786.00 -342.32769471 158.34575758
4788.00 -342.56702156 158.52142883
4790.00 -342.80637916 158.69720563
4792.00 -343.04576746 158.87308798
4794.00 -343.28518640 159.04907587
4796.00 -343.52463591 159.22516929
4798.00 -343.76411596 159.40136823
4800.00 -344.00362647 159.57767269
4802.00 -344.24316739 159.75408265
4804.00 -344.48273867 159.93059811
4806.00 -344.72234025 160.10721905
4808.00 -344.96197206 160.28394547
4810.00 -345.20163407 160.46077736
4812.00 -345.44132620 160.63771472
4814.00 -345.68104840 160.81475753
4816.00 -345.92080063 160.99190578
4818.00 -346.16058281 161.16915947
4820.00 -346.40039489 161.34651858
4822.00 -346.64023682 161.52398311
4824.00 -346.88010854 161.70155306
4826.00 -347.12001000 161.87922840
4828.00 -347.35994113 162.05700913
4830.00 -347.59990189 162.23489524
4832.00 -347.83989221 162.41288673
4834.00 -348.07991204 162.59098359
4836.00 -348.31996132 162.76918579
4838.00 -348.56004000 162.94749335
4840.00 -348.80014802 163.12590624
4842.00 -349.04028532 163.30442446
4844.00 -349.28045185 163.48304799
4846.00 -349.52064756 163.66177684
4848.00 -349.76087238 163.84061098
4850.00 -350.00112626 164.01955042
4852.00 -350.24140914 164.19859514
4854.00 -350.48172097 164.37774513
4856.00 -350.72206169 164.55700038
4858.00 -350.96243125 164.73636089
4860.00 -351.20282959 164.91582664
4862.00 -351.44325665 165.09539763
4864.00 -351.68371238 165.27507384
4866.00 -351.92419673 165.45485526
4868.00 -352.16470963 165.63474189
4870.00 -352.40525103 165.81473372
4872.00 -352.64582087 165.99483073
4874.00 -352.88641910 166.17503292
4876.00 -353.12704567 166.35534028
4878.00 -353.36770051 166.53575279
4880.00 -353.60838358 166.71627045
4882.00 -353.84909481 166.89689325
4884.00 -354.08983415 167.07762118
4886.00 -354.33060155 167.25845423
4888.00 -354.57139694 167.43939238
4890.00 -354.81222028 167.62043563
4892.00 -355.05307150 167.80158397
4894.00 -355.29395056 167.98283739
4896.00 -355.53485740 168.16419588
4898.00 -355.77579195 168.34565942
4900.00 -356.01675417 168.52722801
4902.00 -356.25774400 168.70890164
4904.00 -356.49876139 168.89068030
4906.00 -356.73980627 169.07256398
4908.00 -356.98087860 169.25455266
4910.00 -357.22197831 169.43664634
4912.00 -357.46310536 169.61884500
4914.00 -357.70425969 169.80114865
4916.00 -357.94544124 169.98355726
4918.00 -358.18664995 170.16607082
4920.00 -358.42788578 170.34868933
4922.00 -358.66914866 170.53141277
4924.00 -358.91043855 170.71424114
4926.00 -359.15175538 170.89717443
4928.00 -359.39309910 171.08021261
4930.00 -359.63446965 171.26335569
4932.00 -359.87586699 171.44660365
4934.00 -360.11729105 171.62995649
4936.00 -360.35874179 171.81341418
4938.00 -360.60021913 171.99697672
4940.00 -360.84172304 172.18064411
4942.00 -361.08325346 172.36441632
4944.00 -361.32481032 172.54829335
4946.00 -361.56639358 172.73227518
4948.00 -361.80800317 172.91636182
4950.00 -362.04963906 173.10055323
4952.00 -362.29130117 173.28484943
4954.00 -362.53298946 173.46925038
4956.00 -362.77470387 173.65375609
4958.00 -363.01644434 173.83836654
4960.00 -363.25821083 174.02308172
4962.00 -363.50000327 174.20790162
4964.00 -363.74182161 174.39282623
4966.00 -363.98366580 174.57785553
4968.00 -364.22553579 174.76298952
4970.00 -364.46743150 174.94822819
4972.00 -364.70935290 175.13357152
4974.00 -364.95129993 175.31901950
4976.00 -365.19327253 175.50457212
4978.00 -365.43527066 175.69022937
4980.00 -365.67729424 175.87599124
4982.00 -365.91934323 176.06185772
4984.00 -366.16141758 176.24782879
4986.00 -366.40351723 176.43390445
4988.00 -366.64564212 176.62008468
4990.00 -366.88779221 176.80636947
4992.00 -367.12996743 176.99275881
4994.00 -367.37216773 177.17925269
4996.00 -367.61439307 177.36585109
4998.00 -367.85664337 177.55255401
5000.00 -368.09891860 177.73936143
