wavelength(nm)         real         imag
100.00   3.73494991   0.00157720
102.00   3.72828252   0.00167373
104.00   3.72148316   0.00177413
106.00   3.71455181   0.00187845
108.00   3.70748850   0.00198679
110.00   3.70029322   0.00209922
112.00   3.69296598   0.00221581
114.00   3.68550677   0.00233663
116.00   3.67791561   0.00246177
118.00   3.67019249   0.00259130
120.00   3.66233742   0.00272530
122.00   3.65435040   0.00286383
124.00   3.64623144   0.00300699
126.00   3.63798054   0.00315483
128.00   3.62959770   0.00330744
130.00   3.62108292   0.00346490
132.00   3.61243622   0.00362727
134.00   3.60365759   0.00379464
136.00   3.59474704   0.00396708
138.00   3.58570457   0.00414466
140.00   3.57653018   0.00432747
142.00   3.56722389   0.00451557
144.00   3.55778568   0.00470904
146.00   3.54821558   0.00490796
148.00   3.53851358   0.00511241
150.00   3.52867968   0.00532245
152.00   3.51871390   0.00553817
154.00   3.50861623   0.00575964
156.00   3.49838668   0.00598694
158.00   3.48802525   0.00622013
160.00   3.47753195   0.00645930
162.00   3.46690679   0.00670453
164.00   3.45614976   0.00695588
166.00   3.44526087   0.00721344
168.00   3.43424013   0.00747727
170.00   3.42308755   0.00774746
172.00   3.41180312   0.00802408
174.00   3.40038685   0.00830721
176.00   3.38883875   0.00859691
178.00   3.37715882   0.00889328
180.00   3.36534707   0.00919637
182.00   3.35340350   0.00950627
184.00   3.34132811   0.00982305
186.00   3.32912092   0.01014680
188.00   3.31678193   0.01047757
190.00   3.30431114   0.01081546
192.00   3.29170856   0.01116053
194.00   3.27897420   0.01151286
196.00   3.26610805   0.01187253
198.00   3.25311013   0.01223961
200.00   3.23998044   0.01261417
202.00   3.22671899   0.01299630
204.00   3.21332578   0.01338606
206.00   3.19980082   0.01378354
208.00   3.18614412   0.01418880
210.00   3.17235567   0.01460193
212.00   3.15843549   0.01502300
214.00   3.14438359   0.01545209
216.00   3.13019996   0.01588926
218.00   3.11588462   0.01633460
220.00   3.10143757   0.01678818
222.00   3.08685881   0.01725007
224.00   3.07214837   0.01772036
226.00   3.05730623   0.01819911
228.00   3.04233241   0.01868641
230.00   3.02722691   0.01918232
232.00   3.01198974   0.01968693
234.00   2.99662091   0.02020030
236.00   2.98112042   0.02072252
238.00   2.96548829   0.02125366
240.00   2.94972451   0.02179379
242.00   2.93382909   0.02234299
244.00   2.91780205   0.02290133
246.00   2.90164338   0.02346890
248.00   2.88535310   0.02404576
250.00   2.86893121   0.02463199
252.00   2.85237772   0.02522767
254.00   2.83569264   0.02583287
256.00   2.81887597   0.02644767
258.00   2.80192772   0.02707214
260.00   2.78484790   0.02770635
262.00   2.76763652   0.02835039
264.00   2.75029358   0.02900433
266.00   2.73281909   0.02966824
268.00   2.71521306   0.03034219
270.00   2.69747550   0.03102627
272.00   2.67960641   0.03172055
274.00   2.66160580   0.03242511
276.00   2.64347369   0.03314001
278.00   2.62521007   0.03386533
280.00   2.60681496   0.03460116
282.00   2.58828836   0.03534756
284.00   2.56963029   0.03610461
286.00   2.55084074   0.03687238
288.00   2.53191974   0.03765096
290.00   2.51286728   0.03844040
292.00   2.49368337   0.03924080
294.00   2.47436803   0.04005223
296.00   2.45492126   0.04087475
298.00   2.43534308   0.04170846
300.00   2.41563348   0.04255341
302.00   2.39579248   0.04340968
304.00   2.37582008   0.04427736
306.00   2.35571630   0.04515652
308.00   2.33548115   0.04604722
310.00   2.31511462   0.04694956
312.00   2.29461674   0.04786359
314.00   2.27398751   0.04878940
316.00   2.25322694   0.04972706
318.00   2.23233504   0.05067665
320.00   2.21131181   0.05163823
322.00   2.19015727   0.05261190
324.00   2.16887143   0.05359771
326.00   2.14745430   0.05459576
328.00   2.12590588   0.05560610
330.00   2.10422618   0.05662882
332.00   2.08241522   0.05766399
334.00   2.06047300   0.05871169
336.00   2.03839953   0.05977199
338.00   2.01619483   0.06084496
340.00   1.99385889   0.06193069
342.00   1.97139174   0.06302924
344.00   1.94879339   0.06414069
346.00   1.92606383   0.06526512
348.00   1.90320309   0.06640260
350.00   1.88021116   0.06755320
352.00   1.85708807   0.06871701
354.00   1.83383382   0.06989409
356.00   1.81044843   0.07108452
358.00   1.78693189   0.07228837
360.00   1.76328423   0.07350573
362.00   1.73950545   0.07473666
364.00   1.71559556   0.07598124
366.00   1.69155458   0.07723954
368.00   1.66738251   0.07851164
370.00   1.64307937   0.07979762
372.00   1.61864516   0.08109755
374.00   1.59407989   0.08241149
376.00   1.56938359   0.08373954
378.00   1.54455625   0.08508176
380.00   1.51959789   0.08643823
382.00   1.49450851   0.08780902
384.00   1.46928814   0.08919420
386.00   1.44393678   0.09059386
388.00   1.41845444   0.09200807
390.00   1.39284114   0.09343689
392.00   1.36709688   0.09488042
394.00   1.34122168   0.09633871
396.00   1.31521554   0.09781185
398.00   1.28907848   0.09929990
400.00   1.26281051   0.10080295
402.00   1.23641164   0.10232108
404.00   1.20988189   0.10385434
406.00   1.18322126   0.10540282
408.00   1.15642976   0.10696660
410.00   1.12950741   0.10854574
412.00   1.10245423   0.11014032
414.00   1.07527021   0.11175043
416.00   1.04795538   0.11337612
418.00   1.02050974   0.11501748
420.00   0.99293331   0.11667457
422.00   0.96522609   0.11834749
424.00   0.93738811   0.12003629
426.00   0.90941937   0.12174105
428.00   0.88131989   0.12346185
430.00   0.85308968   0.12519877
432.00   0.82472874   0.12695187
434.00   0.79623710   0.12872124
436.00   0.76761476   0.13050694
438.00   0.73886174   0.13230905
440.00   0.70997805   0.13412764
442.00   0.68096370   0.13596279
444.00   0.65181871   0.13781458
446.00   0.62254308   0.13968307
448.00   0.59313684   0.14156835
450.00   0.56359999   0.14347048
452.00   0.53393254   0.14538955
454.00   0.50413452   0.14732562
456.00   0.47420592   0.14927876
458.00   0.44414677   0.15124907
460.00   0.41395708   0.15323660
462.00   0.38363686   0.15524143
464.00   0.35318613   0.15726364
466.00   0.32260489   0.15930330
468.00   0.29189317   0.16136048
470.00   0.26105097   0.16343526
472.00   0.23007830   0.16552772
474.00   0.19897519   0.16763792
476.00   0.16774165   0.16976595
478.00   0.13637768   0.17191187
480.00   0.10488330   0.17407576
482.00   0.07325854   0.17625770
484.00   0.04150339   0.17845775
486.00   0.00961787   0.18067600
488.00  -0.02239800   0.18291251
490.00  -0.05454420   0.18516737
492.00  -0.08682073   0.18744063
494.00  -0.11922757   0.18973239
496.00  -0.15176471   0.19204271
498.00  -0.18443213   0.19437167
500.00  -0.21722982   0.19671933
502.00  -0.25015776   0.19908579
504.00  -0.28321594   0.20147110
506.00  -0.31640434   0.20387534
508.00  -0.34972296   0.20629859
510.00  -0.38317177   0.20874092
512.00  -0.41675077   0.21120241
514.00  -0.45045993   0.21368312
516.00  -0.48429924   0.21618314
518.00  -0.51826869   0.21870253
520.00  -0.55236826   0.22124138
522.00  -0.58659794   0.22379975
524.00  -0.62095771   0.22637771
526.00  -0.65544756   0.22897535
528.00  -0.69006748   0.23159273
530.00  -0.72481744   0.23422993
532.00  -0.75969743   0.23688703
534.00  -0.79470744   0.23956409
536.00  -0.82984746   0.24226120
538.00  -0.86511746   0.24497841
540.00  -0.90051743   0.24771582
542.00  -0.93604736   0.25047349
544.00  -0.97170723   0.25325149
546.00  -1.00749703   0.25604991
548.00  -1.04341673   0.25886880
550.00  -1.07946633   0.26170826
552.00  -1.11564581   0.26456834
554.00  -1.15195515   0.26744913
556.00  -1.18839434   0.27035069
558.00  -1.22496336   0.27327311
560.00  -1.26166220   0.27621645
562.00  -1.29849083   0.27918079
564.00  -1.33544925   0.28216620
566.00  -1.37253743   0.28517276
568.00  -1.40975537   0.28820053
570.00  -1.44710304   0.29124960
572.00  -1.48458043   0.29432004
574.00  -1.52218752   0.29741191
576.00  -1.55992430   0.30052530
578.00  -1.59779075   0.30366027
580.00  -1.63578685   0.30681691
582.00  -1.67391259   0.30999527
584.00  -1.71216795   0.31319545
586.00  -1.75055291   0.31641750
588.00  -1.78906746   0.31966151
590.00  -1.82771158   0.32292754
592.00  -1.86648525   0.32621568
594.00  -1.90538846   0.32952598
596.00  -1.94442119   0.33285854
598.00  -1.98358343   0.33621341
600.00  -2.02287514   0.33959068
602.00  -2.06229633   0.34299041
604.00  -2.10184697   0.34641269
606.00  -2.14152704   0.34985758
608.00  -2.18133653   0.35332515
610.00  -2.22127543   0.35681548
612.00  -2.26134370   0.36032865
614.00  -2.30154134   0.36386472
616.00  -2.34186832   0.36742377
618.00  -2.38232464   0.37100587
620.00  -2.42291027   0.37461110
622.00  -2.46362520   0.37823953
624.00  -2.50446940   0.38189122
626.00  -2.54544286   0.38556627
628.00  -2.58654557   0.38926473
630.00  -2.62777749   0.39298668
632.00  -2.66913863   0.39673219
634.00  -2.71062895   0.40050134
636.00  -2.75224845   0.40429420
638.00  -2.79399709   0.40811084
640.00  -2.83587488   0.41195134
642.00  -2.87788177   0.41581577
644.00  -2.92001777   0.41970419
646.00  -2.96228284   0.42361669
648.00  -3.00467698   0.42755334
650.00  -3.04720016   0.43151421
652.00  -3.08985236   0.43549937
654.00  -3.13263357   0.43950890
656.00  -3.17554377   0.44354286
658.00  -3.21858293   0.44760134
660.00  -3.26175105   0.45168440
662.00  -3.30504810   0.45579211
664.00  -3.34847406   0.45992456
666.00  -3.39202892   0.46408181
668.00  -3.43571265   0.46826393
670.00  -3.47952523   0.47247100
672.00  -3.52346666   0.47670309
674.00  -3.56753690   0.48096028
676.00  -3.61173594   0.48524262
678.00  -3.65606376   0.48955021
680.00  -3.70052035   0.49388311
682.00  -3.74510567   0.49824139
684.00  -3.78981972   0.50262512
686.00  -3.83466247   0.50703439
688.00  -3.87963390   0.51146925
690.00  -3.92473400   0.51592979
692.00  -3.96996274   0.52041608
694.00  -4.01532011   0.52492818
696.00  -4.06080608   0.52946617
698.00  -4.10642064   0.53403013
700.00  -4.15216377   0.53862012
702.00  -4.19803544   0.54323622
704.00  -4.24403564   0.54787850
706.00  -4.29016434   0.55254703
708.00  -4.33642153   0.55724189
710.00  -4.38280719   0.56196314
712.00  -4.42932129   0.56671087
714.00  -4.47596382   0.57148514
716.00  -4.52273476   0.57628602
718.00  -4.56963408   0.58111358
720.00  -4.61666177   0.58596791
722.00  -4.66381780   0.59084906
724.00  -4.71110216   0.59575712
726.00  -4.75851483   0.60069215
728.00  -4.80605578   0.60565423
730.00  -4.85372499   0.61064343
732.00  -4.90152244   0.61565983
734.00  -4.94944812   0.62070348
736.00  -4.99750200   0.62577447
738.00  -5.04568406   0.63087287
740.00  -5.09399428   0.63599875
742.00  -5.14243264   0.64115218
744.00  -5.19099911   0.64633323
746.00  -5.23969369   0.65154198
748.00  -5.28851634   0.65677849
750.00  -5.33746705   0.66204285
752.00  -5.38654579   0.66733512
754.00  -5.43575254   0.67265537
756.00  -5.48508729   0.67800367
758.00  -5.53455000   0.68338010
760.00  -5.58414067   0.68878473
762.00  -5.63385926   0.69421764
764.00  -5.68370576   0.69967888
766.00  -5.73368014   0.70516854
768.00  -5.78378239   0.71068668
770.00  -5.83401248   0.71623338
772.00  -5.88437039   0.72180871
774.00  -5.93485610   0.72741274
776.00  -5.98546958   0.73304555
778.00  -6.03621082   0.73870719
780.00  -6.08707979   0.74439776
782.00  -6.13807647   0.75011731
784.00  -6.18920084   0.75586592
786.00  -6.24045288   0.76164366
788.00  -6.29183256   0.76745060
790.00  -6.34333987   0.77328682
792.00  -6.39497477   0.77915238
794.00  -6.44673725   0.78504736
796.00  -6.49862729   0.79097183
798.00  -6.55064487   0.79692585
800.00  -6.60278995   0.80290951
802.00  -6.65506252   0.80892287
804.00  -6.70746256   0.81496600
806.00  -6.75999004   0.82103898
808.00  -6.81264495   0.82714187
810.00  -6.86542725   0.83327475
812.00  -6.91833692   0.83943769
814.00  -6.97137395   0.84563076
816.00  -7.02453831   0.85185403
818.00  -7.07782998   0.85810758
820.00  -7.13124893   0.86439147
822.00  -7.18479514   0.87070577
824.00  -7.23846859   0.87705056
826.00  -7.29226925   0.88342591
828.00  -7.34619711   0.88983188
830.00  -7.40025214   0.89626856
832.00  -7.45443431   0.90273600
834.00  -7.50874360   0.90923429
836.00  -7.56317999   0.91576349
838.00  -7.61774346   0.92232367
840.00  -7.67243398   0.92891491
842.00  -7.72725152   0.93553727
844.00  -7.78219607   0.94219083
846.00  -7.83726761   0.94887565
848.00  -7.89246610   0.95559182
850.00  -7.94779152   0.96233939
852.00  -8.00324386   0.96911844
854.00  -8.05882308   0.97592905
856.00  -8.11452916   0.98277128
858.00  -8.17036208   0.98964519
860.00  -8.22632181   0.99655087
862.00  -8.28240834   1.00348839
864.00  -8.33862163   1.01045781
866.00  -8.39496166   1.01745920
868.00  -8.45142842   1.02449264
870.00  -8.50802186   1.03155820
872.00  -8.56474198   1.03865595
874.00  -8.62158874   1.04578595
876.00  -8.67856212   1.05294828
878.00  -8.73566209   1.06014301
880.00  -8.79288864   1.06737021
882.00  -8.85024173   1.07462994
884.00  -8.90772135   1.08192229
886.00  -8.96532747   1.08924732
888.00  -9.02306006   1.09660510
890.00  -9.08091909   1.10399570
892.00  -9.13890455   1.11141920
894.00  -9.19701641   1.11887565
896.00  -9.25525464   1.12636514
898.00  -9.31361922   1.13388774
900.00  -9.37211013   1.14144350
902.00  -9.43072733   1.14903251
904.00  -9.48947081   1.15665483
906.00  -9.54834054   1.16431054
908.00  -9.60733648   1.17199970
910.00  -9.66645863   1.17972239
912.00  -9.72570695   1.18747867
914.00  -9.78508142   1.19526861
916.00  -9.84458200   1.20309229
918.00  -9.90420869   1.21094978
920.00  -9.96396144   1.21884114
922.00 -10.02384024   1.22676644
924.00 -10.08384506   1.23472576
926.00 -10.14397587   1.24271916
928.00 -10.20423265   1.25074672
930.00 -10.26461537   1.25880851
932.00 -10.32512401   1.26690458
934.00 -10.38575854   1.27503503
936.00 -10.44651894   1.28319990
938.00 -10.50740517   1.29139929
940.00 -10.56841721   1.29963324
942.00 -10.62955504   1.30790184
944.00 -10.69081863   1.31620515
946.00 -10.75220796   1.32454325
948.00 -10.81372299   1.33291620
950.00 -10.87536370   1.34132407
952.00 -10.93713007   1.34976694
954.00 -10.99902207   1.35824487
956.00 -11.06103967   1.36675792
958.00 -11.12318285   1.37530618
960.00 -11.18545157   1.38388972
962.00 -11.24784582   1.39250859
964.00 -11.31036556   1.40116287
966.00 -11.37301077   1.40985263
968.00 -11.43578142   1.41857794
970.00 -11.49867749   1.42733887
972.00 -11.56169895   1.43613548
974.00 -11.62484577   1.44496785
976.00 -11.68811792   1.45383605
978.00 -11.75151539   1.46274015
980.00 -11.81503813   1.47168021
982.00 -11.87868612   1.48065630
984.00 -11.94245935   1.48966850
986.00 -12.00635777   1.49871687
988.00 -12.07038136   1.50780148
990.00 -12.13453010   1.51692240
992.00 -12.19880395   1.52607971
994.00 -12.26320290   1.53527346
996.00 -12.32772690   1.54450373
998.00 -12.39237594   1.55377059
1000.00 -12.45714999   1.56307411
1002.00 -12.52204902   1.57241435
1004.00 -12.58707300   1.58179139
1006.00 -12.65222190   1.59120529
1008.00 -12.71749570   1.60065613
1010.00 -12.78289437   1.61014396
1012.00 -12.84841788   1.61966887
1014.00 -12.91406620   1.62923091
1016.00 -12.97983931   1.63883017
1018.00 -13.04573717   1.64846670
1020.00 -13.11175976   1.65814057
1022.00 -13.17790706   1.66785187
1024.00 -13.24417902   1.67760064
1026.00 -13.31057563   1.68738697
1028.00 -13.37709685   1.69721092
1030.00 -13.44374267   1.70707255
1032.00 -13.51051304   1.71697195
1034.00 -13.57740794   1.72690917
1036.00 -13.64442734   1.73688429
1038.00 -13.71157122   1.74689737
1040.00 -13.77883954   1.75694848
1042.00 -13.84623228   1.76703770
1044.00 -13.91374941   1.77716508
1046.00 -13.98139089   1.78733070
1048.00 -14.04915671   1.79753463
1050.00 -14.11704682   1.80777693
1052.00 -14.18506121   1.81805768
1054.00 -14.25319985   1.82837693
1056.00 -14.32146269   1.83873477
1058.00 -14.38984973   1.84913125
1060.00 -14.45836092   1.85956645
1062.00 -14.52699624   1.87004044
1064.00 -14.59575565   1.88055327
1066.00 -14.66463914   1.89110503
1068.00 -14.73364666   1.90169578
1070.00 -14.80277820   1.91232558
1072.00 -14.87203371   1.92299451
1074.00 -14.94141318   1.93370263
1076.00 -15.01091657   1.94445002
1078.00 -15.08054385   1.95523673
1080.00 -15.15029500   1.96606284
1082.00 -15.22016998   1.97692841
1084.00 -15.29016876   1.98783352
1086.00 -15.36029132   1.99877823
1088.00 -15.43053762   2.00976261
1090.00 -15.50090764   2.02078672
1092.00 -15.57140134   2.03185064
1094.00 -15.64201869   2.04295443
1096.00 -15.71275967   2.05409817
1098.00 -15.78362425   2.06528190
1100.00 -15.85461239   2.07650572
1102.00 -15.92572406   2.08776968
1104.00 -15.99695924   2.09907385
1106.00 -16.06831790   2.11041829
1108.00 -16.13979999   2.12180309
1110.00 -16.21140550   2.13322829
1112.00 -16.28313440   2.14469398
1114.00 -16.35498665   2.15620022
1116.00 -16.42696222   2.16774707
1118.00 -16.49906108   2.17933461
1120.00 -16.57128320   2.19096290
1122.00 -16.64362856   2.20263200
1124.00 -16.71609711   2.21434199
1126.00 -16.78868884   2.22609294
1128.00 -16.86140370   2.23788490
1130.00 -16.93424167   2.24971796
1132.00 -17.00720272   2.26159217
1134.00 -17.08028682   2.27350760
1136.00 -17.15349393   2.28546431
1138.00 -17.22682402   2.29746239
1140.00 -17.30027707   2.30950189
1142.00 -17.37385304   2.32158288
1144.00 -17.44755190   2.33370543
1146.00 -17.52137363   2.34586960
1148.00 -17.59531818   2.35807547
1150.00 -17.66938553   2.37032309
1152.00 -17.74357564   2.38261254
1154.00 -17.81788849   2.39494388
1156.00 -17.89232404   2.40731718
1158.00 -17.96688227   2.41973251
1160.00 -18.04156314   2.43218993
1162.00 -18.11636661   2.44468952
1164.00 -18.19129266   2.45723133
1166.00 -18.26634126   2.46981543
1168.00 -18.34151237   2.48244189
1170.00 -18.41680597   2.49511078
1172.00 -18.49222201   2.50782217
1174.00 -18.56776048   2.52057611
1176.00 -18.64342133   2.53337268
1178.00 -18.71920453   2.54621195
1180.00 -18.79511006   2.55909398
1182.00 -18.87113788   2.57201883
1184.00 -18.94728796   2.58498657
1186.00 -19.02356026   2.59799728
1188.00 -19.09995476   2.61105101
1190.00 -19.17647142   2.62414783
1192.00 -19.25311021   2.63728782
1194.00 -19.32987110   2.65047102
1196.00 -19.40675406   2.66369752
1198.00 -19.48375904   2.67696738
1200.00 -19.56088603   2.69028066
1202.00 -19.63813499   2.70363743
1204.00 -19.71550588   2.71703776
1206.00 -19.79299867   2.73048171
1208.00 -19.87061334   2.74396935
1210.00 -19.94834984   2.75750074
1212.00 -20.02620814   2.77107596
1214.00 -20.10418822   2.78469506
1216.00 -20.18229004   2.79835811
1218.00 -20.26051356   2.81206518
1220.00 -20.33885876   2.82581634
1222.00 -20.41732559   2.83961165
1224.00 -20.49591404   2.85345118
1226.00 -20.57462406   2.86733498
1228.00 -20.65345562   2.88126314
1230.00 -20.73240868   2.89523571
1232.00 -20.81148323   2.90925276
1234.00 -20.89067921   2.92331435
1236.00 -20.96999660   2.93742056
1238.00 -21.04943537   2.95157144
1240.00 -21.12899548   2.96576707
1242.00 -21.20867689   2.98000750
1244.00 -21.28847958   2.99429281
1246.00 -21.36840351   3.00862306
1248.00 -21.44844865   3.02299831
1250.00 -21.52861497   3.03741863
1252.00 -21.60890242   3.05188409
1254.00 -21.68931098   3.06639475
1256.00 -21.76984061   3.08095067
1258.00 -21.85049128   3.09555193
1260.00 -21.93126296   3.11019858
1262.00 -22.01215560   3.12489070
1264.00 -22.09316919   3.13962835
1266.00 -22.17430367   3.15441158
1268.00 -22.25555903   3.16924048
1270.00 -22.33693522   3.18411510
1272.00 -22.41843221   3.19903550
1274.00 -22.50004997   3.21400176
1276.00 -22.58178846   3.22901394
1278.00 -22.66364765   3.24407211
1280.00 -22.74562751   3.25917632
1282.00 -22.82772799   3.27432664
1284.00 -22.90994907   3.28952315
1286.00 -22.99229071   3.30476589
1288.00 -23.07475287   3.32005495
1290.00 -23.15733553   3.33539038
1292.00 -23.24003864   3.35077224
1294.00 -23.32286218   3.36620061
1296.00 -23.40580610   3.38167555
1298.00 -23.48887038   3.39719712
1300.00 -23.57205497   3.41276538
1302.00 -23.65535985   3.42838041
1304.00 -23.73878498   3.44404226
1306.00 -23.82233032   3.45975101
1308.00 -23.90599584   3.47550671
1310.00 -23.98978150   3.49130943
1312.00 -24.07368727   3.50715923
1314.00 -24.15771312   3.52305619
1316.00 -24.24185900   3.53900035
1318.00 -24.32612489   3.55499180
1320.00 -24.41051074   3.57103058
1322.00 -24.49501653   3.58711677
1324.00 -24.57964221   3.60325044
1326.00 -24.66438776   3.61943163
1328.00 -24.74925313   3.63566043
1330.00 -24.83423830   3.65193689
1332.00 -24.91934322   3.66826108
1334.00 -25.00456786   3.68463306
1336.00 -25.08991218   3.70105289
1338.00 -25.17537616   3.71752065
1340.00 -25.26095974   3.73403639
1342.00 -25.34666291   3.75060017
1344.00 -25.43248561   3.76721207
1346.00 -25.51842783   3.78387214
1348.00 -25.60448951   3.80058046
1350.00 -25.69067063   3.81733707
1352.00 -25.77697114   3.83414206
1354.00 -25.86339102   3.85099547
1356.00 -25.94993022   3.86789738
1358.00 -26.03658872   3.88484785
1360.00 -26.12336646   3.90184694
1362.00 -26.21026343   3.91889472
1364.00 -26.29727958   3.93599125
1366.00 -26.38441487   3.95313659
1368.00 -26.47166927   3.97033080
1370.00 -26.55904275   3.98757396
1372.00 -26.64653526   4.00486612
1374.00 -26.73414677   4.02220735
1376.00 -26.82187724   4.03959771
1378.00 -26.90972665   4.05703726
1380.00 -26.99769494   4.07452607
1382.00 -27.08578208   4.09206420
1384.00 -27.17398805   4.10965172
1386.00 -27.26231279   4.12728868
1388.00 -27.35075628   4.14497516
1390.00 -27.43931847   4.16271120
1392.00 -27.52799934   4.18049689
1394.00 -27.61679884   4.19833227
1396.00 -27.70571693   4.21621742
1398.00 -27.79475358   4.23415239
1400.00 -27.88390876   4.25213726
1402.00 -27.97318242   4.27017207
1404.00 -28.06257453   4.28825690
1406.00 -28.15208505   4.30639181
1408.00 -28.24171395   4.32457686
1410.00 -28.33146118   4.34281212
1412.00 -28.42132671   4.36109764
1414.00 -28.51131050   4.37943349
1416.00 -28.60141252   4.39781973
1418.00 -28.69163273   4.41625643
1420.00 -28.78197108   4.43474364
1422.00 -28.87242755   4.45328144
1424.00 -28.96300209   4.47186987
1426.00 -29.05369467   4.49050902
1428.00 -29.14450525   4.50919893
1430.00 -29.23543380   4.52793967
1432.00 -29.32648026   4.54673131
1434.00 -29.41764462   4.56557390
1436.00 -29.50892682   4.58446751
1438.00 -29.60032683   4.60341220
1440.00 -29.69184462   4.62240803
1442.00 -29.78348014   4.64145506
1444.00 -29.87523336   4.66055337
1446.00 -29.96710424   4.67970300
1448.00 -30.05909274   4.69890403
1450.00 -30.15119883   4.71815650
1452.00 -30.24342246   4.73746050
1454.00 -30.33576359   4.75681607
1456.00 -30.42822220   4.77622328
1458.00 -30.52079824   4.79568220
1460.00 -30.61349166   4.81519288
1462.00 -30.70630245   4.83475538
1464.00 -30.79923054   4.85436977
1466.00 -30.89227592   4.87403612
1468.00 -30.98543853   4.89375447
1470.00 -31.07871835   4.91352490
1472.00 -31.17211532   4.93334746
1474.00 -31.26562942   4.95322222
1476.00 -31.35926060   4.97314924
1478.00 -31.45300883   4.99312858
1480.00 -31.54687407   5.01316030
1482.00 -31.64085627   5.03324446
1484.00 -31.73495541   5.05338113
1486.00 -31.82917143   5.07357037
1488.00 -31.92350431   5.09381223
1490.00 -32.01795400   5.11410679
1492.00 -32.11252046   5.13445409
1494.00 -32.20720366   5.15485421
1496.00 -32.30200355   5.17530720
1498.00 -32.39692010   5.19581312
1500.00 -32.49195327   5.21637205
1502.00 -32.58710301   5.23698403
1504.00 -32.68236930   5.25764913
1506.00 -32.77775208   5.27836740
1508.00 -32.87325133   5.29913892
1510.00 -32.96886700   5.31996375
1512.00 -33.06459905   5.34084193
1514.00 -33.16044744   5.36177354
1516.00 -33.25641213   5.38275864
1518.00 -33.35249309   5.40379728
1520.00 -33.44869027   5.42488953
1522.00 -33.54500364   5.44603544
1524.00 -33.64143315   5.46723509
1526.00 -33.73797877   5.48848852
1528.00 -33.83464045   5.50979581
1530.00 -33.93141816   5.53115700
1532.00 -34.02831185   5.55257217
1534.00 -34.12532149   5.57404137
1536.00 -34.22244704   5.59556467
1538.00 -34.31968845   5.61714212
1540.00 -34.41704568   5.63877378
1542.00 -34.51451871   5.66045971
1544.00 -34.61210748   5.68219999
1546.00 -34.70981195   5.70399465
1548.00 -34.80763210   5.72584378
1550.00 -34.90556786   5.74774742
1552.00 -35.00361922   5.76970564
1554.00 -35.10178612   5.79171849
1556.00 -35.20006852   5.81378604
1558.00 -35.29846639   5.83590835
1560.00 -35.39697968   5.85808548
1562.00 -35.49560836   5.88031748
1564.00 -35.59435238   5.90260443
1566.00 -35.69321170   5.92494637
1568.00 -35.79218629   5.94734337
1570.00 -35.89127610   5.96979549
1572.00 -35.99048109   5.99230278
1574.00 -36.08980122   6.01486532
1576.00 -36.18923645   6.03748315
1578.00 -36.28878674   6.06015634
1580.00 -36.38845204   6.08288495
1582.00 -36.48823233   6.10566903
1584.00 -36.58812755   6.12850865
1586.00 -36.68813767   6.15140387
1588.00 -36.78826264   6.17435475
1590.00 -36.88850243   6.19736134
1592.00 -36.98885699   6.22042370
1594.00 -37.08932628   6.24354191
1596.00 -37.18991026   6.26671600
1598.00 -37.29060890   6.28994605
1600.00 -37.39142214   6.31323212
1602.00 -37.49234995   6.33657426
1604.00 -37.59339228   6.35997253
1606.00 -37.69454910   6.38342699
1608.00 -37.79582036   6.40693770
1610.00 -37.89720603   6.43050473
1612.00 -37.99870605   6.45412812
1614.00 -38.10032040   6.47780794
1616.00 -38.20204902   6.50154425
1618.00 -38.30389188   6.52533711
1620.00 -38.40584894   6.54918657
1622.00 -38.50792014   6.57309270
1624.00 -38.61010546   6.59705555
1626.00 -38.71240485   6.62107519
1628.00 -38.81481827   6.64515166
1630.00 -38.91734567   6.66928504
1632.00 -39.01998701   6.69347538
1634.00 -39.12274226   6.71772273
1636.00 -39.22561137   6.74202717
1638.00 -39.32859430   6.76638873
1640.00 -39.43169101   6.79080750
1642.00 -39.53490145   6.81528351
1644.00 -39.63822559   6.83981684
1646.00 -39.74166337   6.86440754
1648.00 -39.84521476   6.88905567
1650.00 -39.94887972   6.91376128
1652.00 -40.05265821   6.93852444
1654.00 -40.15655017   6.96334521
1656.00 -40.26055558   6.98822364
1658.00 -40.36467438   7.01315979
1660.00 -40.46890654   7.03815371
1662.00 -40.57325202   7.06320548
1664.00 -40.67771076   7.08831514
1666.00 -40.78228273   7.11348276
1668.00 -40.88696788   7.13870838
1670.00 -40.99176618   7.16399208
1672.00 -41.09667758   7.18933391
1674.00 -41.20170204   7.21473392
1676.00 -41.30683951   7.24019218
1678.00 -41.41208995   7.26570874
1680.00 -41.51745333   7.29128366
1682.00 -41.62292959   7.31691699
1684.00 -41.72851869   7.34260881
1686.00 -41.83422060   7.36835915
1688.00 -41.94003526   7.39416809
1690.00 -42.04596264   7.42003568
1692.00 -42.15200270   7.44596197
1694.00 -42.25815538   7.47194703
1696.00 -42.36442065   7.49799091
1698.00 -42.47079846   7.52409367
1700.00 -42.57728877   7.55025537
1702.00 -42.68389154   7.57647606
1704.00 -42.79060672   7.60275581
1706.00 -42.89743428   7.62909466
1708.00 -43.00437416   7.65549268
1710.00 -43.11142633   7.68194993
1712.00 -43.21859073   7.70846646
1714.00 -43.32586734   7.73504232
1716.00 -43.43325610   7.76167758
1718.00 -43.54075697   7.78837230
1720.00 -43.64836990   7.81512652
1722.00 -43.75609486   7.84194031
1724.00 -43.86393180   7.86881373
1726.00 -43.97188068   7.89574683
1728.00 -44.07994145   7.92273967
1730.00 -44.18811407   7.94979230
1732.00 -44.29639850   7.97690478
1734.00 -44.40479468   8.00407718
1736.00 -44.51330259   8.03130953
1738.00 -44.62192217   8.05860192
1740.00 -44.73065338   8.08595438
1742.00 -44.83949617   8.11336698
1744.00 -44.94845051   8.14083977
1746.00 -45.05751635   8.16837281
1748.00 -45.16669364   8.19596615
1750.00 -45.27598234   8.22361986
1752.00 -45.38538241   8.25133399
1754.00 -45.49489380   8.27910859
1756.00 -45.60451647   8.30694372
1758.00 -45.71425038   8.33483945
1760.00 -45.82409547   8.36279582
1762.00 -45.93405171   8.39081288
1764.00 -46.04411905   8.41889071
1766.00 -46.15429745   8.44702935
1768.00 -46.26458686   8.47522886
1770.00 -46.37498724   8.50348929
1772.00 -46.48549854   8.53181071
1774.00 -46.59612072   8.56019316
1776.00 -46.70685374   8.58863671
1778.00 -46.81769755   8.61714141
1780.00 -46.92865210   8.64570731
1782.00 -47.03971736   8.67433448
1784.00 -47.15089327   8.70302296
1786.00 -47.26217979   8.73177282
1788.00 -47.37357688   8.76058411
1790.00 -47.48508449   8.78945688
1792.00 -47.59670258   8.81839119
1794.00 -47.70843110   8.84738710
1796.00 -47.82027002   8.87644466
1798.00 -47.93221927   8.90556392
1800.00 -48.04427882   8.93474495
1802.00 -48.15644862   8.96398780
1804.00 -48.26872864   8.99329253
1806.00 -48.38111881   9.02265918
1808.00 -48.49361911   9.05208782
1810.00 -48.60622947   9.08157849
1812.00 -48.71894987   9.11113127
1814.00 -48.83178024   9.14074619
1816.00 -48.94472056   9.17042332
1818.00 -49.05777076   9.20016271
1820.00 -49.17093082   9.22996441
1822.00 -49.28420067   9.25982849
1824.00 -49.39758028   9.28975500
1826.00 -49.51106960   9.31974398
1828.00 -49.62466859   9.34979550
1830.00 -49.73837720   9.37990962
1832.00 -49.85219538   9.41008637
1834.00 -49.96612309   9.44032583
1836.00 -50.08016028   9.47062805
1838.00 -50.19430691   9.50099308
1840.00 -50.30856293   9.53142097
1842.00 -50.42292830   9.56191178
1844.00 -50.53740297   9.59246556
1846.00 -50.65198689   9.62308238
1848.00 -50.76668003   9.65376228
1850.00 -50.88148232   9.68450531
1852.00 -50.99639374   9.71531154
1854.00 -51.11141422   9.74618102
1856.00 -51.22654374   9.77711380
1858.00 -51.34178223   9.80810993
1860.00 -51.45712965   9.83916948
1862.00 -51.57258596   9.87029249
1864.00 -51.68815112   9.90147901
1866.00 -51.80382507   9.93272911
1868.00 -51.91960777   9.96404284
1870.00 -52.03549917   9.99542025
1872.00 -52.15149923  10.02686139
1874.00 -52.26760790  10.05836633
1876.00 -52.38382514  10.08993510
1878.00 -52.50015089  10.12156778
1880.00 -52.61658512  10.15326440
1882.00 -52.73312777  10.18502503
1884.00 -52.84977880  10.21684972
1886.00 -52.96653816  10.24873852
1888.00 -53.08340581  10.28069149
1890.00 -53.20038171  10.31270867
1892.00 -53.31746579  10.34479013
1894.00 -53.43465802  10.37693592
1896.00 -53.55195835  10.40914609
1898.00 -53.66936674  10.44142069
1900.00 -53.78688313  10.47375978
1902.00 -53.90450748  10.50616341
1904.00 -54.02223975  10.53863164
1906.00 -54.14007988  10.57116451
1908.00 -54.25802783  10.60376209
1910.00 -54.37608356  10.63642442
1912.00 -54.49424701  10.66915156
1914.00 -54.61251815  10.70194356
1916.00 -54.73089691  10.73480047
1918.00 -54.84938326  10.76772235
1920.00 -54.96797715  10.80070925
1922.00 -55.08667853  10.83376122
1924.00 -55.20548736  10.86687832
1926.00 -55.32440358  10.90006060
1928.00 -55.44342716  10.93330811
1930.00 -55.56255803  10.96662091
1932.00 -55.68179617  10.99999904
1934.00 -55.80114151  11.03344257
1936.00 -55.92059401  11.06695153
1938.00 -56.04015363  11.10052600
1940.00 -56.15982031  11.13416601
1942.00 -56.27959402  11.16787162
1944.00 -56.39947470  11.20164289
1946.00 -56.51946230  11.23547986
1948.00 -56.63955678  11.26938260
1950.00 -56.75975809  11.30335114
1952.00 -56.88006618  11.33738555
1954.00 -57.00048101  11.37148587
1956.00 -57.12100252  11.40565216
1958.00 -57.24163067  11.43988447
1960.00 -57.36236542  11.47418286
1962.00 -57.48320671  11.50854737
1964.00 -57.60415450  11.54297805
1966.00 -57.72520874  11.57747497
1968.00 -57.84636937  11.61203816
1970.00 -57.96763637  11.64666769
1972.00 -58.08900966  11.68136361
1974.00 -58.21048922  11.71612596
1976.00 -58.33207498  11.75095480
1978.00 -58.45376691  11.78585018
1980.00 -58.57556495  11.82081216
1982.00 -58.69746906  11.85584078
1984.00 -58.81947918  11.89093609
1986.00 -58.94159528  11.92609815
1988.00 -59.06381729  11.96132702
1990.00 -59.18614518  11.99662273
1992.00 -59.30857890  12.03198534
1994.00 -59.43111840  12.06741491
1996.00 -59.55376362  12.10291149
1998.00 -59.67651452  12.13847512
2000.00 -59.79937106  12.17410586
2002.00 -59.92233318  12.20980376
2004.00 -60.04540084  12.24556887
2006.00 -60.16857399  12.28140124
2008.00 -60.29185257  12.31730093
2010.00 -60.41523655  12.35326798
2012.00 -60.53872587  12.38930244
2014.00 -60.66232048  12.42540437
2016.00 -60.78602034  12.46157382
2018.00 -60.90982539  12.49781084
2020.00 -61.03373560  12.53411548
2022.00 -61.15775090  12.57048779
2024.00 -61.28187126  12.60692781
2026.00 -61.40609662  12.64343562
2028.00 -61.53042693  12.68001124
2030.00 -61.65486214  12.71665474
2032.00 -61.77940222  12.75336616
2034.00 -61.90404710  12.79014556
2036.00 -62.02879674  12.82699298
2038.00 -62.15365109  12.86390848
2040.00 -62.27861010  12.90089210
2042.00 -62.40367372  12.93794390
2044.00 -62.52884191  12.97506393
2046.00 -62.65411461  13.01225224
2048.00 -62.77949177  13.04950888
2050.00 -62.90497335  13.08683389
2052.00 -63.03055930  13.12422733
2054.00 -63.15624957  13.16168925
2056.00 -63.28204411  13.19921970
2058.00 -63.40794286  13.23681873
2060.00 -63.53394579  13.27448639
2062.00 -63.66005284  13.31222273
2064.00 -63.78626396  13.35002780
2066.00 -63.91257910  13.38790164
2068.00 -64.03899821  13.42584432
2070.00 -64.16552126  13.46385587
2072.00 -64.29214817  13.50193636
2074.00 -64.41887891  13.54008582
2076.00 -64.54571343  13.57830431
2078.00 -64.67265167  13.61659188
2080.00 -64.79969360  13.65494857
2082.00 -64.92683914  13.69337445
2084.00 -65.05408827  13.73186955
2086.00 -65.18144093  13.77043392
2088.00 -65.30889706  13.80906762
2090.00 -65.43645663  13.84777070
2092.00 -65.56411957  13.88654320
2094.00 -65.69188585  13.92538518
2096.00 -65.81975540  13.96429667
2098.00 -65.94772819  14.00327775
2100.00 -66.07580415  14.04232844
2102.00 -66.20398325  14.08144880
2104.00 -66.33226543  14.12063888
2106.00 -66.46065064  14.15989873
2108.00 -66.58913883  14.19922840
2110.00 -66.71772995  14.23862794
2112.00 -66.84642396  14.27809739
2114.00 -66.97522080  14.31763681
2116.00 -67.10412041  14.35724624
2118.00 -67.23312276  14.39692573
2120.00 -67.36222780  14.43667534
2122.00 -67.49143546  14.47649510
2124.00 -67.62074570  14.51638507
2126.00 -67.75015848  14.55634530
2128.00 -67.87967374  14.59637584
2130.00 -68.00929143  14.63647673
2132.00 -68.13901150  14.67664802
2134.00 -68.26883390  14.71688977
2136.00 -68.39875858  14.75720201
2138.00 -68.52878549  14.79758480
2140.00 -68.65891458  14.83803819
2142.00 -68.78914580  14.87856222
2144.00 -68.91947910  14.91915695
2146.00 -69.04991442  14.95982242
2148.00 -69.18045173  15.00055867
2150.00 -69.31109096  15.04136577
2152.00 -69.44183207  15.08224375
2154.00 -69.57267501  15.12319266
2156.00 -69.70361972  15.16421255
2158.00 -69.83466616  15.20530347
2160.00 -69.96581427  15.24646547
2162.00 -70.09706400  15.28769860
2164.00 -70.22841531  15.32900290
2166.00 -70.35986815  15.37037842
2168.00 -70.49142245  15.41182520
2170.00 -70.62307818  15.45334330
2172.00 -70.75483527  15.49493277
2174.00 -70.88669369  15.53659365
2176.00 -71.01865338  15.57832598
2178.00 -71.15071428  15.62012983
2180.00 -71.28287635  15.66200522
2182.00 -71.41513954  15.70395222
2184.00 -71.54750379  15.74597086
2186.00 -71.67996906  15.78806120
2188.00 -71.81253529  15.83022328
2190.00 -71.94520243  15.87245716
2192.00 -72.07797044  15.91476287
2194.00 -72.21083925  15.95714046
2196.00 -72.34380883  15.99958999
2198.00 -72.47687911  16.04211149
2200.00 -72.61005005  16.08470502
2202.00 -72.74332159  16.12737062
2204.00 -72.87669369  16.17010834
2206.00 -73.01016630  16.21291823
2208.00 -73.14373935  16.25580033
2210.00 -73.27741281  16.29875469
2212.00 -73.41118661  16.34178135
2214.00 -73.54506072  16.38488037
2216.00 -73.67903507  16.42805179
2218.00 -73.81310961  16.47129566
2220.00 -73.94728430  16.51461202
2222.00 -74.08155908  16.55800091
2224.00 -74.21593391  16.60146240
2226.00 -74.35040872  16.64499651
2228.00 -74.48498347  16.68860331
2230.00 -74.61965811  16.73228282
2232.00 -74.75443258  16.77603511
2234.00 -74.88930684  16.81986022
2236.00 -75.02428083  16.86375819
2238.00 -75.15935450  16.90772907
2240.00 -75.29452779  16.95177291
2242.00 -75.42980067  16.99588975
2244.00 -75.56517307  17.04007963
2246.00 -75.70064494  17.08434261
2248.00 -75.83621623  17.12867873
2250.00 -75.97188690  17.17308804
2252.00 -76.10765688  17.21757057
2254.00 -76.24352613  17.26212638
2256.00 -76.37949459  17.30675552
2258.00 -76.51556221  17.35145803
2260.00 -76.65172895  17.39623394
2262.00 -76.78799474  17.44108332
2264.00 -76.92435954  17.48600621
2266.00 -77.06082329  17.53100264
2268.00 -77.19738595  17.57607267
2270.00 -77.33404746  17.62121635
2272.00 -77.47080776  17.66643371
2274.00 -77.60766681  17.71172480
2276.00 -77.74462456  17.75708967
2278.00 -77.88168095  17.80252836
2280.00 -78.01883592  17.84804093
2282.00 -78.15608944  17.89362740
2284.00 -78.29344144  17.93928783
2286.00 -78.43089187  17.98502227
2288.00 -78.56844069  18.03083076
2290.00 -78.70608783  18.07671333
2292.00 -78.84383325  18.12267005
2294.00 -78.98167689  18.16870095
2296.00 -79.11961871  18.21480608
2298.00 -79.25765864  18.26098548
2300.00 -79.39579664  18.30723920
2302.00 -79.53403266  18.35356728
2304.00 -79.67236664  18.39996977
2306.00 -79.81079852  18.44644671
2308.00 -79.94932827  18.49299814
2310.00 -80.08795581  18.53962412
2312.00 -80.22668111  18.58632468
2314.00 -80.36550411  18.63309987
2316.00 -80.50442475  18.67994973
2318.00 -80.64344299  18.72687432
2320.00 -80.78255877  18.77387366
2322.00 -80.92177204  18.82094781
2324.00 -81.06108275  18.86809681
2326.00 -81.20049083  18.91532071
2328.00 -81.33999625  18.96261955
2330.00 -81.47959895  19.00999337
2332.00 -81.61929887  19.05744221
2334.00 -81.75909596  19.10496613
2336.00 -81.89899017  19.15256516
2338.00 -82.03898145  19.20023935
2340.00 -82.17906974  19.24798875
2342.00 -82.31925499  19.29581339
2344.00 -82.45953715  19.34371332
2346.00 -82.59991616  19.39168859
2348.00 -82.74039198  19.43973923
2350.00 -82.88096454  19.48786529
2352.00 -83.02163380  19.53606682
2354.00 -83.16239970  19.58434386
2356.00 -83.30326219  19.63269645
2358.00 -83.44422122  19.68112463
2360.00 -83.58527673  19.72962845
2362.00 -83.72642867  19.77820796
2364.00 -83.86767699  19.82686318
2366.00 -84.00902163  19.87559418
2368.00 -84.15046254  19.92440099
2370.00 -84.29199967  19.97328365
2372.00 -84.43363296  20.02224221
2374.00 -84.57536236  20.07127672
2376.00 -84.71718783  20.12038720
2378.00 -84.85910929  20.16957372
2380.00 -85.00112671  20.21883630
2382.00 -85.14324002  20.26817499
2384.00 -85.28544917  20.31758984
2386.00 -85.42775412  20.36708089
2388.00 -85.57015481  20.41664818
2390.00 -85.71265117  20.46629175
2392.00 -85.85524317  20.51601165
2394.00 -85.99793075  20.56580792
2396.00 -86.14071384  20.61568060
2398.00 -86.28359241  20.66562973
2400.00 -86.42656639  20.71565536
2402.00 -86.56963574  20.76575752
2404.00 -86.71280039  20.81593627
2406.00 -86.85606030  20.86619165
2408.00 -86.99941541  20.91652368
2410.00 -87.14286567  20.96693243
2412.00 -87.28641102  21.01741792
2414.00 -87.43005142  21.06798021
2416.00 -87.57378680  21.11861933
2418.00 -87.71761711  21.16933533
2420.00 -87.86154230  21.22012824
2422.00 -88.00556232  21.27099812
2424.00 -88.14967711  21.32194500
2426.00 -88.29388661  21.37296892
2428.00 -88.43819078  21.42406993
2430.00 -88.58258956  21.47524806
2432.00 -88.72708290  21.52650337
2434.00 -88.87167073  21.57783588
2436.00 -89.01635302  21.62924565
2438.00 -89.16112970  21.68073271
2440.00 -89.30600072  21.73229711
2442.00 -89.45096602  21.78393889
2444.00 -89.59602556  21.83565808
2446.00 -89.74117928  21.88745473
2448.00 -89.88642711  21.93932889
2450.00 -90.03176902  21.99128058
2452.00 -90.17720495  22.04330986
2454.00 -90.32273483  22.09541677
2456.00 -90.46835863  22.14760134
2458.00 -90.61407627  22.19986362
2460.00 -90.75988772  22.25220365
2462.00 -90.90579291  22.30462147
2464.00 -91.05179179  22.35711711
2466.00 -91.19788430  22.40969063
2468.00 -91.34407040  22.46234206
2470.00 -91.49035002  22.51507145
2472.00 -91.63672312  22.56787883
2474.00 -91.78318964  22.62076424
2476.00 -91.92974952  22.67372773
2478.00 -92.07640271  22.72676933
2480.00 -92.22314916  22.77988909
2482.00 -92.36998881  22.83308705
2484.00 -92.51692160  22.88636324
2486.00 -92.66394749  22.93971771
2488.00 -92.81106642  22.99315050
2490.00 -92.95827833  23.04666165
2492.00 -93.10558316  23.10025120
2494.00 -93.25298088  23.15391919
2496.00 -93.40047141  23.20766566
2498.00 -93.54805470  23.26149065
2500.00 -93.69573071  23.31539420
2502.00 -93.84349937  23.36937634
2504.00 -93.99136064  23.42343713
2506.00 -94.13931445  23.47757660
2508.00 -94.28736075  23.53179479
2510.00 -94.43549949  23.58609174
2512.00 -94.58373061  23.64046749
2514.00 -94.73205406  23.69492208
2516.00 -94.88046979  23.74945554
2518.00 -95.02897773  23.80406793
2520.00 -95.17757783  23.85875928
2522.00 -95.32627004  23.91352962
2524.00 -95.47505431  23.96837900
2526.00 -95.62393057  24.02330746
2528.00 -95.77289878  24.07831504
2530.00 -95.92195888  24.13340177
2532.00 -96.07111081  24.18856770
2534.00 -96.22035452  24.24381287
2536.00 -96.36968996  24.29913731
2538.00 -96.51911706  24.35454106
2540.00 -96.66863578  24.41002417
2542.00 -96.81824606  24.46558666
2544.00 -96.96794784  24.52122859
2546.00 -97.11774107  24.57695000
2548.00 -97.26762570  24.63275090
2550.00 -97.41760166  24.68863136
2552.00 -97.56766891  24.74459141
2554.00 -97.71782738  24.80063108
2556.00 -97.86807703  24.85675042
2558.00 -98.01841780  24.91294946
2560.00 -98.16884964  24.96922824
2562.00 -98.31937248  25.02558681
2564.00 -98.46998627  25.08202519
2566.00 -98.62069096  25.13854343
2568.00 -98.77148649  25.19514157
2570.00 -98.92237281  25.25181965
2572.00 -99.07334986  25.30857770
2574.00 -99.22441759  25.36541576
2576.00 -99.37557594  25.42233388
2578.00 -99.52682486  25.47933208
2580.00 -99.67816428  25.53641041
2582.00 -99.82959417  25.59356891
2584.00 -99.98111445  25.65080761
2586.00 -100.13272507  25.70812655
2588.00 -100.28442599  25.76552577
2590.00 -100.43621713  25.82300531
2592.00 -100.58809846  25.88056521
2594.00 -100.74006991  25.93820550
2596.00 -100.89213142  25.99592622
2598.00 -101.04428295  26.05372741
2600.00 -101.19652443  26.11160912
2602.00 -101.34885582  26.16957136
2604.00 -101.50127704  26.22761419
2606.00 -101.65378806  26.28573764
2608.00 -101.80638881  26.34394175
2610.00 -101.95907924  26.40222655
2612.00 -102.11185929  26.46059209
2614.00 -102.26472891  26.51903840
2616.00 -102.41768804  26.57756552
2618.00 -102.57073663  26.63617348
2620.00 -102.72387461  26.69486233
2622.00 -102.87710194  26.75363210
2624.00 -103.03041856  26.81248282
2626.00 -103.18382440  26.87141454
2628.00 -103.33731943  26.93042730
2630.00 -103.49090358  26.98952112
2632.00 -103.64457679  27.04869605
2634.00 -103.79833901  27.10795212
2636.00 -103.95219019  27.16728937
2638.00 -104.10613026  27.22670784
2640.00 -104.26015917  27.28620756
2642.00 -104.41427687  27.34578858
2644.00 -104.56848330  27.40545092
2646.00 -104.72277841  27.46519462
2648.00 -104.87716213  27.52501973
2650.00 -105.03163442  27.58492628
2652.00 -105.18619521  27.64491430
2654.00 -105.34084445  27.70498383
2656.00 -105.49558208  27.76513491
2658.00 -105.65040806  27.82536757
2660.00 -105.80532231  27.88568185
2662.00 -105.96032479  27.94607779
2664.00 -106.11541545  28.00655542
2666.00 -106.27059421  28.06711478
2668.00 -106.42586103  28.12775591
2670.00 -106.58121586  28.18847884
2672.00 -106.73665863  28.24928360
2674.00 -106.89218929  28.31017024
2676.00 -107.04780779  28.37113879
2678.00 -107.20351406  28.43218929
2680.00 -107.35930805  28.49332177
2682.00 -107.51518971  28.55453626
2684.00 -107.67115897  28.61583281
2686.00 -107.82721579  28.67721145
2688.00 -107.98336011  28.73867221
2690.00 -108.13959186  28.80021514
2692.00 -108.29591100  28.86184026
2694.00 -108.45231746  28.92354761
2696.00 -108.60881120  28.98533723
2698.00 -108.76539215  29.04720915
2700.00 -108.92206026  29.10916341
2702.00 -109.07881547  29.17120005
2704.00 -109.23565772  29.23331909
2706.00 -109.39258697  29.29552058
2708.00 -109.54960315  29.35780455
2710.00 -109.70670620  29.42017104
2712.00 -109.86389608  29.48262007
2714.00 -110.02117272  29.54515169
2716.00 -110.17853606  29.60776594
2718.00 -110.33598606  29.67046283
2720.00 -110.49352265  29.73324242
2722.00 -110.65114577  29.79610473
2724.00 -110.80885538  29.85904981
2726.00 -110.96665142  29.92207768
2728.00 -111.12453382  29.98518838
2730.00 -111.28250253  30.04838194
2732.00 -111.44055750  30.11165841
2734.00 -111.59869866  30.17501781
2736.00 -111.75692597  30.23846017
2738.00 -111.91523936  30.30198555
2740.00 -112.07363878  30.36559396
2742.00 -112.23212417  30.42928544
2744.00 -112.39069548  30.49306003
2746.00 -112.54935265  30.55691776
2748.00 -112.70809561  30.62085866
2750.00 -112.86692433  30.68488278
2752.00 -113.02583873  30.74899014
2754.00 -113.18483876  30.81318078
2756.00 -113.34392437  30.87745473
2758.00 -113.50309549  30.94181203
2760.00 -113.66235208  31.00625271
2762.00 -113.82169407  31.07077680
2764.00 -113.98112141  31.13538435
2766.00 -114.14063404  31.20007537
2768.00 -114.30023190  31.26484991
2770.00 -114.45991494  31.32970801
2772.00 -114.61968311  31.39464968
2774.00 -114.77953633  31.45967498
2776.00 -114.93947456  31.52478393
2778.00 -115.09949775  31.58997656
2780.00 -115.25960582  31.65525291
2782.00 -115.41979873  31.72061301
2784.00 -115.58007642  31.78605690
2786.00 -115.74043883  31.85158461
2788.00 -115.90088591  31.91719617
2790.00 -116.06141759  31.98289161
2792.00 -116.22203383  32.04867098
2794.00 -116.38273456  32.11453430
2796.00 -116.54351973  32.18048160
2798.00 -116.70438928  32.24651293
2800.00 -116.86534315  32.31262830
2802.00 -117.02638128  32.37882776
2804.00 -117.18750363  32.44511134
2806.00 -117.34871013  32.51147907
2808.00 -117.51000072  32.57793099
2810.00 -117.67137535  32.64446712
2812.00 -117.83283396  32.71108750
2814.00 -117.99437650  32.77779216
2816.00 -118.15600290  32.84458114
2818.00 -118.31771311  32.91145447
2820.00 -118.47950707  32.97841218
2822.00 -118.64138473  33.04545430
2824.00 -118.80334602  33.11258087
2826.00 -118.96539090  33.17979191
2828.00 -119.12751930  33.24708747
2830.00 -119.28973116  33.31446757
2832.00 -119.45202643  33.38193225
2834.00 -119.61440506  33.44948153
2836.00 -119.77686698  33.51711545
2838.00 -119.93941214  33.58483405
2840.00 -120.10204047  33.65263735
2842.00 -120.26475193  33.72052539
2844.00 -120.42754646  33.78849819
2846.00 -120.59042399  33.85655580
2848.00 -120.75338447  33.92469824
2850.00 -120.91642785  33.99292555
2852.00 -121.07955406  34.06123775
2854.00 -121.24276305  34.12963488
2856.00 -121.40605476  34.19811697
2858.00 -121.56942914  34.26668405
2860.00 -121.73288612  34.33533616
2862.00 -121.89642565  34.40407332
2864.00 -122.06004767  34.47289557
2866.00 -122.22375213  34.54180294
2868.00 -122.38753896  34.61079546
2870.00 -122.55140811  34.67987316
2872.00 -122.71535953  34.74903607
2874.00 -122.87939315  34.81828423
2876.00 -123.04350891  34.88761766
2878.00 -123.20770677  34.95703641
2880.00 -123.37198665  35.02654048
2882.00 -123.53634851  35.09612993
2884.00 -123.70079229  35.16580478
2886.00 -123.86531793  35.23556506
2888.00 -124.02992536  35.30541081
2890.00 -124.19461455  35.37534204
2892.00 -124.35938542  35.44535881
2894.00 -124.52423791  35.51546113
2896.00 -124.68917198  35.58564903
2898.00 -124.85418756  35.65592255
2900.00 -125.01928460  35.72628172
2902.00 -125.18446304  35.79672657
2904.00 -125.34972282  35.86725713
2906.00 -125.51506388  35.93787343
2908.00 -125.68048617  36.00857550
2910.00 -125.84598962  36.07936337
2912.00 -126.01157419  36.15023708
2914.00 -126.17723980  36.22119664
2916.00 -126.34298641  36.29224210
2918.00 -126.50881396  36.36337348
2920.00 -126.67472239  36.43459081
2922.00 -126.84071164  36.50589413
2924.00 -127.00678166  36.57728346
2926.00 -127.17293238  36.64875884
2928.00 -127.33916375  36.72032029
2930.00 -127.50547571  36.79196784
2932.00 -127.67186820  36.86370153
2934.00 -127.83834116  36.93552138
2936.00 -128.00489455  37.00742743
2938.00 -128.17152829  37.07941969
2940.00 -128.33824234  37.15149822
2942.00 -128.50503663  37.22366302
2944.00 -128.67191110  37.29591414
2946.00 -128.83886571  37.36825161
2948.00 -129.00590038  37.44067544
2950.00 -129.17301507  37.51318568
2952.00 -129.34020971  37.58578235
2954.00 -129.50748424  37.65846548
2956.00 -129.67483862  37.73123510
2958.00 -129.84227278  37.80409124
2960.00 -130.00978666  37.87703393
2962.00 -130.17738020  37.95006320
2964.00 -130.34505335  38.02317908
2966.00 -130.51280606  38.09638159
2968.00 -130.68063825  38.16967077
2970.00 -130.84854987  38.24304665
2972.00 -131.01654087  38.31650925
2974.00 -131.18461119  38.39005861
2976.00 -131.35276077  38.46369474
2978.00 -131.52098955  38.53741769
2980.00 -131.68929747  38.61122748
2982.00 -131.85768448  38.68512414
2984.00 -132.02615051  38.75910770
2986.00 -132.19469552  38.83317818
2988.00 -132.36331943  38.90733562
2990.00 -132.53202220  38.98158004
2992.00 -132.70080376  39.05591148
2994.00 -132.86966406  39.13032996
2996.00 -133.03860304  39.20483551
2998.00 -133.20762064  39.27942815
3000.00 -133.37671681  39.35410793
3002.00 -133.54589148  39.42887485
3004.00 -133.71514459  39.50372897
3006.00 -133.88447609  39.57867029
3008.00 -134.05388593  39.65369885
3010.00 -134.22337403  39.72881469
3012.00 -134.39294035  39.80401781
3014.00 -134.56258483  39.87930827
3016.00 -134.73230740  39.95468607
3018.00 -134.90210802  40.03015126
3020.00 -135.07198661  40.10570385
3022.00 -135.24194313  40.18134388
3024.00 -135.41197751  40.25707138
3026.00 -135.58208970  40.33288637
3028.00 -135.75227964  40.40878887
3030.00 -135.92254727  40.48477893
3032.00 -136.09289253  40.56085656
3034.00 -136.26331537  40.63702179
3036.00 -136.43381572  40.71327466
3038.00 -136.60439353  40.78961518
3040.00 -136.77504874  40.86604338
3042.00 -136.94578129  40.94255930
3044.00 -137.11659112  41.01916297
3046.00 -137.28747818  41.09585439
3048.00 -137.45844241  41.17263362
3050.00 -137.62948374  41.24950066
3052.00 -137.80060212  41.32645556
3054.00 -137.97179749  41.40349833
3056.00 -138.14306980  41.48062900
3058.00 -138.31441898  41.55784761
3060.00 -138.48584498  41.63515417
3062.00 -138.65734774  41.71254872
3064.00 -138.82892719  41.79003128
3066.00 -139.00058329  41.86760188
3068.00 -139.17231597  41.94526055
3070.00 -139.34412518  42.02300730
3072.00 -139.51601085  42.10084218
3074.00 -139.68797293  42.17876520
3076.00 -139.86001136  42.25677640
3078.00 -140.03212608  42.33487579
3080.00 -140.20431704  42.41306341
3082.00 -140.37658417  42.49133928
3084.00 -140.54892741  42.56970343
3086.00 -140.72134671  42.64815588
3088.00 -140.89384202  42.72669667
3090.00 -141.06641326  42.80532581
3092.00 -141.23906039  42.88404334
3094.00 -141.41178334  42.96284928
3096.00 -141.58458205  43.04174365
3098.00 -141.75745647  43.12072649
3100.00 -141.93040655  43.19979781
3102.00 -142.10343221  43.27895765
3104.00 -142.27653340  43.35820603
3106.00 -142.44971007  43.43754298
3108.00 -142.62296215  43.51696851
3110.00 -142.79628959  43.59648267
3112.00 -142.96969233  43.67608547
3114.00 -143.14317030  43.75577694
3116.00 -143.31672346  43.83555711
3118.00 -143.49035174  43.91542600
3120.00 -143.66405508  43.99538363
3122.00 -143.83783343  44.07543004
3124.00 -144.01168673  44.15556525
3126.00 -144.18561491  44.23578928
3128.00 -144.35961793  44.31610215
3130.00 -144.53369571  44.39650391
3132.00 -144.70784821  44.47699456
3134.00 -144.88207536  44.55757413
3136.00 -145.05637711  44.63824266
3138.00 -145.23075340  44.71900016
3140.00 -145.40520416  44.79984667
3142.00 -145.57972934  44.88078220
3144.00 -145.75432889  44.96180678
3146.00 -145.92900274  45.04292043
3148.00 -146.10375083  45.12412319
3150.00 -146.27857311  45.20541507
3152.00 -146.45346951  45.28679611
3154.00 -146.62843999  45.36826631
3156.00 -146.80348447  45.44982572
3158.00 -146.97860290  45.53147436
3160.00 -147.15379523  45.61321224
3162.00 -147.32906139  45.69503940
3164.00 -147.50440133  45.77695586
3166.00 -147.67981498  45.85896164
3168.00 -147.85530229  45.94105676
3170.00 -148.03086320  46.02324127
3172.00 -148.20649765  46.10551516
3174.00 -148.38220559  46.18787848
3176.00 -148.55798695  46.27033125
3178.00 -148.73384167  46.35287348
3180.00 -148.90976970  46.43550521
3182.00 -149.08577097  46.51822646
3184.00 -149.26184544  46.60103725
3186.00 -149.43799303  46.68393761
3188.00 -149.61421370  46.76692756
3190.00 -149.79050738  46.85000712
3192.00 -149.96687401  46.93317632
3194.00 -150.14331354  47.01643518
3196.00 -150.31982590  47.09978373
3198.00 -150.49641105  47.18322199
3200.00 -150.67306891  47.26674999
3202.00 -150.84979943  47.35036774
3204.00 -151.02660256  47.43407527
3206.00 -151.20347823  47.51787261
3208.00 -151.38042638  47.60175978
3210.00 -151.55744696  47.68573679
3212.00 -151.73453990  47.76980369
3214.00 -151.91170516  47.85396048
3216.00 -152.08894266  47.93820720
3218.00 -152.26625235  48.02254386
3220.00 -152.44363418  48.10697049
3222.00 -152.62108808  48.19148712
3224.00 -152.79861399  48.27609376
3226.00 -152.97621186  48.36079044
3228.00 -153.15388163  48.44557718
3230.00 -153.33162323  48.53045400
3232.00 -153.50943662  48.61542094
3234.00 -153.68732172  48.70047800
3236.00 -153.86527849  48.78562522
3238.00 -154.04330686  48.87086262
3240.00 -154.22140678  48.95619022
3242.00 -154.39957818  49.04160804
3244.00 -154.57782100  49.12711610
3246.00 -154.75613520  49.21271443
3248.00 -154.93452070  49.29840306
3250.00 -155.11297746  49.38418199
3252.00 -155.29150540  49.47005127
3254.00 -155.47010448  49.55601090
3256.00 -155.64877464  49.64206091
3258.00 -155.82751580  49.72820133
3260.00 -156.00632793  49.81443217
3262.00 -156.18521095  49.90075346
3264.00 -156.36416481  49.98716522
3266.00 -156.54318946  50.07366747
3268.00 -156.72228482  50.16026024
3270.00 -156.90145084  50.24694355
3272.00 -157.08068747  50.33371741
3274.00 -157.25999464  50.42058186
3276.00 -157.43937230  50.50753691
3278.00 -157.61882039  50.59458258
3280.00 -157.79833884  50.68171891
3282.00 -157.97792761  50.76894590
3284.00 -158.15758662  50.85626358
3286.00 -158.33731583  50.94367198
3288.00 -158.51711517  51.03117111
3290.00 -158.69698458  51.11876099
3292.00 -158.87692401  51.20644166
3294.00 -159.05693339  51.29421312
3296.00 -159.23701267  51.38207541
3298.00 -159.41716179  51.47002854
3300.00 -159.59738069  51.55807253
3302.00 -159.77766931  51.64620741
3304.00 -159.95802759  51.73443319
3306.00 -160.13845548  51.82274991
3308.00 -160.31895291  51.91115757
3310.00 -160.49951982  51.99965620
3312.00 -160.68015616  52.08824583
3314.00 -160.86086187  52.17692647
3316.00 -161.04163689  52.26569814
3318.00 -161.22248116  52.35456087
3320.00 -161.40339462  52.44351468
3322.00 -161.58437721  52.53255958
3324.00 -161.76542887  52.62169561
3326.00 -161.94654955  52.71092277
3328.00 -162.12773918  52.80024109
3330.00 -162.30899771  52.88965059
3332.00 -162.49032508  52.97915129
3334.00 -162.67172123  53.06874322
3336.00 -162.85318609  53.15842639
3338.00 -163.03471962  53.24820082
3340.00 -163.21632175  53.33806654
3342.00 -163.39799242  53.42802356
3344.00 -163.57973158  53.51807191
3346.00 -163.76153916  53.60821160
3348.00 -163.94341511  53.69844266
3350.00 -164.12535937  53.78876511
3352.00 -164.30737188  53.87917896
3354.00 -164.48945257  53.96968424
3356.00 -164.67160140  54.06028097
3358.00 -164.85381830  54.15096916
3360.00 -165.03610321  54.24174884
3362.00 -165.21845607  54.33262003
3364.00 -165.40087684  54.42358275
3366.00 -165.58336543  54.51463701
3368.00 -165.76592181  54.60578284
3370.00 -165.94854590  54.69702026
3372.00 -166.13123766  54.78834929
3374.00 -166.31399701  54.87976994
3376.00 -166.49682391  54.97128224
3378.00 -166.67971829  55.06288621
3380.00 -166.86268009  55.15458186
3382.00 -167.04570926  55.24636922
3384.00 -167.22880573  55.33824830
3386.00 -167.41196946  55.43021913
3388.00 -167.59520037  55.52228173
3390.00 -167.77849841  55.61443610
3392.00 -167.96186352  55.70668228
3394.00 -168.14529564  55.79902028
3396.00 -168.32879472  55.89145013
3398.00 -168.51236069  55.98397183
3400.00 -168.69599349  56.07658542
3402.00 -168.87969307  56.16929091
3404.00 -169.06345937  56.26208831
3406.00 -169.24729232  56.35497765
3408.00 -169.43119188  56.44795895
3410.00 -169.61515797  56.54103222
3412.00 -169.79919055  56.63419749
3414.00 -169.98328955  56.72745477
3416.00 -170.16745491  56.82080409
3418.00 -170.35168658  56.91424545
3420.00 -170.53598450  57.00777889
3422.00 -170.72034860  57.10140441
3424.00 -170.90477883  57.19512205
3426.00 -171.08927512  57.28893180
3428.00 -171.27383743  57.38283371
3430.00 -171.45846569  57.47682777
3432.00 -171.64315984  57.57091402
3434.00 -171.82791983  57.66509247
3436.00 -172.01274559  57.75936313
3438.00 -172.19763707  57.85372604
3440.00 -172.38259420  57.94818119
3442.00 -172.56761693  58.04272862
3444.00 -172.75270520  58.13736835
3446.00 -172.93785895  58.23210038
3448.00 -173.12307812  58.32692474
3450.00 -173.30836265  58.42184145
3452.00 -173.49371249  58.51685052
3454.00 -173.67912757  58.61195197
3456.00 -173.86460784  58.70714582
3458.00 -174.05015323  58.80243209
3460.00 -174.23576369  58.89781080
3462.00 -174.42143916  58.99328196
3464.00 -174.60717958  59.08884559
3466.00 -174.79298489  59.18450171
3468.00 -174.97885503  59.28025034
3470.00 -175.16478995  59.37609149
3472.00 -175.35078958  59.47202519
3474.00 -175.53685387  59.56805144
3476.00 -175.72298275  59.66417027
3478.00 -175.90917617  59.76038170
3480.00 -176.09543407  59.85668574
3482.00 -176.28175639  59.95308240
3484.00 -176.46814307  60.04957172
3486.00 -176.65459406  60.14615370
3488.00 -176.84110928  60.24282836
3490.00 -177.02768869  60.33959571
3492.00 -177.21433223  60.43645579
3494.00 -177.40103983  60.53340859
3496.00 -177.58781145  60.63045415
3498.00 -177.77464701  60.72759247
3500.00 -177.96154646  60.82482358
3502.00 -178.14850974  60.92214749
3504.00 -178.33553679  61.01956421
3506.00 -178.52262756  61.11707377
3508.00 -178.70978198  61.21467618
3510.00 -178.89700000  61.31237146
3512.00 -179.08428156  61.41015963
3514.00 -179.27162659  61.50804069
3516.00 -179.45903504  61.60601468
3518.00 -179.64650686  61.70408159
3520.00 -179.83404197  61.80224146
3522.00 -180.02164033  61.90049430
3524.00 -180.20930187  61.99884012
3526.00 -180.39702654  62.09727894
3528.00 -180.58481427  62.19581078
3530.00 -180.77266501  62.29443565
3532.00 -180.96057870  62.39315357
3534.00 -181.14855528  62.49196456
3536.00 -181.33659469  62.59086863
3538.00 -181.52469687  62.68986579
3540.00 -181.71286177  62.78895607
3542.00 -181.90108932  62.88813948
3544.00 -182.08937946  62.98741604
3546.00 -182.27773214  63.08678576
3548.00 -182.46614730  63.18624866
3550.00 -182.65462488  63.28580475
3552.00 -182.84316482  63.38545405
3554.00 -183.03176706  63.48519657
3556.00 -183.22043155  63.58503234
3558.00 -183.40915821  63.68496136
3560.00 -183.59794701  63.78498366
3562.00 -183.78679787  63.88509924
3564.00 -183.97571073  63.98530813
3566.00 -184.16468555  64.08561034
3568.00 -184.35372226  64.18600588
3570.00 -184.54282079  64.28649478
3572.00 -184.73198110  64.38707703
3574.00 -184.92120313  64.48775267
3576.00 -185.11048680  64.58852171
3578.00 -185.29983208  64.68938416
3580.00 -185.48923889  64.79034003
3582.00 -185.67870718  64.89138934
3584.00 -185.86823689  64.99253212
3586.00 -186.05782796  65.09376836
3588.00 -186.24748034  65.19509809
3590.00 -186.43719396  65.29652133
3592.00 -186.62696876  65.39803808
3594.00 -186.81680469  65.49964836
3596.00 -187.00670169  65.60135219
3598.00 -187.19665969  65.70314958
3600.00 -187.38667865  65.80504055
3602.00 -187.57675849  65.90702511
3604.00 -187.76689917  66.00910327
3606.00 -187.95710062  66.11127505
3608.00 -188.14736279  66.21354047
3610.00 -188.33768562  66.31589954
3612.00 -188.52806904  66.41835228
3614.00 -188.71851300  66.52089869
3616.00 -188.90901744  66.62353880
3618.00 -189.09958230  66.72627261
3620.00 -189.29020753  66.82910014
3622.00 -189.48089306  66.93202141
3624.00 -189.67163884  67.03503644
3626.00 -189.86244480  67.13814522
3628.00 -190.05331089  67.24134779
3630.00 -190.24423705  67.34464414
3632.00 -190.43522322  67.44803431
3634.00 -190.62626935  67.55151829
3636.00 -190.81737536  67.65509611
3638.00 -191.00854122  67.75876778
3640.00 -191.19976684  67.86253331
3642.00 -191.39105219  67.96639272
3644.00 -191.58239719  68.07034602
3646.00 -191.77380180  68.17439322
3648.00 -191.96526595  68.27853434
3650.00 -192.15678958  68.38276940
3652.00 -192.34837263  68.48709840
3654.00 -192.54001505  68.59152135
3656.00 -192.73171678  68.69603828
3658.00 -192.92347776  68.80064920
3660.00 -193.11529792  68.90535411
3662.00 -193.30717722  69.01015304
3664.00 -193.49911559  69.11504600
3666.00 -193.69111298  69.22003299
3668.00 -193.88316932  69.32511404
3670.00 -194.07528456  69.43028915
3672.00 -194.26745863  69.53555834
3674.00 -194.45969149  69.64092163
3676.00 -194.65198307  69.74637902
3678.00 -194.84433331  69.85193053
3680.00 -195.03674216  69.95757617
3682.00 -195.22920955  70.06331596
3684.00 -195.42173543  70.16914991
3686.00 -195.61431973  70.27507802
3688.00 -195.80696241  70.38110032
3690.00 -195.99966340  70.48721682
3692.00 -196.19242264  70.59342752
3694.00 -196.38524008  70.69973245
3696.00 -196.57811565  70.80613161
3698.00 -196.77104930  70.91262502
3700.00 -196.96404097  71.01921269
3702.00 -197.15709060  71.12589463
3704.00 -197.35019813  71.23267085
3706.00 -197.54336351  71.33954138
3708.00 -197.73658667  71.44650621
3710.00 -197.92986756  71.55356537
3712.00 -198.12320611  71.66071886
3714.00 -198.31660228  71.76796670
3716.00 -198.51005600  71.87530890
3718.00 -198.70356721  71.98274547
3720.00 -198.89713585  72.09027642
3722.00 -199.09076187  72.19790177
3724.00 -199.28444521  72.30562153
3726.00 -199.47818581  72.41343570
3728.00 -199.67198361  72.52134431
3730.00 -199.86583855  72.62934737
3732.00 -200.05975057  72.73744488
3734.00 -200.25371962  72.84563685
3736.00 -200.44774564  72.95392331
3738.00 -200.64182856  73.06230426
3740.00 -200.83596834  73.17077971
3742.00 -201.03016491  73.27934968
3744.00 -201.22441821  73.38801417
3746.00 -201.41872819  73.49677321
3748.00 -201.61309478  73.60562679
3750.00 -201.80751793  73.71457493
3752.00 -202.00199758  73.82361765
3754.00 -202.19653368  73.93275495
3756.00 -202.39112616  74.04198685
3758.00 -202.58577496  74.15131335
3760.00 -202.78048003  74.26073448
3762.00 -202.97524131  74.37025023
3764.00 -203.17005874  74.47986062
3766.00 -203.36493226  74.58956567
3768.00 -203.55986181  74.69936538
3770.00 -203.75484734  74.80925977
3772.00 -203.94988879  74.91924884
3774.00 -204.14498610  75.02933260
3776.00 -204.34013920  75.13951108
3778.00 -204.53534805  75.24978427
3780.00 -204.73061258  75.36015220
3782.00 -204.92593274  75.47061486
3784.00 -205.12130847  75.58117228
3786.00 -205.31673970  75.69182446
3788.00 -205.51222639  75.80257141
3790.00 -205.70776847  75.91341315
3792.00 -205.90336588  76.02434967
3794.00 -206.09901858  76.13538101
3796.00 -206.29472648  76.24650716
3798.00 -206.49048955  76.35772814
3800.00 -206.68630773  76.46904395
3802.00 -206.88218094  76.58045461
3804.00 -207.07810914  76.69196013
3806.00 -207.27409227  76.80356051
3808.00 -207.47013027  76.91525577
3810.00 -207.66622307  77.02704593
3812.00 -207.86237064  77.13893098
3814.00 -208.05857289  77.25091094
3816.00 -208.25482979  77.36298582
3818.00 -208.45114126  77.47515562
3820.00 -208.64750725  77.58742037
3822.00 -208.84392770  77.69978007
3824.00 -209.04040256  77.81223472
3826.00 -209.23693177  77.92478435
3828.00 -209.43351526  78.03742895
3830.00 -209.63015298  78.15016855
3832.00 -209.82684488  78.26300314
3834.00 -210.02359089  78.37593274
3836.00 -210.22039095  78.48895736
3838.00 -210.41724502  78.60207701
3840.00 -210.61415302  78.71529169
3842.00 -210.81111491  78.82860143
3844.00 -211.00813062  78.94200622
3846.00 -211.20520009  79.05550607
3848.00 -211.40232327  79.16910101
3850.00 -211.59950010  79.28279102
3852.00 -211.79673053  79.39657614
3854.00 -211.99401449  79.51045635
3856.00 -212.19135192  79.62443169
3858.00 -212.38874277  79.73850214
3860.00 -212.58618698  79.85266773
3862.00 -212.78368450  79.96692845
3864.00 -212.98123526  80.08128433
3866.00 -213.17883920  80.19573537
3868.00 -213.37649627  80.31028158
3870.00 -213.57420641  80.42492296
3872.00 -213.77196957  80.53965953
3874.00 -213.96978568  80.65449130
3876.00 -214.16765469  80.76941827
3878.00 -214.36557653  80.88444046
3880.00 -214.56355116  80.99955787
3882.00 -214.76157851  81.11477051
3884.00 -214.95965852  81.23007839
3886.00 -215.15779114  81.34548151
3888.00 -215.35597631  81.46097990
3890.00 -215.55421398  81.57657355
3892.00 -215.75250407  81.69226248
3894.00 -215.95084655  81.80804669
3896.00 -216.14924134  81.92392619
3898.00 -216.34768839  82.03990099
3900.00 -216.54618764  82.15597110
3902.00 -216.74473904  82.27213653
3904.00 -216.94334253  82.38839728
3906.00 -217.14199804  82.50475336
3908.00 -217.34070553  82.62120479
3910.00 -217.53946493  82.73775157
3912.00 -217.73827619  82.85439371
3914.00 -217.93713925  82.97113121
3916.00 -218.13605404  83.08796409
3918.00 -218.33502052  83.20489235
3920.00 -218.53403863  83.32191600
3922.00 -218.73310830  83.43903505
3924.00 -218.93222949  83.55624950
3926.00 -219.13140212  83.67355937
3928.00 -219.33062615  83.79096466
3930.00 -219.52990152  83.90846539
3932.00 -219.72922816  84.02606155
3934.00 -219.92860603  84.14375315
3936.00 -220.12803507  84.26154021
3938.00 -220.32751520  84.37942273
3940.00 -220.52704639  84.49740072
3942.00 -220.72662857  84.61547419
3944.00 -220.92626169  84.73364314
3946.00 -221.12594567  84.85190758
3948.00 -221.32568048  84.97026751
3950.00 -221.52546605  85.08872296
3952.00 -221.72530232  85.20727392
3954.00 -221.92518924  85.32592040
3956.00 -222.12512675  85.44466240
3958.00 -222.32511479  85.56349995
3960.00 -222.52515330  85.68243303
3962.00 -222.72524223  85.80146167
3964.00 -222.92538151  85.92058586
3966.00 -223.12557110  86.03980561
3968.00 -223.32581093  86.15912094
3970.00 -223.52610095  86.27853185
3972.00 -223.72644109  86.39803834
3974.00 -223.92683131  86.51764042
3976.00 -224.12727154  86.63733810
3978.00 -224.32776173  86.75713138
3980.00 -224.52830181  86.87702028
3982.00 -224.72889174  86.99700480
3984.00 -224.92953145  87.11708494
3986.00 -225.13022089  87.23726072
3988.00 -225.33096000  87.35753214
3990.00 -225.53174872  87.47789920
3992.00 -225.73258699  87.59836191
3994.00 -225.93347476  87.71892028
3996.00 -226.13441197  87.83957432
3998.00 -226.33539857  87.96032403
4000.00 -226.53643449  88.08116942
4002.00 -226.73751968  88.20211050
4004.00 -226.93865408  88.32314726
4006.00 -227.13983763  88.44427972
4008.00 -227.34107028  88.56550789
4010.00 -227.54235197  88.68683176
4012.00 -227.74368264  88.80825135
4014.00 -227.94506223  88.92976667
4016.00 -228.14649070  89.05137771
4018.00 -228.34796797  89.17308449
4020.00 -228.54949399  89.29488700
4022.00 -228.75106871  89.41678526
4024.00 -228.95269207  89.53877928
4026.00 -229.15436402  89.66086905
4028.00 -229.35608448  89.78305459
4030.00 -229.55785341  89.90533589
4032.00 -229.75967076  90.02771298
4034.00 -229.96153645  90.15018584
4036.00 -230.16345044  90.27275449
4038.00 -230.36541268  90.39541893
4040.00 -230.56742309  90.51817917
4042.00 -230.76948162  90.64103522
4044.00 -230.97158823  90.76398707
4046.00 -231.17374284  90.88703474
4048.00 -231.37594541  91.01017823
4050.00 -231.57819587  91.13341754
4052.00 -231.78049418  91.25675269
4054.00 -231.98284026  91.38018367
4056.00 -232.18523407  91.50371050
4058.00 -232.38767555  91.62733317
4060.00 -232.59016464  91.75105169
4062.00 -232.79270129  91.87486607
4064.00 -232.99528543  91.99877631
4066.00 -233.19791701  92.12278243
4068.00 -233.40059597  92.24688441
4070.00 -233.60332227  92.37108227
4072.00 -233.80609583  92.49537601
4074.00 -234.00891660  92.61976565
4076.00 -234.21178453  92.74425117
4078.00 -234.41469956  92.86883259
4080.00 -234.61766163  92.99350992
4082.00 -234.82067069  93.11828315
4084.00 -235.02372668  93.24315229
4086.00 -235.22682953  93.36811735
4088.00 -235.42997920  93.49317833
4090.00 -235.63317563  93.61833524
4092.00 -235.83641876  93.74358808
4094.00 -236.03970854  93.86893685
4096.00 -236.24304490  93.99438156
4098.00 -236.44642780  94.11992222
4100.00 -236.64985716  94.24555882
4102.00 -236.85333295  94.37129138
4104.00 -237.05685509  94.49711989
4106.00 -237.26042354  94.62304437
4108.00 -237.46403824  94.74906481
4110.00 -237.66769912  94.87518122
4112.00 -237.87140615  95.00139361
4114.00 -238.07515924  95.12770198
4116.00 -238.27895836  95.25410632
4118.00 -238.48280344  95.38060666
4120.00 -238.68669443  95.50720298
4122.00 -238.89063127  95.63389530
4124.00 -239.09461391  95.76068362
4126.00 -239.29864228  95.88756795
4128.00 -239.50271633  96.01454827
4130.00 -239.70683600  96.14162461
4132.00 -239.91100125  96.26879697
4134.00 -240.11521200  96.39606534
4136.00 -240.31946821  96.52342973
4138.00 -240.52376982  96.65089015
4140.00 -240.72811677  96.77844660
4142.00 -240.93250900  96.90609908
4144.00 -241.13694647  97.03384760
4146.00 -241.34142910  97.16169215
4148.00 -241.54595685  97.28963276
4150.00 -241.75052966  97.41766940
4152.00 -241.95514747  97.54580210
4154.00 -242.15981023  97.67403086
4156.00 -242.36451788  97.80235567
4158.00 -242.56927036  97.93077654
4160.00 -242.77406762  98.05929347
4162.00 -242.97890960  98.18790647
4164.00 -243.18379625  98.31661554
4166.00 -243.38872750  98.44542069
4168.00 -243.59370330  98.57432191
4170.00 -243.79872360  98.70331921
4172.00 -244.00378834  98.83241260
4174.00 -244.20889746  98.96160207
4176.00 -244.41405091  99.09088763
4178.00 -244.61924863  99.22026928
4180.00 -244.82449056  99.34974703
4182.00 -245.02977665  99.47932087
4184.00 -245.23510684  99.60899081
4186.00 -245.44048108  99.73875686
4188.00 -245.64589931  99.86861902
4190.00 -245.85136147  99.99857728
4192.00 -246.05686750 100.12863165
4194.00 -246.26241736 100.25878214
4196.00 -246.46801098 100.38902874
4198.00 -246.67364831 100.51937147
4200.00 -246.87932929 100.64981031
4202.00 -247.08505386 100.78034528
4204.00 -247.29082198 100.91097638
4206.00 -247.49663358 101.04170360
4208.00 -247.70248861 101.17252696
4210.00 -247.90838701 101.30344645
4212.00 -248.11432873 101.43446208
4214.00 -248.32031370 101.56557384
4216.00 -248.52634188 101.69678175
4218.00 -248.73241321 101.82808579
4220.00 -248.93852762 101.95948599
4222.00 -249.14468508 102.09098233
4224.00 -249.35088551 102.22257482
4226.00 -249.55712887 102.35426346
4228.00 -249.76341509 102.48604825
4230.00 -249.96974413 102.61792920
4232.00 -250.17611592 102.74990631
4234.00 -250.38253041 102.88197958
4236.00 -250.58898755 103.01414900
4238.00 -250.79548728 103.14641459
4240.00 -251.00202953 103.27877635
4242.00 -251.20861427 103.41123427
4244.00 -251.41524142 103.54378836
4246.00 -251.62191094 103.67643862
4248.00 -251.82862277 103.80918505
4250.00 -252.03537685 103.94202765
4252.00 -252.24217313 104.07496643
4254.00 -252.44901155 104.20800138
4256.00 -252.65589206 104.34113251
4258.00 -252.86281459 104.47435982
4260.00 -253.06977910 104.60768331
4262.00 -253.27678554 104.74110298
4264.00 -253.48383383 104.87461884
4266.00 -253.69092393 105.00823087
4268.00 -253.89805578 105.14193910
4270.00 -254.10522933 105.27574351
4272.00 -254.31244452 105.40964411
4274.00 -254.51970130 105.54364090
4276.00 -254.72699960 105.67773388
4278.00 -254.93433938 105.81192305
4280.00 -255.14172057 105.94620841
4282.00 -255.34914313 106.08058997
4284.00 -255.55660700 106.21506772
4286.00 -255.76411211 106.34964167
4288.00 -255.97165843 106.48431181
4290.00 -256.17924588 106.61907815
4292.00 -256.38687442 106.75394069
4294.00 -256.59454398 106.88889943
4296.00 -256.80225453 107.02395436
4298.00 -257.01000598 107.15910550
4300.00 -257.21779831 107.29435284
4302.00 -257.42563144 107.42969638
4304.00 -257.63350532 107.56513612
4306.00 -257.84141990 107.70067207
4308.00 -258.04937512 107.83630421
4310.00 -258.25737093 107.97203257
4312.00 -258.46540727 108.10785712
4314.00 -258.67348408 108.24377788
4316.00 -258.88160132 108.37979485
4318.00 -259.08975891 108.51590802
4320.00 -259.29795682 108.65211740
4322.00 -259.50619498 108.78842298
4324.00 -259.71447335 108.92482477
4326.00 -259.92279185 109.06132276
4328.00 -260.13115044 109.19791697
4330.00 -260.33954907 109.33460738
4332.00 -260.54798768 109.47139399
4334.00 -260.75646620 109.60827682
4336.00 -260.96498460 109.74525585
4338.00 -261.17354281 109.88233108
4340.00 -261.38214077 110.01950253
4342.00 -261.59077844 110.15677018
4344.00 -261.79945576 110.29413404
4346.00 -262.00817266 110.43159410
4348.00 -262.21692911 110.56915037
4350.00 -262.42572503 110.70680285
4352.00 -262.63456039 110.84455153
4354.00 -262.84343511 110.98239642
4356.00 -263.05234915 111.12033752
4358.00 -263.26130246 111.25837482
4360.00 -263.47029497 111.39650832
4362.00 -263.67932663 111.53473803
4364.00 -263.88839739 111.67306394
4366.00 -264.09750719 111.81148605
4368.00 -264.30665598 111.95000437
4370.00 -264.51584370 112.08861889
4372.00 -264.72507029 112.22732961
4374.00 -264.93433571 112.36613653
4376.00 -265.14363990 112.50503966
4378.00 -265.35298280 112.64403898
4380.00 -265.56236436 112.78313450
4382.00 -265.77178452 112.92232621
4384.00 -265.98124323 113.06161413
4386.00 -266.19074043 113.20099824
4388.00 -266.40027607 113.34047854
4390.00 -266.60985009 113.48005504
4392.00 -266.81946244 113.61972774
4394.00 -267.02911307 113.75949662
4396.00 -267.23880192 113.89936170
4398.00 -267.44852893 114.03932297
4400.00 -267.65829405 114.17938042
4402.00 -267.86809723 114.31953407
4404.00 -268.07793841 114.45978390
4406.00 -268.28781753 114.60012991
4408.00 -268.49773455 114.74057212
4410.00 -268.70768940 114.88111050
4412.00 -268.91768204 115.02174506
4414.00 -269.12771240 115.16247581
4416.00 -269.33778044 115.30330274
4418.00 -269.54788609 115.44422584
4420.00 -269.75802931 115.58524512
4422.00 -269.96821004 115.72636057
4424.00 -270.17842823 115.86757219
4426.00 -270.38868381 116.00887999
4428.00 -270.59897674 116.15028396
4430.00 -270.80930697 116.29178409
4432.00 -271.01967443 116.43338040
4434.00 -271.23007907 116.57507286
4436.00 -271.44052084 116.71686149
4438.00 -271.65099969 116.85874628
4440.00 -271.86151556 117.00072723
4442.00 -272.07206839 117.14280434
4444.00 -272.28265813 117.28497761
4446.00 -272.49328473 117.42724703
4448.00 -272.70394813 117.56961260
4450.00 -272.91464828 117.71207432
4452.00 -273.12538513 117.85463218
4454.00 -273.33615861 117.99728620
4456.00 -273.54696868 118.14003635
4458.00 -273.75781528 118.28288265
4460.00 -273.96869836 118.42582509
4462.00 -274.17961786 118.56886367
4464.00 -274.39057373 118.71199838
4466.00 -274.60156592 118.85522922
4468.00 -274.81259436 118.99855620
4470.00 -275.02365901 119.14197930
4472.00 -275.23475981 119.28549853
4474.00 -275.44589672 119.42911388
4476.00 -275.65706966 119.57282535
4478.00 -275.86827860 119.71663294
4480.00 -276.07952347 119.86053665
4482.00 -276.29080422 120.00453647
4484.00 -276.50212080 120.14863241
4486.00 -276.71347316 120.29282445
4488.00 -276.92486123 120.43711259
4490.00 -277.13628497 120.58149684
4492.00 -277.34774432 120.72597719
4494.00 -277.55923923 120.87055364
4496.00 -277.77076965 121.01522618
4498.00 -277.98233551 121.15999481
4500.00 -278.19393678 121.30485954
4502.00 -278.40557338 121.44982035
4504.00 -278.61724527 121.59487724
4506.00 -278.82895240 121.74003021
4508.00 -279.04069471 121.88527926
4510.00 -279.25247215 122.03062439
4512.00 -279.46428466 122.17606558
4514.00 -279.67613219 122.32160285
4516.00 -279.88801468 122.46723618
4518.00 -280.09993209 122.61296557
4520.00 -280.31188436 122.75879102
4522.00 -280.52387143 122.90471253
4524.00 -280.73589325 123.05073009
4526.00 -280.94794977 123.19684370
4528.00 -281.16004094 123.34305335
4530.00 -281.37216669 123.48935905
4532.00 -281.58432698 123.63576079
4534.00 -281.79652176 123.78225856
4536.00 -282.00875096 123.92885236
4538.00 -282.22101454 124.07554219
4540.00 -282.43331244 124.22232805
4542.00 -282.64564462 124.36920993
4544.00 -282.85801100 124.51618783
4546.00 -283.07041155 124.66326174
4548.00 -283.28284621 124.81043166
4550.00 -283.49531492 124.95769760
4552.00 -283.70781764 125.10505953
4554.00 -283.92035430 125.25251746
4556.00 -284.13292486 125.40007139
4558.00 -284.34552926 125.54772131
4560.00 -284.55816745 125.69546722
4562.00 -284.77083937 125.84330912
4564.00 -284.98354497 125.99124699
4566.00 -285.19628421 126.13928084
4568.00 -285.40905701 126.28741067
4570.00 -285.62186334 126.43563646
4572.00 -285.83470314 126.58395822
4574.00 -286.04757635 126.73237594
4576.00 -286.26048292 126.88088961
4578.00 -286.47342281 127.02949924
4580.00 -286.68639594 127.17820481
4582.00 -286.89940228 127.32700633
4584.00 -287.11244177 127.47590378
4586.00 -287.32551436 127.62489718
4588.00 -287.53861999 127.77398650
4590.00 -287.75175861 127.92317175
4592.00 -287.96493016 128.07245292
4594.00 -288.17813460 128.22183001
4596.00 -288.39137187 128.37130301
4598.00 -288.60464192 128.52087193
4600.00 -288.81794469 128.67053674
4602.00 -289.03128013 128.82029746
4604.00 -289.24464819 128.97015407
4606.00 -289.45804882 129.12010657
4608.00 -289.67148196 129.27015496
4610.00 -289.88494756 129.42029923
4612.00 -290.09844557 129.57053938
4614.00 -290.31197593 129.72087539
4616.00 -290.52553859 129.87130728
4618.00 -290.73913350 130.02183503
4620.00 -290.95276061 130.17245863
4622.00 -291.16641986 130.32317809
4624.00 -291.38011119 130.47399339
4626.00 -291.59383457 130.62490454
4628.00 -291.80758993 130.77591153
4630.00 -292.02137722 130.92701435
4632.00 -292.23519639 131.07821299
4634.00 -292.44904739 131.22950746
4636.00 -292.66293016 131.38089775
4638.00 -292.87684465 131.53238385
4640.00 -293.09079081 131.68396576
4642.00 -293.30476859 131.83564347
4644.00 -293.51877793 131.98741697
4646.00 -293.73281877 132.13928627
4648.00 -293.94689108 132.29125135
4650.00 -294.16099479 132.44331222
4652.00 -294.37512986 132.59546886
4654.00 -294.58929622 132.74772127
4656.00 -294.80349383 132.90006945
4658.00 -295.01772264 133.05251338
4660.00 -295.23198259 133.20505307
4662.00 -295.44627363 133.35768851
4664.00 -295.66059571 133.51041969
4666.00 -295.87494877 133.66324661
4668.00 -296.08933277 133.81616926
4670.00 -296.30374765 133.96918764
4672.00 -296.51819335 134.12230174
4674.00 -296.73266983 134.27551155
4676.00 -296.94717704 134.42881707
4678.00 -297.16171492 134.58221830
4680.00 -297.37628341 134.73571522
4682.00 -297.59088248 134.88930783
4684.00 -297.80551205 135.04299613
4686.00 -298.02017209 135.19678011
4688.00 -298.23486254 135.35065977
4690.00 -298.44958335 135.50463509
4692.00 -298.66433446 135.65870607
4694.00 -298.87911583 135.81287271
4696.00 -299.09392740 135.96713500
4698.00 -299.30876912 136.12149294
4700.00 -299.52364093 136.27594651
4702.00 -299.73854280 136.43049571
4704.00 -299.95347465 136.58514054
4706.00 -300.16843644 136.73988099
4708.00 -300.38342813 136.89471705
4710.00 -300.59844965 137.04964872
4712.00 -300.81350096 137.20467599
4714.00 -301.02858200 137.35979885
4716.00 -301.24369272 137.51501730
4718.00 -301.45883307 137.67033134
4720.00 -301.67400300 137.82574094
4722.00 -301.88920245 137.98124612
4724.00 -302.10443138 138.13684686
4726.00 -302.31968973 138.29254315
4728.00 -302.53497744 138.44833500
4730.00 -302.75029448 138.60422238
4732.00 -302.96564079 138.76020530
4734.00 -303.18101630 138.91628375
4736.00 -303.39642098 139.07245772
4738.00 -303.61185478 139.22872721
4740.00 -303.82731763 139.38509221
4742.00 -304.04280949 139.54155271
4744.00 -304.25833030 139.69810870
4746.00 -304.47388002 139.85476019
4748.00 -304.68945859 140.01150715
4750.00 -304.90506597 140.16834960
4752.00 -305.12070209 140.32528750
4754.00 -305.33636691 140.48232087
4756.00 -305.55206038 140.63944970
4758.00 -305.76778244 140.79667397
4760.00 -305.98353305 140.95399368
4762.00 -306.19931214 141.11140882
4764.00 -306.41511968 141.26891939
4766.00 -306.63095561 141.42652538
4768.00 -306.84681987 141.58422678
4770.00 -307.06271242 141.74202359
4772.00 -307.27863321 141.89991579
4774.00 -307.49458218 142.05790338
4776.00 -307.71055928 142.21598636
4778.00 -307.92656446 142.37416471
4780.00 -308.14259767 142.53243842
4782.00 -308.35865885 142.69080750
4784.00 -308.57474797 142.84927193
4786.00 -308.79086496 143.00783171
4788.00 -309.00700977 143.16648683
4790.00 -309.22318235 143.32523727
4792.00 -309.43938266 143.48408304
4794.00 -309.65561064 143.64302413
4796.00 -309.87186624 143.80206052
4798.00 -310.08814940 143.96119222
4800.00 -310.30446008 144.12041920
4802.00 -310.52079823 144.27974148
4804.00 -310.73716380 144.43915902
4806.00 -310.95355672 144.59867184
4808.00 -311.16997696 144.75827992
4810.00 -311.38642446 144.91798326
4812.00 -311.60289917 145.07778184
4814.00 -311.81940104 145.23767566
4816.00 -312.03593002 145.39766471
4818.00 -312.25248606 145.55774899
4820.00 -312.46906910 145.71792847
4822.00 -312.68567910 145.87820317
4824.00 -312.90231601 146.03857306
4826.00 -313.11897977 146.19903815
4828.00 -313.33567033 146.35959841
4830.00 -313.55238764 146.52025386
4832.00 -313.76913166 146.68100446
4834.00 -313.98590232 146.84185023
4836.00 -314.20269959 147.00279115
4838.00 -314.41952341 147.16382720
4840.00 -314.63637372 147.32495840
4842.00 -314.85325048 147.48618471
4844.00 -315.07015364 147.64750615
4846.00 -315.28708314 147.80892269
4848.00 -315.50403895 147.97043433
4850.00 -315.72102099 148.13204107
4852.00 -315.93802923 148.29374289
4854.00 -316.15506361 148.45553978
4856.00 -316.37212409 148.61743174
4858.00 -316.58921061 148.77941876
4860.00 -316.80632312 148.94150083
4862.00 -317.02346158 149.10367794
4864.00 -317.24062592 149.26595008
4866.00 -317.45781611 149.42831724
4868.00 -317.67503208 149.59077942
4870.00 -317.89227380 149.75333661
4872.00 -318.10954120 149.91598879
4874.00 -318.32683425 150.07873597
4876.00 -318.54415288 150.24157812
4878.00 -318.76149705 150.40451524
4880.00 -318.97886671 150.56754733
4882.00 -319.19626181 150.73067437
4884.00 -319.41368229 150.89389636
4886.00 -319.63112811 151.05721328
4888.00 -319.84859922 151.22062513
4890.00 -320.06609556 151.38413190
4892.00 -320.28361709 151.54773357
4894.00 -320.50116376 151.71143015
4896.00 -320.71873551 151.87522162
4898.00 -320.93633230 152.03910796
4900.00 -321.15395407 152.20308918
4902.00 -321.37160078 152.36716527
4904.00 -321.58927238 152.53133621
4906.00 -321.80696881 152.69560199
4908.00 -322.02469002 152.85996261
4910.00 -322.24243597 153.02441806
4912.00 -322.46020661 153.18896832
4914.00 -322.67800188 153.35361340
4916.00 -322.89582174 153.51835327
4918.00 -323.11366613 153.68318793
4920.00 -323.33153501 153.84811737
4922.00 -323.54942832 154.01314158
4924.00 -323.76734602 154.17826055
4926.00 -323.98528806 154.34347427
4928.00 -324.20325438 154.50878274
4930.00 -324.42124494 154.67418593
4932.00 -324.63925968 154.83968385
4934.00 -324.85729856 155.00527649
4936.00 -325.07536153 155.17096383
4938.00 -325.29344853 155.33674586
4940.00 -325.51155952 155.50262257
4942.00 -325.72969445 155.66859396
4944.00 -325.94785327 155.83466002
4946.00 -326.16603593 156.00082073
4948.00 -326.38424237 156.16707608
4950.00 -326.60247255 156.33342607
4952.00 -326.82072643 156.49987069
4954.00 -327.03900394 156.66640992
4956.00 -327.25730504 156.83304376
4958.00 -327.47562969 156.99977219
4960.00 -327.69397782 157.16659521
4962.00 -327.91234940 157.33351281
4964.00 -328.13074437 157.50052497
4966.00 -328.34916268 157.66763169
4968.00 -328.56760429 157.83483295
4970.00 -328.78606914 158.00212875
4972.00 -329.00455718 158.16951907
4974.00 -329.22306837 158.33700391
4976.00 -329.44160266 158.50458325
4978.00 -329.66015999 158.67225709
4980.00 -329.87874032 158.84002541
4982.00 -330.09734360 159.00788821
4984.00 -330.31596978 159.17584547
4986.00 -330.53461880 159.34389719
4988.00 -330.75329063 159.51204335
4990.00 -330.97198521 159.68028394
4992.00 -331.19070249 159.84861896
4994.00 -331.40944242 160.01704838
4996.00 -331.62820496 160.18557221
4998.00 -331.84699005 160.35419043
5000.00 -332.06579765 160.52290303
