wavelength(nm)         real         imag
100.00   3.81283875   0.00083290
102.00   3.80931777   0.00088388
104.00   3.80572710   0.00093690
106.00   3.80206673   0.00099199
108.00   3.79833667   0.00104920
110.00   3.79453692   0.00110858
112.00   3.79066747   0.00117014
114.00   3.78672834   0.00123395
116.00   3.78271953   0.00130004
118.00   3.77864103   0.00136844
120.00   3.77449285   0.00143920
122.00   3.77027499   0.00151236
124.00   3.76598745   0.00158796
126.00   3.76163023   0.00166603
128.00   3.75720334   0.00174663
130.00   3.75270678   0.00182978
132.00   3.74814054   0.00191552
134.00   3.74350464   0.00200391
136.00   3.73879907   0.00209497
138.00   3.73402383   0.00218875
140.00   3.72917893   0.00228529
142.00   3.72426437   0.00238462
144.00   3.71928016   0.00248680
146.00   3.71422628   0.00259185
148.00   3.70910276   0.00269981
150.00   3.70390958   0.00281073
152.00   3.69864675   0.00292465
154.00   3.69331428   0.00304161
156.00   3.68791216   0.00316164
158.00   3.68244039   0.00328479
160.00   3.67689899   0.00341109
162.00   3.67128795   0.00354059
164.00   3.66560727   0.00367333
166.00   3.65985697   0.00380934
168.00   3.65403703   0.00394867
170.00   3.64814746   0.00409136
172.00   3.64218827   0.00423744
174.00   3.63615946   0.00438695
176.00   3.63006103   0.00453994
178.00   3.62389298   0.00469645
180.00   3.61765531   0.00485651
182.00   3.61134804   0.00502016
184.00   3.60497115   0.00518745
186.00   3.59852466   0.00535842
188.00   3.59200857   0.00553310
190.00   3.58542287   0.00571153
192.00   3.57876758   0.00589376
194.00   3.57204269   0.00607982
196.00   3.56524821   0.00626976
198.00   3.55838415   0.00646361
200.00   3.55145049   0.00666141
202.00   3.54444726   0.00686321
204.00   3.53737444   0.00706904
206.00   3.53023205   0.00727894
208.00   3.52302009   0.00749296
210.00   3.51573855   0.00771113
212.00   3.50838745   0.00793349
214.00   3.50096678   0.00816009
216.00   3.49347656   0.00839095
218.00   3.48591677   0.00862613
220.00   3.47828743   0.00886566
222.00   3.47058854   0.00910958
224.00   3.46282011   0.00935794
226.00   3.45498213   0.00961076
228.00   3.44707461   0.00986810
230.00   3.43909755   0.01012998
232.00   3.43105096   0.01039646
234.00   3.42293484   0.01066757
236.00   3.41474919   0.01094335
238.00   3.40649402   0.01122384
240.00   3.39816933   0.01150907
242.00   3.38977513   0.01179910
244.00   3.38131141   0.01209396
246.00   3.37277819   0.01239368
248.00   3.36417546   0.01269832
250.00   3.35550323   0.01300790
252.00   3.34676150   0.01332247
254.00   3.33795028   0.01364207
256.00   3.32906957   0.01396674
258.00   3.32011938   0.01429652
260.00   3.31109970   0.01463144
262.00   3.30201055   0.01497155
264.00   3.29285192   0.01531689
266.00   3.28362382   0.01566749
268.00   3.27432626   0.01602340
270.00   3.26495924   0.01638465
272.00   3.25552276   0.01675130
274.00   3.24601682   0.01712336
276.00   3.23644144   0.01750090
278.00   3.22679661   0.01788393
280.00   3.21708235   0.01827251
282.00   3.20729864   0.01866668
284.00   3.19744550   0.01906647
286.00   3.18752294   0.01947192
288.00   3.17753095   0.01988308
290.00   3.16746955   0.02029998
292.00   3.15733872   0.02072266
294.00   3.14713849   0.02115117
296.00   3.13686885   0.02158554
298.00   3.12652982   0.02202580
300.00   3.11612138   0.02247201
302.00   3.10564355   0.02292421
304.00   3.09509634   0.02338242
306.00   3.08447974   0.02384669
308.00   3.07379376   0.02431706
310.00   3.06303841   0.02479358
312.00   3.05221369   0.02527627
314.00   3.04131961   0.02576518
316.00   3.03035617   0.02626035
318.00   3.01932337   0.02676181
320.00   3.00822122   0.02726962
322.00   2.99704973   0.02778380
324.00   2.98580890   0.02830440
326.00   2.97449873   0.02883145
328.00   2.96311923   0.02936501
330.00   2.95167040   0.02990509
332.00   2.94015226   0.03045176
334.00   2.92856480   0.03100504
336.00   2.91690803   0.03156497
338.00   2.90518196   0.03213160
340.00   2.89338658   0.03270496
342.00   2.88152191   0.03328509
344.00   2.86958795   0.03387204
346.00   2.85758471   0.03446584
348.00   2.84551219   0.03506653
350.00   2.83337039   0.03567415
352.00   2.82115933   0.03628874
354.00   2.80887900   0.03691035
356.00   2.79652941   0.03753900
358.00   2.78411057   0.03817474
360.00   2.77162248   0.03881762
362.00   2.75906516   0.03946766
364.00   2.74643859   0.04012491
366.00   2.73374280   0.04078940
368.00   2.72097778   0.04146119
370.00   2.70814354   0.04214030
372.00   2.69524009   0.04282678
374.00   2.68226742   0.04352066
376.00   2.66922556   0.04422199
378.00   2.65611450   0.04493080
380.00   2.64293425   0.04564714
382.00   2.62968481   0.04637103
384.00   2.61636619   0.04710254
386.00   2.60297840   0.04784168
388.00   2.58952144   0.04858851
390.00   2.57599532   0.04934306
392.00   2.56240004   0.05010537
394.00   2.54873561   0.05087548
396.00   2.53500204   0.05165342
398.00   2.52119933   0.05243925
400.00   2.50732749   0.05323300
402.00   2.49338652   0.05403470
404.00   2.47937643   0.05484440
406.00   2.46529722   0.05566214
408.00   2.45114891   0.05648795
410.00   2.43693150   0.05732188
412.00   2.42264499   0.05816397
414.00   2.40828939   0.05901424
416.00   2.39386471   0.05987276
418.00   2.37937095   0.06073954
420.00   2.36480812   0.06161464
422.00   2.35017623   0.06249808
424.00   2.33547528   0.06338992
426.00   2.32070528   0.06429019
428.00   2.30586623   0.06519893
430.00   2.29095815   0.06611618
432.00   2.27598103   0.06704197
434.00   2.26093489   0.06797635
436.00   2.24581973   0.06891936
438.00   2.23063556   0.06987104
440.00   2.21538238   0.07083142
442.00   2.20006020   0.07180055
444.00   2.18466903   0.07277846
446.00   2.16920888   0.07376519
448.00   2.15367974   0.07476078
450.00   2.13808164   0.07576528
452.00   2.12241456   0.07677872
454.00   2.10667853   0.07780114
456.00   2.09087355   0.07883257
458.00   2.07499963   0.07987307
460.00   2.05905676   0.08092266
462.00   2.04304497   0.08198139
464.00   2.02696425   0.08304930
466.00   2.01081462   0.08412642
468.00   1.99459607   0.08521280
470.00   1.97830862   0.08630847
472.00   1.96195228   0.08741348
474.00   1.94552705   0.08852785
476.00   1.92903294   0.08965164
478.00   1.91246995   0.09078488
480.00   1.89583810   0.09192761
482.00   1.87913738   0.09307987
484.00   1.86236782   0.09424169
486.00   1.84552941   0.09541313
488.00   1.82862216   0.09659421
490.00   1.81164608   0.09778497
492.00   1.79460118   0.09898546
494.00   1.77748746   0.10019571
496.00   1.76030493   0.10141577
498.00   1.74305361   0.10264567
500.00   1.72573349   0.10388545
502.00   1.70834458   0.10513515
504.00   1.69088690   0.10639480
506.00   1.67336044   0.10766446
508.00   1.65576523   0.10894415
510.00   1.63810125   0.11023392
512.00   1.62036854   0.11153381
514.00   1.60256708   0.11284385
516.00   1.58469689   0.11416408
518.00   1.56675797   0.11549455
520.00   1.54875034   0.11683529
522.00   1.53067400   0.11818633
524.00   1.51252896   0.11954773
526.00   1.49431522   0.12091952
528.00   1.47603281   0.12230173
530.00   1.45768171   0.12369441
532.00   1.43926195   0.12509759
534.00   1.42077352   0.12651132
536.00   1.40221644   0.12793563
538.00   1.38359072   0.12937057
540.00   1.36489636   0.13081616
542.00   1.34613337   0.13227246
544.00   1.32730176   0.13373950
546.00   1.30840154   0.13521731
548.00   1.28943271   0.13670594
550.00   1.27039529   0.13820543
552.00   1.25128928   0.13971581
554.00   1.23211470   0.14123712
556.00   1.21287154   0.14276941
558.00   1.19355982   0.14431270
560.00   1.17417954   0.14586705
562.00   1.15473072   0.14743249
564.00   1.13521336   0.14900905
566.00   1.11562747   0.15059679
568.00   1.09597307   0.15219572
570.00   1.07625015   0.15380591
572.00   1.05645873   0.15542737
574.00   1.03659881   0.15706016
576.00   1.01667041   0.15870430
578.00   0.99667353   0.16035985
580.00   0.97660818   0.16202684
582.00   0.95647437   0.16370530
584.00   0.93627211   0.16539528
586.00   0.91600141   0.16709681
588.00   0.89566227   0.16880994
590.00   0.87525471   0.17053470
592.00   0.85477874   0.17227113
594.00   0.83423435   0.17401927
596.00   0.81362157   0.17577915
598.00   0.79294040   0.17755083
600.00   0.77219085   0.17933433
602.00   0.75137293   0.18112969
604.00   0.73048665   0.18293696
606.00   0.70953201   0.18475617
608.00   0.68850903   0.18658736
610.00   0.66741771   0.18843057
612.00   0.64625807   0.19028583
614.00   0.62503011   0.19215320
616.00   0.60373385   0.19403270
618.00   0.58236929   0.19592437
620.00   0.56093643   0.19782825
622.00   0.53943530   0.19974438
624.00   0.51786590   0.20167281
626.00   0.49622824   0.20361356
628.00   0.47452233   0.20556668
630.00   0.45274817   0.20753220
632.00   0.43090578   0.20951017
634.00   0.40899517   0.21150062
636.00   0.38701635   0.21350359
638.00   0.36496932   0.21551912
640.00   0.34285410   0.21754724
642.00   0.32067069   0.21958801
644.00   0.29841910   0.22164145
646.00   0.27609935   0.22370760
648.00   0.25371145   0.22578650
650.00   0.23125540   0.22787819
652.00   0.20873121   0.22998272
654.00   0.18613890   0.23210011
656.00   0.16347846   0.23423040
658.00   0.14074992   0.23637364
660.00   0.11795329   0.23852986
662.00   0.09508856   0.24069911
664.00   0.07215576   0.24288141
666.00   0.04915489   0.24507681
668.00   0.02608597   0.24728534
670.00   0.00294899   0.24950705
672.00  -0.02025602   0.25174198
674.00  -0.04352906   0.25399015
676.00  -0.06687012   0.25625161
678.00  -0.09027918   0.25852641
680.00  -0.11375624   0.26081456
682.00  -0.13730129   0.26311613
684.00  -0.16091432   0.26543113
686.00  -0.18459531   0.26775962
688.00  -0.20834426   0.27010163
690.00  -0.23216116   0.27245719
692.00  -0.25604599   0.27482635
694.00  -0.27999874   0.27720915
696.00  -0.30401942   0.27960561
698.00  -0.32810799   0.28201579
700.00  -0.35226446   0.28443972
702.00  -0.37648882   0.28687743
704.00  -0.40078105   0.28932897
706.00  -0.42514114   0.29179438
708.00  -0.44956908   0.29427368
710.00  -0.47406487   0.29676693
712.00  -0.49862849   0.29927415
714.00  -0.52325993   0.30179539
716.00  -0.54795918   0.30433069
718.00  -0.57272622   0.30688008
720.00  -0.59756106   0.30944360
722.00  -0.62246367   0.31202128
724.00  -0.64743405   0.31461318
726.00  -0.67247219   0.31721932
728.00  -0.69757808   0.31983974
730.00  -0.72275169   0.32247449
732.00  -0.74799304   0.32512359
734.00  -0.77330209   0.32778709
736.00  -0.79867885   0.33046503
738.00  -0.82412329   0.33315744
740.00  -0.84963542   0.33586437
742.00  -0.87521522   0.33858584
744.00  -0.90086267   0.34132190
746.00  -0.92657778   0.34407258
748.00  -0.95236051   0.34683793
750.00  -0.97821088   0.34961799
752.00  -1.00412885   0.35241278
754.00  -1.03011443   0.35522235
756.00  -1.05616760   0.35804673
758.00  -1.08228835   0.36088597
760.00  -1.10847667   0.36374010
762.00  -1.13473254   0.36660916
764.00  -1.16105596   0.36949318
766.00  -1.18744692   0.37239222
768.00  -1.21390540   0.37530629
770.00  -1.24043139   0.37823545
772.00  -1.26702488   0.38117972
774.00  -1.29368586   0.38413915
776.00  -1.32041432   0.38711378
778.00  -1.34721024   0.39010363
780.00  -1.37407362   0.39310876
782.00  -1.40100444   0.39612920
784.00  -1.42800269   0.39916498
786.00  -1.45506836   0.40221614
788.00  -1.48220144   0.40528273
790.00  -1.50940192   0.40836478
792.00  -1.53666978   0.41146232
794.00  -1.56400501   0.41457540
796.00  -1.59140760   0.41770405
798.00  -1.61887754   0.42084831
800.00  -1.64641482   0.42400821
802.00  -1.67401943   0.42718381
804.00  -1.70169135   0.43037512
806.00  -1.72943057   0.43358220
808.00  -1.75723708   0.43680507
810.00  -1.78511087   0.44004378
812.00  -1.81305192   0.44329837
814.00  -1.84106023   0.44656887
816.00  -1.86913577   0.44985531
818.00  -1.89727855   0.45315774
820.00  -1.92548855   0.45647620
822.00  -1.95376575   0.45981072
824.00  -1.98211014   0.46316134
826.00  -2.01052172   0.46652809
828.00  -2.03900046   0.46991102
830.00  -2.06754636   0.47331016
832.00  -2.09615941   0.47672555
834.00  -2.12483958   0.48015723
836.00  -2.15358688   0.48360523
838.00  -2.18240128   0.48706960
840.00  -2.21128278   0.49055036
842.00  -2.24023136   0.49404756
844.00  -2.26924701   0.49756124
846.00  -2.29832972   0.50109143
848.00  -2.32747947   0.50463816
850.00  -2.35669625   0.50820149
852.00  -2.38598006   0.51178143
854.00  -2.41533087   0.51537804
856.00  -2.44474868   0.51899135
858.00  -2.47423346   0.52262140
860.00  -2.50378522   0.52626822
862.00  -2.53340394   0.52993185
864.00  -2.56308959   0.53361233
866.00  -2.59284218   0.53730969
868.00  -2.62266169   0.54102398
870.00  -2.65254811   0.54475522
872.00  -2.68250141   0.54850347
874.00  -2.71252160   0.55226875
876.00  -2.74260865   0.55605110
878.00  -2.77276256   0.55985057
880.00  -2.80298331   0.56366717
882.00  -2.83327088   0.56750097
884.00  -2.86362528   0.57135198
886.00  -2.89404647   0.57522025
888.00  -2.92453445   0.57910582
890.00  -2.95508921   0.58300872
892.00  -2.98571073   0.58692899
894.00  -3.01639901   0.59086667
896.00  -3.04715401   0.59482179
898.00  -3.07797575   0.59879439
900.00  -3.10886419   0.60278452
902.00  -3.13981933   0.60679219
904.00  -3.17084115   0.61081746
906.00  -3.20192965   0.61486036
908.00  -3.23308480   0.61892093
910.00  -3.26430659   0.62299920
912.00  -3.29559502   0.62709521
914.00  -3.32695006   0.63120900
916.00  -3.35837170   0.63534060
918.00  -3.38985994   0.63949006
920.00  -3.42141475   0.64365741
922.00  -3.45303612   0.64784268
924.00  -3.48472405   0.65204591
926.00  -3.51647851   0.65626715
928.00  -3.54829949   0.66050642
930.00  -3.58018698   0.66476376
932.00  -3.61214097   0.66903922
934.00  -3.64416144   0.67333282
936.00  -3.67624838   0.67764461
938.00  -3.70840177   0.68197462
940.00  -3.74062160   0.68632288
942.00  -3.77290785   0.69068944
944.00  -3.80526052   0.69507434
946.00  -3.83767959   0.69947760
948.00  -3.87016504   0.70389927
950.00  -3.90271687   0.70833938
952.00  -3.93533505   0.71279797
954.00  -3.96801957   0.71727508
956.00  -4.00077042   0.72177073
958.00  -4.03358759   0.72628498
960.00  -4.06647106   0.73081786
962.00  -4.09942082   0.73536939
964.00  -4.13243685   0.73993963
966.00  -4.16551914   0.74452860
968.00  -4.19866767   0.74913635
970.00  -4.23188244   0.75376290
972.00  -4.26516342   0.75840830
974.00  -4.29851060   0.76307259
976.00  -4.33192397   0.76775579
978.00  -4.36540351   0.77245795
980.00  -4.39894922   0.77717911
982.00  -4.43256107   0.78191929
984.00  -4.46623905   0.78667854
986.00  -4.49998314   0.79145689
988.00  -4.53379334   0.79625438
990.00  -4.56766962   0.80107104
992.00  -4.60161198   0.80590692
994.00  -4.63562040   0.81076205
996.00  -4.66969486   0.81563646
998.00  -4.70383535   0.82053019
1000.00  -4.73804186   0.82544328
1002.00  -4.77231436   0.83037577
1004.00  -4.80665285   0.83532769
1006.00  -4.84105732   0.84029907
1008.00  -4.87552774   0.84528996
1010.00  -4.91006410   0.85030038
1012.00  -4.94466638   0.85533039
1014.00  -4.97933458   0.86038001
1016.00  -5.01406868   0.86544927
1018.00  -5.04886866   0.87053823
1020.00  -5.08373451   0.87564690
1022.00  -5.11866621   0.88077533
1024.00  -5.15366375   0.88592356
1026.00  -5.18872711   0.89109162
1028.00  -5.22385629   0.89627954
1030.00  -5.25905125   0.90148737
1032.00  -5.29431199   0.90671514
1034.00  -5.32963850   0.91196288
1036.00  -5.36503075   0.91723064
1038.00  -5.40048874   0.92251845
1040.00  -5.43601245   0.92782633
1042.00  -5.47160186   0.93315434
1044.00  -5.50725695   0.93850251
1046.00  -5.54297772   0.94387087
1048.00  -5.57876415   0.94925946
1050.00  -5.61461622   0.95466831
1052.00  -5.65053391   0.96009747
1054.00  -5.68651722   0.96554696
1056.00  -5.72256613   0.97101683
1058.00  -5.75868061   0.97650710
1060.00  -5.79486066   0.98201782
1062.00  -5.83110627   0.98754903
1064.00  -5.86741740   0.99310075
1066.00  -5.90379406   0.99867302
1068.00  -5.94023622   1.00426589
1070.00  -5.97674387   1.00987938
1072.00  -6.01331699   1.01551353
1074.00  -6.04995557   1.02116838
1076.00  -6.08665959   1.02684396
1078.00  -6.12342904   1.03254031
1080.00  -6.16026390   1.03825747
1082.00  -6.19716415   1.04399546
1084.00  -6.23412979   1.04975434
1086.00  -6.27116079   1.05553413
1088.00  -6.30825713   1.06133486
1090.00  -6.34541881   1.06715658
1092.00  -6.38264580   1.07299932
1094.00  -6.41993810   1.07886312
1096.00  -6.45729568   1.08474801
1098.00  -6.49471853   1.09065403
1100.00  -6.53220663   1.09658121
1102.00  -6.56975997   1.10252959
1104.00  -6.60737854   1.10849920
1106.00  -6.64506230   1.11449009
1108.00  -6.68281126   1.12050228
1110.00  -6.72062539   1.12653581
1112.00  -6.75850468   1.13259073
1114.00  -6.79644911   1.13866705
1116.00  -6.83445866   1.14476482
1118.00  -6.87253333   1.15088408
1120.00  -6.91067308   1.15702486
1122.00  -6.94887792   1.16318720
1124.00  -6.98714781   1.16937112
1126.00  -7.02548275   1.17557667
1128.00  -7.06388272   1.18180389
1130.00  -7.10234770   1.18805280
1132.00  -7.14087768   1.19432345
1134.00  -7.17947263   1.20061586
1136.00  -7.21813255   1.20693008
1138.00  -7.25685742   1.21326614
1140.00  -7.29564721   1.21962408
1142.00  -7.33450192   1.22600393
1144.00  -7.37342153   1.23240572
1146.00  -7.41240602   1.23882949
1148.00  -7.45145537   1.24527528
1150.00  -7.49056957   1.25174313
1152.00  -7.52974860   1.25823306
1154.00  -7.56899245   1.26474511
1156.00  -7.60830110   1.27127932
1158.00  -7.64767453   1.27783573
1160.00  -7.68711272   1.28441437
1162.00  -7.72661566   1.29101527
1164.00  -7.76618334   1.29763847
1166.00  -7.80581573   1.30428400
1168.00  -7.84551281   1.31095191
1170.00  -7.88527458   1.31764222
1172.00  -7.92510102   1.32435497
1174.00  -7.96499210   1.33109019
1176.00  -8.00494781   1.33784793
1178.00  -8.04496814   1.34462821
1180.00  -8.08505306   1.35143108
1182.00  -8.12520257   1.35825656
1184.00  -8.16541664   1.36510469
1186.00  -8.20569525   1.37197551
1188.00  -8.24603840   1.37886905
1190.00  -8.28644606   1.38578535
1192.00  -8.32691821   1.39272444
1194.00  -8.36745484   1.39968635
1196.00  -8.40805594   1.40667113
1198.00  -8.44872148   1.41367881
1200.00  -8.48945144   1.42070941
1202.00  -8.53024582   1.42776299
1204.00  -8.57110458   1.43483956
1206.00  -8.61202773   1.44193917
1208.00  -8.65301523   1.44906185
1210.00  -8.69406707   1.45620764
1212.00  -8.73518324   1.46337657
1214.00  -8.77636371   1.47056868
1216.00  -8.81760847   1.47778400
1218.00  -8.85891751   1.48502256
1220.00  -8.90029080   1.49228441
1222.00  -8.94172832   1.49956957
1224.00  -8.98323007   1.50687808
1226.00  -9.02479601   1.51420997
1228.00  -9.06642615   1.52156529
1230.00  -9.10812044   1.52894406
1232.00  -9.14987889   1.53634631
1234.00  -9.19170147   1.54377210
1236.00  -9.23358817   1.55122144
1238.00  -9.27553896   1.55869437
1240.00  -9.31755383   1.56619094
1242.00  -9.35963276   1.57371116
1244.00  -9.40177574   1.58125509
1246.00  -9.44398274   1.58882274
1248.00  -9.48625375   1.59641416
1250.00  -9.52858875   1.60402939
1252.00  -9.57098773   1.61166845
1254.00  -9.61345066   1.61933137
1256.00  -9.65597752   1.62701821
1258.00  -9.69856831   1.63472898
1260.00  -9.74122300   1.64246373
1262.00  -9.78394157   1.65022248
1264.00  -9.82672400   1.65800528
1266.00  -9.86957029   1.66581216
1268.00  -9.91248040   1.67364314
1270.00  -9.95545433   1.68149827
1272.00  -9.99849205   1.68937759
1274.00 -10.04159354   1.69728111
1276.00 -10.08475879   1.70520889
1278.00 -10.12798779   1.71316095
1280.00 -10.17128050   1.72113733
1282.00 -10.21463691   1.72913806
1284.00 -10.25805702   1.73716318
1286.00 -10.30154078   1.74521271
1288.00 -10.34508820   1.75328670
1290.00 -10.38869925   1.76138519
1292.00 -10.43237391   1.76950819
1294.00 -10.47611216   1.77765575
1296.00 -10.51991399   1.78582791
1298.00 -10.56377938   1.79402469
1300.00 -10.60770830   1.80224613
1302.00 -10.65170075   1.81049226
1304.00 -10.69575669   1.81876313
1306.00 -10.73987612   1.82705875
1308.00 -10.78405902   1.83537917
1310.00 -10.82830536   1.84372443
1312.00 -10.87261513   1.85209454
1314.00 -10.91698831   1.86048956
1316.00 -10.96142489   1.86890951
1318.00 -11.00592483   1.87735443
1320.00 -11.05048813   1.88582434
1322.00 -11.09511476   1.89431929
1324.00 -11.13980471   1.90283932
1326.00 -11.18455796   1.91138444
1328.00 -11.22937448   1.91995470
1330.00 -11.27425427   1.92855013
1332.00 -11.31919730   1.93717076
1334.00 -11.36420355   1.94581664
1336.00 -11.40927301   1.95448778
1338.00 -11.45440565   1.96318423
1340.00 -11.49960146   1.97190602
1342.00 -11.54486041   1.98065319
1344.00 -11.59018250   1.98942576
1346.00 -11.63556769   1.99822377
1348.00 -11.68101597   2.00704726
1350.00 -11.72652733   2.01589626
1352.00 -11.77210174   2.02477079
1354.00 -11.81773919   2.03367091
1356.00 -11.86343964   2.04259663
1358.00 -11.90920310   2.05154800
1360.00 -11.95502953   2.06052504
1362.00 -12.00091892   2.06952780
1364.00 -12.04687125   2.07855630
1366.00 -12.09288650   2.08761058
1368.00 -12.13896464   2.09669066
1370.00 -12.18510567   2.10579660
1372.00 -12.23130956   2.11492841
1374.00 -12.27757630   2.12408613
1376.00 -12.32390586   2.13326980
1378.00 -12.37029822   2.14247945
1380.00 -12.41675336   2.15171511
1382.00 -12.46327127   2.16097681
1384.00 -12.50985193   2.17026460
1386.00 -12.55649532   2.17957850
1388.00 -12.60320141   2.18891854
1390.00 -12.64997019   2.19828476
1392.00 -12.69680163   2.20767720
1394.00 -12.74369573   2.21709588
1396.00 -12.79065246   2.22654084
1398.00 -12.83767180   2.23601212
1400.00 -12.88475372   2.24550974
1402.00 -12.93189822   2.25503374
1404.00 -12.97910527   2.26458415
1406.00 -13.02637485   2.27416101
1408.00 -13.07370694   2.28376434
1410.00 -13.12110153   2.29339419
1412.00 -13.16855859   2.30305059
1414.00 -13.21607810   2.31273356
1416.00 -13.26366004   2.32244315
1418.00 -13.31130440   2.33217938
1420.00 -13.35901115   2.34194228
1422.00 -13.40678028   2.35173190
1424.00 -13.45461176   2.36154826
1426.00 -13.50250557   2.37139140
1428.00 -13.55046170   2.38126135
1430.00 -13.59848013   2.39115814
1432.00 -13.64656082   2.40108181
1434.00 -13.69470378   2.41103239
1436.00 -13.74290896   2.42100991
1438.00 -13.79117637   2.43101440
1440.00 -13.83950596   2.44104591
1442.00 -13.88789774   2.45110445
1444.00 -13.93635166   2.46119007
1446.00 -13.98486773   2.47130279
1448.00 -14.03344590   2.48144265
1450.00 -14.08208617   2.49160969
1452.00 -14.13078852   2.50180393
1454.00 -14.17955292   2.51202540
1456.00 -14.22837935   2.52227415
1458.00 -14.27726780   2.53255020
1460.00 -14.32621824   2.54285359
1462.00 -14.37523066   2.55318435
1464.00 -14.42430503   2.56354251
1466.00 -14.47344133   2.57392810
1468.00 -14.52263954   2.58434116
1470.00 -14.57189965   2.59478172
1472.00 -14.62122162   2.60524981
1474.00 -14.67060545   2.61574546
1476.00 -14.72005111   2.62626871
1478.00 -14.76955858   2.63681960
1480.00 -14.81912784   2.64739814
1482.00 -14.86875887   2.65800438
1484.00 -14.91845165   2.66863835
1486.00 -14.96820616   2.67930007
1488.00 -15.01802238   2.68998959
1490.00 -15.06790028   2.70070694
1492.00 -15.11783986   2.71145214
1494.00 -15.16784107   2.72222523
1496.00 -15.21790392   2.73302624
1498.00 -15.26802837   2.74385521
1500.00 -15.31821440   2.75471217
1502.00 -15.36846200   2.76559714
1504.00 -15.41877114   2.77651016
1506.00 -15.46914180   2.78745127
1508.00 -15.51957397   2.79842050
1510.00 -15.57006761   2.80941787
1512.00 -15.62062272   2.82044343
1514.00 -15.67123926   2.83149719
1516.00 -15.72191723   2.84257920
1518.00 -15.77265659   2.85368949
1520.00 -15.82345733   2.86482809
1522.00 -15.87431942   2.87599503
1524.00 -15.92524285   2.88719034
1526.00 -15.97622759   2.89841406
1528.00 -16.02727363   2.90966622
1530.00 -16.07838093   2.92094685
1532.00 -16.12954949   2.93225598
1534.00 -16.18077928   2.94359364
1536.00 -16.23207028   2.95495987
1538.00 -16.28342246   2.96635470
1540.00 -16.33483581   2.97777815
1542.00 -16.38631031   2.98923027
1544.00 -16.43784593   3.00071109
1546.00 -16.48944265   3.01222062
1548.00 -16.54110046   3.02375892
1550.00 -16.59281932   3.03532601
1552.00 -16.64459923   3.04692192
1554.00 -16.69644016   3.05854668
1556.00 -16.74834208   3.07020032
1558.00 -16.80030498   3.08188289
1560.00 -16.85232883   3.09359440
1562.00 -16.90441361   3.10533489
1564.00 -16.95655931   3.11710439
1566.00 -17.00876590   3.12890294
1568.00 -17.06103335   3.14073057
1570.00 -17.11336166   3.15258730
1572.00 -17.16575078   3.16447317
1574.00 -17.21820072   3.17638821
1576.00 -17.27071144   3.18833245
1578.00 -17.32328291   3.20030593
1580.00 -17.37591513   3.21230867
1582.00 -17.42860807   3.22434071
1584.00 -17.48136171   3.23640208
1586.00 -17.53417602   3.24849281
1588.00 -17.58705098   3.26061293
1590.00 -17.63998657   3.27276247
1592.00 -17.69298278   3.28494147
1594.00 -17.74603957   3.29714995
1596.00 -17.79915694   3.30938795
1598.00 -17.85233484   3.32165550
1600.00 -17.90557327   3.33395263
1602.00 -17.95887221   3.34627938
1604.00 -18.01223162   3.35863576
1606.00 -18.06565149   3.37102182
1608.00 -18.11913180   3.38343758
1610.00 -18.17267252   3.39588309
1612.00 -18.22627363   3.40835836
1614.00 -18.27993512   3.42086342
1616.00 -18.33365695   3.43339832
1618.00 -18.38743912   3.44596309
1620.00 -18.44128158   3.45855774
1622.00 -18.49518433   3.47118232
1624.00 -18.54914734   3.48383685
1626.00 -18.60317059   3.49652138
1628.00 -18.65725406   3.50923591
1630.00 -18.71139772   3.52198050
1632.00 -18.76560155   3.53475517
1634.00 -18.81986554   3.54755995
1636.00 -18.87418965   3.56039487
1638.00 -18.92857387   3.57325996
1640.00 -18.98301818   3.58615525
1642.00 -19.03752255   3.59908079
1644.00 -19.09208695   3.61203658
1646.00 -19.14671138   3.62502268
1648.00 -19.20139580   3.63803910
1650.00 -19.25614019   3.65108588
1652.00 -19.31094454   3.66416305
1654.00 -19.36580881   3.67727064
1656.00 -19.42073299   3.69040868
1658.00 -19.47571706   3.70357720
1660.00 -19.53076098   3.71677624
1662.00 -19.58586475   3.73000581
1664.00 -19.64102833   3.74326597
1666.00 -19.69625171   3.75655672
1668.00 -19.75153486   3.76987812
1670.00 -19.80687775   3.78323018
1672.00 -19.86228038   3.79661293
1674.00 -19.91774271   3.81002642
1676.00 -19.97326472   3.82347066
1678.00 -20.02884639   3.83694569
1680.00 -20.08448770   3.85045154
1682.00 -20.14018863   3.86398824
1684.00 -20.19594914   3.87755582
1686.00 -20.25176922   3.89115432
1688.00 -20.30764886   3.90478375
1690.00 -20.36358801   3.91844415
1692.00 -20.41958667   3.93213556
1694.00 -20.47564480   3.94585800
1696.00 -20.53176239   3.95961151
1698.00 -20.58793941   3.97339611
1700.00 -20.64417585   3.98721183
1702.00 -20.70047167   4.00105870
1704.00 -20.75682685   4.01493677
1706.00 -20.81324138   4.02884604
1708.00 -20.86971523   4.04278656
1710.00 -20.92624837   4.05675836
1712.00 -20.98284078   4.07076147
1714.00 -21.03949245   4.08479591
1716.00 -21.09620334   4.09886171
1718.00 -21.15297344   4.11295892
1720.00 -21.20980272   4.12708755
1722.00 -21.26669116   4.14124763
1724.00 -21.32363873   4.15543921
1726.00 -21.38064542   4.16966230
1728.00 -21.43771120   4.18391693
1730.00 -21.49483604   4.19820315
1732.00 -21.55201992   4.21252097
1734.00 -21.60926283   4.22687043
1736.00 -21.66656473   4.24125156
1738.00 -21.72392561   4.25566438
1740.00 -21.78134544   4.27010894
1742.00 -21.83882419   4.28458525
1744.00 -21.89636185   4.29909334
1746.00 -21.95395840   4.31363326
1748.00 -22.01161380   4.32820502
1750.00 -22.06932803   4.34280865
1752.00 -22.12710108   4.35744420
1754.00 -22.18493291   4.37211168
1756.00 -22.24282351   4.38681113
1758.00 -22.30077285   4.40154257
1760.00 -22.35878091   4.41630604
1762.00 -22.41684766   4.43110156
1764.00 -22.47497309   4.44592917
1766.00 -22.53315716   4.46078890
1768.00 -22.59139986   4.47568077
1770.00 -22.64970116   4.49060481
1772.00 -22.70806103   4.50556106
1774.00 -22.76647947   4.52054954
1776.00 -22.82495643   4.53557028
1778.00 -22.88349190   4.55062332
1780.00 -22.94208585   4.56570868
1782.00 -23.00073826   4.58082639
1784.00 -23.05944911   4.59597648
1786.00 -23.11821837   4.61115898
1788.00 -23.17704603   4.62637392
1790.00 -23.23593204   4.64162134
1792.00 -23.29487640   4.65690125
1794.00 -23.35387908   4.67221369
1796.00 -23.41294005   4.68755868
1798.00 -23.47205930   4.70293627
1800.00 -23.53123679   4.71834647
1802.00 -23.59047250   4.73378931
1804.00 -23.64976642   4.74926484
1806.00 -23.70911851   4.76477306
1808.00 -23.76852875   4.78031402
1810.00 -23.82799712   4.79588774
1812.00 -23.88752360   4.81149426
1814.00 -23.94710815   4.82713359
1816.00 -24.00675076   4.84280578
1818.00 -24.06645141   4.85851084
1820.00 -24.12621006   4.87424881
1822.00 -24.18602670   4.89001972
1824.00 -24.24590130   4.90582360
1826.00 -24.30583384   4.92166047
1828.00 -24.36582429   4.93753037
1830.00 -24.42587263   4.95343332
1832.00 -24.48597884   4.96936936
1834.00 -24.54614288   4.98533851
1836.00 -24.60636475   5.00134079
1838.00 -24.66664440   5.01737625
1840.00 -24.72698183   5.03344490
1842.00 -24.78737700   5.04954679
1844.00 -24.84782989   5.06568192
1846.00 -24.90834047   5.08185035
1848.00 -24.96890873   5.09805208
1850.00 -25.02953464   5.11428716
1852.00 -25.09021817   5.13055562
1854.00 -25.15095930   5.14685747
1856.00 -25.21175800   5.16319275
1858.00 -25.27261426   5.17956149
1860.00 -25.33352804   5.19596371
1862.00 -25.39449933   5.21239945
1864.00 -25.45552809   5.22886873
1866.00 -25.51661431   5.24537159
1868.00 -25.57775795   5.26190804
1870.00 -25.63895901   5.27847813
1872.00 -25.70021744   5.29508187
1874.00 -25.76153323   5.31171930
1876.00 -25.82290635   5.32839045
1878.00 -25.88433678   5.34509533
1880.00 -25.94582449   5.36183399
1882.00 -26.00736946   5.37860645
1884.00 -26.06897166   5.39541274
1886.00 -26.13063108   5.41225289
1888.00 -26.19234767   5.42912692
1890.00 -26.25412143   5.44603487
1892.00 -26.31595233   5.46297675
1894.00 -26.37784033   5.47995261
1896.00 -26.43978543   5.49696247
1898.00 -26.50178758   5.51400635
1900.00 -26.56384677   5.53108429
1902.00 -26.62596298   5.54819632
1904.00 -26.68813617   5.56534245
1906.00 -26.75036633   5.58252272
1908.00 -26.81265342   5.59973717
1910.00 -26.87499743   5.61698581
1912.00 -26.93739833   5.63426867
1914.00 -26.99985609   5.65158578
1916.00 -27.06237070   5.66893718
1918.00 -27.12494211   5.68632289
1920.00 -27.18757032   5.70374293
1922.00 -27.25025529   5.72119733
1924.00 -27.31299701   5.73868613
1926.00 -27.37579543   5.75620935
1928.00 -27.43865055   5.77376702
1930.00 -27.50156234   5.79135916
1932.00 -27.56453076   5.80898581
1934.00 -27.62755581   5.82664699
1936.00 -27.69063744   5.84434273
1938.00 -27.75377564   5.86207305
1940.00 -27.81697038   5.87983800
1942.00 -27.88022163   5.89763758
1944.00 -27.94352938   5.91547184
1946.00 -28.00689359   5.93334079
1948.00 -28.07031424   5.95124448
1950.00 -28.13379131   5.96918291
1952.00 -28.19732477   5.98715613
1954.00 -28.26091460   6.00516416
1956.00 -28.32456077   6.02320703
1958.00 -28.38826325   6.04128476
1960.00 -28.45202202   6.05939738
1962.00 -28.51583705   6.07754492
1964.00 -28.57970833   6.09572741
1966.00 -28.64363582   6.11394487
1968.00 -28.70761950   6.13219734
1970.00 -28.77165935   6.15048484
1972.00 -28.83575533   6.16880739
1974.00 -28.89990743   6.18716503
1976.00 -28.96411562   6.20555778
1978.00 -29.02837986   6.22398567
1980.00 -29.09270015   6.24244873
1982.00 -29.15707645   6.26094698
1984.00 -29.22150874   6.27948045
1986.00 -29.28599698   6.29804918
1988.00 -29.35054117   6.31665317
1990.00 -29.41514126   6.33529248
1992.00 -29.47979724   6.35396711
1994.00 -29.54450908   6.37267710
1996.00 -29.60927676   6.39142247
1998.00 -29.67410024   6.41020326
2000.00 -29.73897951   6.42901948
2002.00 -29.80391454   6.44787117
2004.00 -29.86890529   6.46675836
2006.00 -29.93395176   6.48568106
2008.00 -29.99905391   6.50463932
2010.00 -30.06421171   6.52363314
2012.00 -30.12942514   6.54266257
2014.00 -30.19469418   6.56172763
2016.00 -30.26001880   6.58082834
2018.00 -30.32539897   6.59996474
2020.00 -30.39083466   6.61913684
2022.00 -30.45632586   6.63834468
2024.00 -30.52187254   6.65758828
2026.00 -30.58747467   6.67686768
2028.00 -30.65313222   6.69618288
2030.00 -30.71884517   6.71553394
2032.00 -30.78461350   6.73492086
2034.00 -30.85043717   6.75434368
2036.00 -30.91631617   6.77380242
2038.00 -30.98225046   6.79329712
2040.00 -31.04824002   6.81282779
2042.00 -31.11428483   6.83239446
2044.00 -31.18038485   6.85199716
2046.00 -31.24654007   6.87163592
2048.00 -31.31275046   6.89131077
2050.00 -31.37901598   6.91102172
2052.00 -31.44533663   6.93076881
2054.00 -31.51171236   6.95055207
2056.00 -31.57814315   6.97037151
2058.00 -31.64462898   6.99022717
2060.00 -31.71116983   7.01011907
2062.00 -31.77776565   7.03004724
2064.00 -31.84441644   7.05001170
2066.00 -31.91112216   7.07001249
2068.00 -31.97788279   7.09004963
2070.00 -32.04469830   7.11012314
2072.00 -32.11156867   7.13023304
2074.00 -32.17849386   7.15037938
2076.00 -32.24547386   7.17056217
2078.00 -32.31250864   7.19078144
2080.00 -32.37959816   7.21103721
2082.00 -32.44674241   7.23132952
2084.00 -32.51394136   7.25165839
2086.00 -32.58119498   7.27202383
2088.00 -32.64850325   7.29242589
2090.00 -32.71586614   7.31286459
2092.00 -32.78328362   7.33333994
2094.00 -32.85075567   7.35385199
2096.00 -32.91828226   7.37440075
2098.00 -32.98586336   7.39498625
2100.00 -33.05349896   7.41560852
2102.00 -33.12118901   7.43626758
2104.00 -33.18893351   7.45696345
2106.00 -33.25673241   7.47769618
2108.00 -33.32458569   7.49846577
2110.00 -33.39249334   7.51927226
2112.00 -33.46045531   7.54011567
2114.00 -33.52847159   7.56099602
2116.00 -33.59654215   7.58191335
2118.00 -33.66466695   7.60286768
2120.00 -33.73284599   7.62385904
2122.00 -33.80107922   7.64488745
2124.00 -33.86936662   7.66595293
2126.00 -33.93770817   7.68705551
2128.00 -34.00610384   7.70819522
2130.00 -34.07455360   7.72937209
2132.00 -34.14305743   7.75058613
2134.00 -34.21161530   7.77183738
2136.00 -34.28022718   7.79312586
2138.00 -34.34889305   7.81445160
2140.00 -34.41761288   7.83581461
2142.00 -34.48638664   7.85721494
2144.00 -34.55521430   7.87865259
2146.00 -34.62409585   7.90012761
2148.00 -34.69303125   7.92164000
2150.00 -34.76202048   7.94318981
2152.00 -34.83106351   7.96477704
2154.00 -34.90016031   7.98640174
2156.00 -34.96931086   8.00806392
2158.00 -35.03851513   8.02976361
2160.00 -35.10777309   8.05150084
2162.00 -35.17708472   8.07327563
2164.00 -35.24644999   8.09508800
2166.00 -35.31586888   8.11693799
2168.00 -35.38534134   8.13882560
2170.00 -35.45486737   8.16075089
2172.00 -35.52444693   8.18271385
2174.00 -35.59408000   8.20471453
2176.00 -35.66376655   8.22675295
2178.00 -35.73350655   8.24882912
2180.00 -35.80329997   8.27094309
2182.00 -35.87314679   8.29309486
2184.00 -35.94304699   8.31528447
2186.00 -36.01300052   8.33751195
2188.00 -36.08300738   8.35977731
2190.00 -36.15306753   8.38208058
2192.00 -36.22318094   8.40442179
2194.00 -36.29334759   8.42680096
2196.00 -36.36356744   8.44921811
2198.00 -36.43384048   8.47167328
2200.00 -36.50416668   8.49416648
2202.00 -36.57454601   8.51669774
2204.00 -36.64497843   8.53926709
2206.00 -36.71546394   8.56187455
2208.00 -36.78600249   8.58452015
2210.00 -36.85659406   8.60720390
2212.00 -36.92723862   8.62992584
2214.00 -36.99793615   8.65268598
2216.00 -37.06868662   8.67548436
2218.00 -37.13949000   8.69832100
2220.00 -37.21034627   8.72119592
2222.00 -37.28125540   8.74410915
2224.00 -37.35221735   8.76706071
2226.00 -37.42323211   8.79005063
2228.00 -37.49429965   8.81307892
2230.00 -37.56541993   8.83614563
2232.00 -37.63659294   8.85925076
2234.00 -37.70781864   8.88239435
2236.00 -37.77909700   8.90557641
2238.00 -37.85042801   8.92879698
2240.00 -37.92181163   8.95205607
2242.00 -37.99324784   8.97535372
2244.00 -38.06473661   8.99868994
2246.00 -38.13627790   9.02206476
2248.00 -38.20787170   9.04547821
2250.00 -38.27951798   9.06893030
2252.00 -38.35121670   9.09242107
2254.00 -38.42296785   9.11595054
2256.00 -38.49477138   9.13951872
2258.00 -38.56662729   9.16312565
2260.00 -38.63853554   9.18677135
2262.00 -38.71049609   9.21045585
2264.00 -38.78250893   9.23417916
2266.00 -38.85457403   9.25794131
2268.00 -38.92669136   9.28174233
2270.00 -38.99886089   9.30558223
2272.00 -39.07108259   9.32946105
2274.00 -39.14335644   9.35337881
2276.00 -39.21568241   9.37733553
2278.00 -39.28806048   9.40133124
2280.00 -39.36049060   9.42536595
2282.00 -39.43297276   9.44943970
2284.00 -39.50550694   9.47355250
2286.00 -39.57809309   9.49770438
2288.00 -39.65073120   9.52189537
2290.00 -39.72342123   9.54612549
2292.00 -39.79616316   9.57039475
2294.00 -39.86895697   9.59470319
2296.00 -39.94180261   9.61905084
2298.00 -40.01470008   9.64343770
2300.00 -40.08764933   9.66786381
2302.00 -40.16065034   9.69232919
2304.00 -40.23370308   9.71683387
2306.00 -40.30680753   9.74137786
2308.00 -40.37996366   9.76596119
2310.00 -40.45317143   9.79058389
2312.00 -40.52643083   9.81524597
2314.00 -40.59974182   9.83994746
2316.00 -40.67310437   9.86468839
2318.00 -40.74651847   9.88946878
2320.00 -40.81998407   9.91428865
2322.00 -40.89350116   9.93914802
2324.00 -40.96706971   9.96404692
2326.00 -41.04068968   9.98898537
2328.00 -41.11436105  10.01396340
2330.00 -41.18808379  10.03898102
2332.00 -41.26185787  10.06403827
2334.00 -41.33568327  10.08913516
2336.00 -41.40955996  10.11427172
2338.00 -41.48348790  10.13944796
2340.00 -41.55746708  10.16466393
2342.00 -41.63149746  10.18991962
2344.00 -41.70557902  10.21521508
2346.00 -41.77971173  10.24055032
2348.00 -41.85389555  10.26592537
2350.00 -41.92813047  10.29134025
2352.00 -42.00241645  10.31679498
2354.00 -42.07675347  10.34228958
2356.00 -42.15114150  10.36782408
2358.00 -42.22558050  10.39339851
2360.00 -42.30007046  10.41901287
2362.00 -42.37461134  10.44466721
2364.00 -42.44920312  10.47036153
2366.00 -42.52384576  10.49609587
2368.00 -42.59853925  10.52187024
2370.00 -42.67328354  10.54768467
2372.00 -42.74807862  10.57353918
2374.00 -42.82292445  10.59943379
2376.00 -42.89782101  10.62536853
2378.00 -42.97276827  10.65134342
2380.00 -43.04776620  10.67735848
2382.00 -43.12281477  10.70341374
2384.00 -43.19791396  10.72950921
2386.00 -43.27306373  10.75564492
2388.00 -43.34826406  10.78182089
2390.00 -43.42351492  10.80803715
2392.00 -43.49881628  10.83429371
2394.00 -43.57416811  10.86059061
2396.00 -43.64957039  10.88692786
2398.00 -43.72502308  10.91330548
2400.00 -43.80052617  10.93972349
2402.00 -43.87607961  10.96618193
2404.00 -43.95168338  10.99268081
2406.00 -44.02733746  11.01922015
2408.00 -44.10304181  11.04579998
2410.00 -44.17879641  11.07242032
2412.00 -44.25460123  11.09908119
2414.00 -44.33045624  11.12578261
2416.00 -44.40636141  11.15252460
2418.00 -44.48231671  11.17930720
2420.00 -44.55832211  11.20613041
2422.00 -44.63437760  11.23299427
2424.00 -44.71048313  11.25989879
2426.00 -44.78663868  11.28684399
2428.00 -44.86284422  11.31382991
2430.00 -44.93909972  11.34085655
2432.00 -45.01540516  11.36792395
2434.00 -45.09176050  11.39503212
2436.00 -45.16816572  11.42218109
2438.00 -45.24462079  11.44937087
2440.00 -45.32112567  11.47660150
2442.00 -45.39768035  11.50387298
2444.00 -45.47428480  11.53118536
2446.00 -45.55093897  11.55853863
2448.00 -45.62764285  11.58593284
2450.00 -45.70439641  11.61336799
2452.00 -45.78119962  11.64084412
2454.00 -45.85805245  11.66836124
2456.00 -45.93495487  11.69591937
2458.00 -46.01190685  11.72351854
2460.00 -46.08890837  11.75115877
2462.00 -46.16595939  11.77884007
2464.00 -46.24305989  11.80656248
2466.00 -46.32020984  11.83432601
2468.00 -46.39740921  11.86213069
2470.00 -46.47465797  11.88997653
2472.00 -46.55195609  11.91786356
2474.00 -46.62930354  11.94579180
2476.00 -46.70670030  11.97376127
2478.00 -46.78414633  12.00177200
2480.00 -46.86164162  12.02982399
2482.00 -46.93918612  12.05791728
2484.00 -47.01677981  12.08605189
2486.00 -47.09442266  12.11422784
2488.00 -47.17211464  12.14244514
2490.00 -47.24985573  12.17070383
2492.00 -47.32764589  12.19900391
2494.00 -47.40548510  12.22734542
2496.00 -47.48337333  12.25572838
2498.00 -47.56131054  12.28415280
2500.00 -47.63929671  12.31261871
2502.00 -47.71733182  12.34112612
2504.00 -47.79541582  12.36967506
2506.00 -47.87354870  12.39826556
2508.00 -47.95173042  12.42689762
2510.00 -48.02996096  12.45557128
2512.00 -48.10824029  12.48428655
2514.00 -48.18656837  12.51304346
2516.00 -48.26494518  12.54184202
2518.00 -48.34337068  12.57068225
2520.00 -48.42184486  12.59956419
2522.00 -48.50036768  12.62848784
2524.00 -48.57893912  12.65745323
2526.00 -48.65755913  12.68646038
2528.00 -48.73622770  12.71550932
2530.00 -48.81494480  12.74460005
2532.00 -48.89371040  12.77373261
2534.00 -48.97252446  12.80290701
2536.00 -49.05138696  12.83212327
2538.00 -49.13029787  12.86138142
2540.00 -49.20925716  12.89068148
2542.00 -49.28826480  12.92002346
2544.00 -49.36732076  12.94940739
2546.00 -49.44642502  12.97883328
2548.00 -49.52557754  13.00830117
2550.00 -49.60477830  13.03781106
2552.00 -49.68402726  13.06736298
2554.00 -49.76332440  13.09695695
2556.00 -49.84266969  13.12659300
2558.00 -49.92206309  13.15627113
2560.00 -50.00150459  13.18599137
2562.00 -50.08099414  13.21575375
2564.00 -50.16053173  13.24555828
2566.00 -50.24011732  13.27540498
2568.00 -50.31975088  13.30529387
2570.00 -50.39943239  13.33522497
2572.00 -50.47916181  13.36519831
2574.00 -50.55893912  13.39521391
2576.00 -50.63876428  13.42527178
2578.00 -50.71863727  13.45537194
2580.00 -50.79855805  13.48551441
2582.00 -50.87852661  13.51569922
2584.00 -50.95854290  13.54592639
2586.00 -51.03860691  13.57619593
2588.00 -51.11871859  13.60650787
2590.00 -51.19887793  13.63686222
2592.00 -51.27908489  13.66725900
2594.00 -51.35933944  13.69769825
2596.00 -51.43964155  13.72817996
2598.00 -51.51999120  13.75870418
2600.00 -51.60038836  13.78927090
2602.00 -51.68083299  13.81988017
2604.00 -51.76132506  13.85053199
2606.00 -51.84186455  13.88122638
2608.00 -51.92245143  13.91196337
2610.00 -52.00308567  13.94274297
2612.00 -52.08376724  13.97356521
2614.00 -52.16449610  14.00443010
2616.00 -52.24527224  14.03533767
2618.00 -52.32609561  14.06628793
2620.00 -52.40696620  14.09728090
2622.00 -52.48788397  14.12831661
2624.00 -52.56884889  14.15939507
2626.00 -52.64986093  14.19051630
2628.00 -52.73092007  14.22168032
2630.00 -52.81202627  14.25288716
2632.00 -52.89317951  14.28413683
2634.00 -52.97437975  14.31542935
2636.00 -53.05562696  14.34676474
2638.00 -53.13692112  14.37814302
2640.00 -53.21826220  14.40956420
2642.00 -53.29965016  14.44102832
2644.00 -53.38108499  14.47253539
2646.00 -53.46256664  14.50408542
2648.00 -53.54409508  14.53567844
2650.00 -53.62567030  14.56731447
2652.00 -53.70729226  14.59899352
2654.00 -53.78896092  14.63071562
2656.00 -53.87067627  14.66248078
2658.00 -53.95243827  14.69428903
2660.00 -54.03424688  14.72614038
2662.00 -54.11610209  14.75803485
2664.00 -54.19800386  14.78997246
2666.00 -54.27995216  14.82195324
2668.00 -54.36194697  14.85397719
2670.00 -54.44398825  14.88604434
2672.00 -54.52607597  14.91815471
2674.00 -54.60821010  14.95030831
2676.00 -54.69039062  14.98250517
2678.00 -54.77261749  15.01474531
2680.00 -54.85489069  15.04702874
2682.00 -54.93721018  15.07935548
2684.00 -55.01957594  15.11172556
2686.00 -55.10198793  15.14413898
2688.00 -55.18444613  15.17659577
2690.00 -55.26695051  15.20909596
2692.00 -55.34950103  15.24163955
2694.00 -55.43209767  15.27422656
2696.00 -55.51474039  15.30685702
2698.00 -55.59742917  15.33953094
2700.00 -55.68016398  15.37224835
2702.00 -55.76294479  15.40500925
2704.00 -55.84577156  15.43781368
2706.00 -55.92864427  15.47066164
2708.00 -56.01156290  15.50355316
2710.00 -56.09452739  15.53648826
2712.00 -56.17753774  15.56946695
2714.00 -56.26059391  15.60248925
2716.00 -56.34369587  15.63555519
2718.00 -56.42684358  15.66866477
2720.00 -56.51003703  15.70181802
2722.00 -56.59327617  15.73501496
2724.00 -56.67656099  15.76825560
2726.00 -56.75989144  15.80153997
2728.00 -56.84326750  15.83486808
2730.00 -56.92668915  15.86823995
2732.00 -57.01015634  15.90165559
2734.00 -57.09366906  15.93511504
2736.00 -57.17722726  15.96861830
2738.00 -57.26083093  16.00216539
2740.00 -57.34448003  16.03575633
2742.00 -57.42817452  16.06939115
2744.00 -57.51191439  16.10306985
2746.00 -57.59569960  16.13679245
2748.00 -57.67953012  16.17055899
2750.00 -57.76340592  16.20436946
2752.00 -57.84732698  16.23822390
2754.00 -57.93129325  16.27212231
2756.00 -58.01530472  16.30606472
2758.00 -58.09936134  16.34005114
2760.00 -58.18346310  16.37408160
2762.00 -58.26760996  16.40815611
2764.00 -58.35180189  16.44227468
2766.00 -58.43603886  16.47643734
2768.00 -58.52032084  16.51064411
2770.00 -58.60464781  16.54489500
2772.00 -58.68901972  16.57919003
2774.00 -58.77343656  16.61352921
2776.00 -58.85789828  16.64791258
2778.00 -58.94240487  16.68234013
2780.00 -59.02695629  16.71681190
2782.00 -59.11155251  16.75132789
2784.00 -59.19619350  16.78588813
2786.00 -59.28087924  16.82049264
2788.00 -59.36560968  16.85514142
2790.00 -59.45038480  16.88983451
2792.00 -59.53520458  16.92457191
2794.00 -59.62006897  16.95935365
2796.00 -59.70497796  16.99417974
2798.00 -59.78993150  17.02905020
2800.00 -59.87492958  17.06396505
2802.00 -59.95997215  17.09892430
2804.00 -60.04505920  17.13392797
2806.00 -60.13019068  17.16897608
2808.00 -60.21536658  17.20406865
2810.00 -60.30058685  17.23920570
2812.00 -60.38585148  17.27438723
2814.00 -60.47116042  17.30961328
2816.00 -60.55651365  17.34488385
2818.00 -60.64191114  17.38019896
2820.00 -60.72735286  17.41555863
2822.00 -60.81283878  17.45096288
2824.00 -60.89836887  17.48641173
2826.00 -60.98394309  17.52190519
2828.00 -61.06956142  17.55744328
2830.00 -61.15522383  17.59302601
2832.00 -61.24093029  17.62865341
2834.00 -61.32668076  17.66432549
2836.00 -61.41247522  17.70004226
2838.00 -61.49831364  17.73580375
2840.00 -61.58419598  17.77160998
2842.00 -61.67012222  17.80746095
2844.00 -61.75609233  17.84335668
2846.00 -61.84210627  17.87929720
2848.00 -61.92816402  17.91528252
2850.00 -62.01426554  17.95131266
2852.00 -62.10041081  17.98738763
2854.00 -62.18659979  18.02350744
2856.00 -62.27283245  18.05967213
2858.00 -62.35910877  18.09588170
2860.00 -62.44542871  18.13213616
2862.00 -62.53179225  18.16843555
2864.00 -62.61819935  18.20477987
2866.00 -62.70464998  18.24116914
2868.00 -62.79114412  18.27760337
2870.00 -62.87768172  18.31408259
2872.00 -62.96426277  18.35060681
2874.00 -63.05088723  18.38717605
2876.00 -63.13755507  18.42379032
2878.00 -63.22426626  18.46044964
2880.00 -63.31102077  18.49715402
2882.00 -63.39781857  18.53390349
2884.00 -63.48465963  18.57069806
2886.00 -63.57154391  18.60753774
2888.00 -63.65847140  18.64442256
2890.00 -63.74544205  18.68135252
2892.00 -63.83245585  18.71832765
2894.00 -63.91951275  18.75534796
2896.00 -64.00661273  18.79241347
2898.00 -64.09375575  18.82952419
2900.00 -64.18094179  18.86668014
2902.00 -64.26817081  18.90388134
2904.00 -64.35544279  18.94112780
2906.00 -64.44275770  18.97841953
2908.00 -64.53011550  19.01575657
2910.00 -64.61751616  19.05313891
2912.00 -64.70495966  19.09056658
2914.00 -64.79244596  19.12803959
2916.00 -64.87997503  19.16555796
2918.00 -64.96754685  19.20312171
2920.00 -65.05516138  19.24073085
2922.00 -65.14281858  19.27838539
2924.00 -65.23051844  19.31608536
2926.00 -65.31826092  19.35383077
2928.00 -65.40604599  19.39162163
2930.00 -65.49387361  19.42945796
2932.00 -65.58174377  19.46733978
2934.00 -65.66965642  19.50526710
2936.00 -65.75761154  19.54323994
2938.00 -65.84560910  19.58125832
2940.00 -65.93364907  19.61932224
2942.00 -66.02173141  19.65743173
2944.00 -66.10985609  19.69558680
2946.00 -66.19802309  19.73378746
2948.00 -66.28623238  19.77203374
2950.00 -66.37448392  19.81032565
2952.00 -66.46277768  19.84866320
2954.00 -66.55111363  19.88704641
2956.00 -66.63949175  19.92547530
2958.00 -66.72791200  19.96394987
2960.00 -66.81637435  20.00247015
2962.00 -66.90487876  20.04103615
2964.00 -66.99342522  20.07964789
2966.00 -67.08201369  20.11830538
2968.00 -67.17064414  20.15700864
2970.00 -67.25931653  20.19575769
2972.00 -67.34803084  20.23455253
2974.00 -67.43678704  20.27339318
2976.00 -67.52558509  20.31227966
2978.00 -67.61442497  20.35121199
2980.00 -67.70330665  20.39019018
2982.00 -67.79223009  20.42921424
2984.00 -67.88119526  20.46828419
2986.00 -67.97020213  20.50740005
2988.00 -68.05925068  20.54656183
2990.00 -68.14834087  20.58576954
2992.00 -68.23747267  20.62502320
2994.00 -68.32664605  20.66432283
2996.00 -68.41586098  20.70366844
2998.00 -68.50511742  20.74306005
3000.00 -68.59441536  20.78249766
3002.00 -68.68375475  20.82198130
3004.00 -68.77313557  20.86151099
3006.00 -68.86255779  20.90108673
3008.00 -68.95202137  20.94070853
3010.00 -69.04152629  20.98037643
3012.00 -69.13107251  21.02009042
3014.00 -69.22066001  21.05985053
3016.00 -69.31028874  21.09965677
3018.00 -69.39995869  21.13950916
3020.00 -69.48966982  21.17940770
3022.00 -69.57942210  21.21935242
3024.00 -69.66921550  21.25934333
3026.00 -69.75904999  21.29938044
3028.00 -69.84892554  21.33946377
3030.00 -69.93884212  21.37959333
3032.00 -70.02879969  21.41976914
3034.00 -70.11879823  21.45999122
3036.00 -70.20883770  21.50025956
3038.00 -70.29891808  21.54057421
3040.00 -70.38903933  21.58093515
3042.00 -70.47920143  21.62134242
3044.00 -70.56940433  21.66179602
3046.00 -70.65964802  21.70229597
3048.00 -70.74993246  21.74284228
3050.00 -70.84025762  21.78343498
3052.00 -70.93062347  21.82407406
3054.00 -71.02102998  21.86475955
3056.00 -71.11147711  21.90549147
3058.00 -71.20196485  21.94626981
3060.00 -71.29249314  21.98709461
3062.00 -71.38306198  22.02796587
3064.00 -71.47367131  22.06888361
3066.00 -71.56432113  22.10984784
3068.00 -71.65501138  22.15085858
3070.00 -71.74574205  22.19191584
3072.00 -71.83651309  22.23301963
3074.00 -71.92732449  22.27416998
3076.00 -72.01817621  22.31536688
3078.00 -72.10906821  22.35661036
3080.00 -72.20000048  22.39790044
3082.00 -72.29097297  22.43923712
3084.00 -72.38198565  22.48062041
3086.00 -72.47303851  22.52205034
3088.00 -72.56413149  22.56352692
3090.00 -72.65526458  22.60505016
3092.00 -72.74643774  22.64662007
3094.00 -72.83765095  22.68823667
3096.00 -72.92890417  22.72989998
3098.00 -73.02019736  22.77160999
3100.00 -73.11153051  22.81336674
3102.00 -73.20290357  22.85517024
3104.00 -73.29431652  22.89702049
3106.00 -73.38576933  22.93891751
3108.00 -73.47726196  22.98086131
3110.00 -73.56879439  23.02285192
3112.00 -73.66036659  23.06488934
3114.00 -73.75197851  23.10697358
3116.00 -73.84363014  23.14910466
3118.00 -73.93532144  23.19128259
3120.00 -74.02705238  23.23350739
3122.00 -74.11882293  23.27577907
3124.00 -74.21063306  23.31809765
3126.00 -74.30248274  23.36046313
3128.00 -74.39437193  23.40287553
3130.00 -74.48630061  23.44533486
3132.00 -74.57826874  23.48784115
3134.00 -74.67027630  23.53039439
3136.00 -74.76232325  23.57299460
3138.00 -74.85440957  23.61564181
3140.00 -74.94653521  23.65833601
3142.00 -75.03870016  23.70107723
3144.00 -75.13090438  23.74386547
3146.00 -75.22314783  23.78670075
3148.00 -75.31543049  23.82958309
3150.00 -75.40775233  23.87251249
3152.00 -75.50011331  23.91548897
3154.00 -75.59251341  23.95851255
3156.00 -75.68495259  24.00158323
3158.00 -75.77743083  24.04470103
3160.00 -75.86994809  24.08786596
3162.00 -75.96250433  24.13107804
3164.00 -76.05509954  24.17433727
3166.00 -76.14773368  24.21764368
3168.00 -76.24040671  24.26099727
3170.00 -76.33311862  24.30439805
3172.00 -76.42586936  24.34784605
3174.00 -76.51865890  24.39134127
3176.00 -76.61148722  24.43488372
3178.00 -76.70435428  24.47847342
3180.00 -76.79726005  24.52211038
3182.00 -76.89020451  24.56579462
3184.00 -76.98318761  24.60952614
3186.00 -77.07620934  24.65330496
3188.00 -77.16926965  24.69713110
3190.00 -77.26236852  24.74100455
3192.00 -77.35550591  24.78492535
3194.00 -77.44868181  24.82889349
3196.00 -77.54189616  24.87290900
3198.00 -77.63514895  24.91697188
3200.00 -77.72844014  24.96108215
3202.00 -77.82176971  25.00523983
3204.00 -77.91513761  25.04944491
3206.00 -78.00854382  25.09369742
3208.00 -78.10198831  25.13799736
3210.00 -78.19547105  25.18234476
3212.00 -78.28899200  25.22673962
3214.00 -78.38255114  25.27118195
3216.00 -78.47614844  25.31567177
3218.00 -78.56978385  25.36020909
3220.00 -78.66345736  25.40479392
3222.00 -78.75716893  25.44942628
3224.00 -78.85091853  25.49410617
3226.00 -78.94470613  25.53883361
3228.00 -79.03853170  25.58360861
3230.00 -79.13239520  25.62843119
3232.00 -79.22629662  25.67330135
3234.00 -79.32023590  25.71821910
3236.00 -79.41421303  25.76318447
3238.00 -79.50822797  25.80819746
3240.00 -79.60228070  25.85325808
3242.00 -79.69637117  25.89836635
3244.00 -79.79049937  25.94352227
3246.00 -79.88466525  25.98872587
3248.00 -79.97886879  26.03397714
3250.00 -80.07310996  26.07927611
3252.00 -80.16738872  26.12462279
3254.00 -80.26170505  26.17001718
3256.00 -80.35605891  26.21545930
3258.00 -80.45045028  26.26094917
3260.00 -80.54487911  26.30648678
3262.00 -80.63934539  26.35207217
3264.00 -80.73384907  26.39770532
3266.00 -80.82839013  26.44338627
3268.00 -80.92296854  26.48911502
3270.00 -81.01758427  26.53489157
3272.00 -81.11223728  26.58071596
3274.00 -81.20692755  26.62658817
3276.00 -81.30165503  26.67250823
3278.00 -81.39641971  26.71847616
3280.00 -81.49122155  26.76449195
3282.00 -81.58606052  26.81055562
3284.00 -81.68093659  26.85666719
3286.00 -81.77584973  26.90282666
3288.00 -81.87079990  26.94903404
3290.00 -81.96578708  26.99528936
3292.00 -82.06081123  27.04159261
3294.00 -82.15587233  27.08794381
3296.00 -82.25097033  27.13434298
3298.00 -82.34610522  27.18079012
3300.00 -82.44127696  27.22728524
3302.00 -82.53648552  27.27382836
3304.00 -82.63173086  27.32041948
3306.00 -82.72701296  27.36705863
3308.00 -82.82233179  27.41374580
3310.00 -82.91768731  27.46048101
3312.00 -83.01307950  27.50726428
3314.00 -83.10850831  27.55409561
3316.00 -83.20397373  27.60097501
3318.00 -83.29947572  27.64790250
3320.00 -83.39501425  27.69487809
3322.00 -83.49058928  27.74190178
3324.00 -83.58620080  27.78897359
3326.00 -83.68184875  27.83609353
3328.00 -83.77753313  27.88326162
3330.00 -83.87325388  27.93047785
3332.00 -83.96901099  27.97774225
3334.00 -84.06480442  28.02505482
3336.00 -84.16063414  28.07241557
3338.00 -84.25650012  28.11982452
3340.00 -84.35240233  28.16728168
3342.00 -84.44834074  28.21478705
3344.00 -84.54431531  28.26234065
3346.00 -84.64032601  28.30994249
3348.00 -84.73637282  28.35759258
3350.00 -84.83245570  28.40529093
3352.00 -84.92857463  28.45303756
3354.00 -85.02472956  28.50083246
3356.00 -85.12092047  28.54867565
3358.00 -85.21714733  28.59656715
3360.00 -85.31341011  28.64450696
3362.00 -85.40970878  28.69249510
3364.00 -85.50604329  28.74053157
3366.00 -85.60241364  28.78861638
3368.00 -85.69881977  28.83674956
3370.00 -85.79526167  28.88493109
3372.00 -85.89173930  28.93316101
3374.00 -85.98825262  28.98143931
3376.00 -86.08480162  29.02976601
3378.00 -86.18138625  29.07814112
3380.00 -86.27800648  29.12656465
3382.00 -86.37466230  29.17503660
3384.00 -86.47135365  29.22355700
3386.00 -86.56808052  29.27212584
3388.00 -86.66484287  29.32074314
3390.00 -86.76164067  29.36940892
3392.00 -86.85847389  29.41812317
3394.00 -86.95534250  29.46688592
3396.00 -87.05224647  29.51569716
3398.00 -87.14918576  29.56455692
3400.00 -87.24616034  29.61346520
3402.00 -87.34317019  29.66242200
3404.00 -87.44021528  29.71142735
3406.00 -87.53729556  29.76048126
3408.00 -87.63441101  29.80958372
3410.00 -87.73156161  29.85873475
3412.00 -87.82874731  29.90793437
3414.00 -87.92596809  29.95718258
3416.00 -88.02322391  30.00647938
3418.00 -88.12051475  30.05582480
3420.00 -88.21784058  30.10521884
3422.00 -88.31520135  30.15466152
3424.00 -88.41259705  30.20415283
3426.00 -88.51002764  30.25369279
3428.00 -88.60749309  30.30328142
3430.00 -88.70499336  30.35291871
3432.00 -88.80252843  30.40260469
3434.00 -88.90009827  30.45233935
3436.00 -88.99770285  30.50212271
3438.00 -89.09534213  30.55195479
3440.00 -89.19301608  30.60183558
3442.00 -89.29072467  30.65176510
3444.00 -89.38846787  30.70174336
3446.00 -89.48624565  30.75177037
3448.00 -89.58405798  30.80184613
3450.00 -89.68190483  30.85197067
3452.00 -89.77978616  30.90214397
3454.00 -89.87770195  30.95236607
3456.00 -89.97565216  31.00263696
3458.00 -90.07363676  31.05295665
3460.00 -90.17165573  31.10332516
3462.00 -90.26970903  31.15374249
3464.00 -90.36779662  31.20420866
3466.00 -90.46591849  31.25472367
3468.00 -90.56407459  31.30528753
3470.00 -90.66226490  31.35590025
3472.00 -90.76048938  31.40656184
3474.00 -90.85874801  31.45727232
3476.00 -90.95704075  31.50803168
3478.00 -91.05536757  31.55883994
3480.00 -91.15372844  31.60969711
3482.00 -91.25212333  31.66060319
3484.00 -91.35055221  31.71155820
3486.00 -91.44901505  31.76256214
3488.00 -91.54751181  31.81361503
3490.00 -91.64604247  31.86471687
3492.00 -91.74460699  31.91586768
3494.00 -91.84320535  31.96706745
3496.00 -91.94183751  32.01831621
3498.00 -92.04050344  32.06961395
3500.00 -92.13920310  32.12096069
3502.00 -92.23793648  32.17235644
3504.00 -92.33670353  32.22380121
3506.00 -92.43550424  32.27529500
3508.00 -92.53433855  32.32683783
3510.00 -92.63320645  32.37842969
3512.00 -92.73210791  32.43007061
3514.00 -92.83104288  32.48176059
3516.00 -92.93001135  32.53349964
3518.00 -93.02901328  32.58528776
3520.00 -93.12804863  32.63712498
3522.00 -93.22711739  32.68901128
3524.00 -93.32621951  32.74094670
3526.00 -93.42535496  32.79293122
3528.00 -93.52452372  32.84496486
3530.00 -93.62372576  32.89704764
3532.00 -93.72296104  32.94917955
3534.00 -93.82222952  33.00136061
3536.00 -93.92153119  33.05359083
3538.00 -94.02086601  33.10587021
3540.00 -94.12023395  33.15819876
3542.00 -94.21963497  33.21057650
3544.00 -94.31906905  33.26300342
3546.00 -94.41853616  33.31547954
3548.00 -94.51803625  33.36800487
3550.00 -94.61756932  33.42057941
3552.00 -94.71713531  33.47320318
3554.00 -94.81673420  33.52587618
3556.00 -94.91636597  33.57859841
3558.00 -95.01603057  33.63136990
3560.00 -95.11572798  33.68419064
3562.00 -95.21545817  33.73706064
3564.00 -95.31522110  33.78997992
3566.00 -95.41501675  33.84294848
3568.00 -95.51484508  33.89596633
3570.00 -95.61470606  33.94903348
3572.00 -95.71459967  34.00214993
3574.00 -95.81452586  34.05531569
3576.00 -95.91448462  34.10853078
3578.00 -96.01447590  34.16179519
3580.00 -96.11449968  34.21510895
3582.00 -96.21455592  34.26847205
3584.00 -96.31464461  34.32188450
3586.00 -96.41476569  34.37534631
3588.00 -96.51491915  34.42885750
3590.00 -96.61510495  34.48241806
3592.00 -96.71532306  34.53602800
3594.00 -96.81557345  34.58968734
3596.00 -96.91585610  34.64339609
3598.00 -97.01617096  34.69715424
3600.00 -97.11651800  34.75096180
3602.00 -97.21689720  34.80481879
3604.00 -97.31730853  34.85872522
3606.00 -97.41775195  34.91268108
3608.00 -97.51822744  34.96668639
3610.00 -97.61873495  35.02074116
3612.00 -97.71927447  35.07484539
3614.00 -97.81984596  35.12899909
3616.00 -97.92044939  35.18320227
3618.00 -98.02108472  35.23745493
3620.00 -98.12175193  35.29175709
3622.00 -98.22245099  35.34610875
3624.00 -98.32318186  35.40050992
3626.00 -98.42394452  35.45496060
3628.00 -98.52473893  35.50946081
3630.00 -98.62556506  35.56401055
3632.00 -98.72642288  35.61860983
3634.00 -98.82731237  35.67325865
3636.00 -98.92823348  35.72795703
3638.00 -99.02918619  35.78270496
3640.00 -99.13017047  35.83750247
3642.00 -99.23118628  35.89234955
3644.00 -99.33223360  35.94724621
3646.00 -99.43331240  36.00219246
3648.00 -99.53442263  36.05718831
3650.00 -99.63556428  36.11223377
3652.00 -99.73673732  36.16732883
3654.00 -99.83794170  36.22247352
3656.00 -99.93917740  36.27766783
3658.00 -100.04044439  36.33291177
3660.00 -100.14174264  36.38820536
3662.00 -100.24307211  36.44354859
3664.00 -100.34443278  36.49894147
3666.00 -100.44582462  36.55438402
3668.00 -100.54724758  36.60987623
3670.00 -100.64870166  36.66541812
3672.00 -100.75018680  36.72100970
3674.00 -100.85170298  36.77665096
3676.00 -100.95325018  36.83234192
3678.00 -101.05482835  36.88808258
3680.00 -101.15643748  36.94387295
3682.00 -101.25807752  36.99971304
3684.00 -101.35974844  37.05560285
3686.00 -101.46145022  37.11154239
3688.00 -101.56318283  37.16753167
3690.00 -101.66494623  37.22357070
3692.00 -101.76674040  37.27965947
3694.00 -101.86856529  37.33579801
3696.00 -101.97042089  37.39198631
3698.00 -102.07230716  37.44822437
3700.00 -102.17422406  37.50451222
3702.00 -102.27617158  37.56084985
3704.00 -102.37814967  37.61723727
3706.00 -102.48015831  37.67367449
3708.00 -102.58219746  37.73016152
3710.00 -102.68426710  37.78669835
3712.00 -102.78636719  37.84328500
3714.00 -102.88849771  37.89992148
3716.00 -102.99065862  37.95660778
3718.00 -103.09284989  38.01334392
3720.00 -103.19507149  38.07012991
3722.00 -103.29732339  38.12696574
3724.00 -103.39960556  38.18385143
3726.00 -103.50191797  38.24078699
3728.00 -103.60426058  38.29777241
3730.00 -103.70663337  38.35480770
3732.00 -103.80903631  38.41189288
3734.00 -103.91146936  38.46902795
3736.00 -104.01393249  38.52621291
3738.00 -104.11642568  38.58344776
3740.00 -104.21894889  38.64073253
3742.00 -104.32150209  38.69806721
3744.00 -104.42408525  38.75545180
3746.00 -104.52669834  38.81288632
3748.00 -104.62934133  38.87037078
3750.00 -104.73201419  38.92790516
3752.00 -104.83471688  38.98548950
3754.00 -104.93744938  39.04312378
3756.00 -105.04021166  39.10080801
3758.00 -105.14300368  39.15854221
3760.00 -105.24582541  39.21632637
3762.00 -105.34867683  39.27416051
3764.00 -105.45155790  39.33204463
3766.00 -105.55446860  39.38997873
3768.00 -105.65740888  39.44796282
3770.00 -105.76037872  39.50599691
3772.00 -105.86337809  39.56408100
3774.00 -105.96640696  39.62221510
3776.00 -106.06946530  39.68039922
3778.00 -106.17255308  39.73863335
3780.00 -106.27567026  39.79691751
3782.00 -106.37881682  39.85525170
3784.00 -106.48199272  39.91363593
3786.00 -106.58519794  39.97207020
3788.00 -106.68843243  40.03055452
3790.00 -106.79169619  40.08908890
3792.00 -106.89498916  40.14767333
3794.00 -106.99831132  40.20630783
3796.00 -107.10166265  40.26499241
3798.00 -107.20504310  40.32372705
3800.00 -107.30845265  40.38251178
3802.00 -107.41189127  40.44134660
3804.00 -107.51535893  40.50023151
3806.00 -107.61885559  40.55916652
3808.00 -107.72238124  40.61815164
3810.00 -107.82593582  40.67718686
3812.00 -107.92951932  40.73627220
3814.00 -108.03313170  40.79540766
3816.00 -108.13677294  40.85459325
3818.00 -108.24044300  40.91382896
3820.00 -108.34414185  40.97311481
3822.00 -108.44786946  41.03245081
3824.00 -108.55162581  41.09183695
3826.00 -108.65541085  41.15127324
3828.00 -108.75922456  41.21075970
3830.00 -108.86306691  41.27029631
3832.00 -108.96693787  41.32988309
3834.00 -109.07083740  41.38952005
3836.00 -109.17476548  41.44920718
3838.00 -109.27872208  41.50894450
3840.00 -109.38270716  41.56873200
3842.00 -109.48672069  41.62856970
3844.00 -109.59076265  41.68845760
3846.00 -109.69483301  41.74839570
3848.00 -109.79893172  41.80838401
3850.00 -109.90305877  41.86842253
3852.00 -110.00721412  41.92851128
3854.00 -110.11139774  41.98865024
3856.00 -110.21560960  42.04883944
3858.00 -110.31984966  42.10907886
3860.00 -110.42411791  42.16936853
3862.00 -110.52841431  42.22970844
3864.00 -110.63273882  42.29009860
3866.00 -110.73709142  42.35053901
3868.00 -110.84147208  42.41102968
3870.00 -110.94588076  42.47157061
3872.00 -111.05031744  42.53216180
3874.00 -111.15478208  42.59280327
3876.00 -111.25927466  42.65349502
3878.00 -111.36379514  42.71423705
3880.00 -111.46834350  42.77502936
3882.00 -111.57291969  42.83587196
3884.00 -111.67752370  42.89676486
3886.00 -111.78215549  42.95770806
3888.00 -111.88681503  43.01870157
3890.00 -111.99150229  43.07974538
3892.00 -112.09621724  43.14083951
3894.00 -112.20095985  43.20198395
3896.00 -112.30573009  43.26317872
3898.00 -112.41052793  43.32442381
3900.00 -112.51535333  43.38571924
3902.00 -112.62020627  43.44706500
3904.00 -112.72508672  43.50846110
3906.00 -112.82999465  43.56990755
3908.00 -112.93493002  43.63140434
3910.00 -113.03989280  43.69295149
3912.00 -113.14488297  43.75454900
3914.00 -113.24990050  43.81619687
3916.00 -113.35494535  43.87789510
3918.00 -113.46001749  43.93964371
3920.00 -113.56511689  44.00144269
3922.00 -113.67024353  44.06329205
3924.00 -113.77539737  44.12519179
3926.00 -113.88057838  44.18714192
3928.00 -113.98578653  44.24914244
3930.00 -114.09102179  44.31119336
3932.00 -114.19628413  44.37329467
3934.00 -114.30157353  44.43544639
3936.00 -114.40688994  44.49764852
3938.00 -114.51223334  44.55990106
3940.00 -114.61760370  44.62220402
3942.00 -114.72300098  44.68455740
3944.00 -114.82842517  44.74696120
3946.00 -114.93387622  44.80941543
3948.00 -115.03935410  44.87192009
3950.00 -115.14485880  44.93447518
3952.00 -115.25039027  44.99708072
3954.00 -115.35594848  45.05973670
3956.00 -115.46153342  45.12244313
3958.00 -115.56714503  45.18520000
3960.00 -115.67278330  45.24800734
3962.00 -115.77844820  45.31086513
3964.00 -115.88413969  45.37377338
3966.00 -115.98985774  45.43673210
3968.00 -116.09560232  45.49974129
3970.00 -116.20137341  45.56280096
3972.00 -116.30717097  45.62591110
3974.00 -116.41299497  45.68907172
3976.00 -116.51884539  45.75228283
3978.00 -116.62472218  45.81554443
3980.00 -116.73062533  45.87885652
3982.00 -116.83655480  45.94221910
3984.00 -116.94251055  46.00563218
3986.00 -117.04849257  46.06909577
3988.00 -117.15450082  46.13260986
3990.00 -117.26053527  46.19617446
3992.00 -117.36659588  46.25978958
3994.00 -117.47268264  46.32345521
3996.00 -117.57879551  46.38717136
3998.00 -117.68493445  46.45093803
4000.00 -117.79109944  46.51475523
4002.00 -117.89729045  46.57862296
4004.00 -118.00350745  46.64254123
4006.00 -118.10975040  46.70651003
4008.00 -118.21601929  46.77052937
4010.00 -118.32231407  46.83459926
4012.00 -118.42863471  46.89871969
4014.00 -118.53498119  46.96289067
4016.00 -118.64135348  47.02711220
4018.00 -118.74775155  47.09138429
4020.00 -118.85417536  47.15570694
4022.00 -118.96062489  47.22008016
4024.00 -119.06710010  47.28450393
4026.00 -119.17360097  47.34897828
4028.00 -119.28012746  47.41350320
4030.00 -119.38667955  47.47807869
4032.00 -119.49325720  47.54270477
4034.00 -119.59986039  47.60738142
4036.00 -119.70648908  47.67210866
4038.00 -119.81314325  47.73688648
4040.00 -119.91982286  47.80171490
4042.00 -120.02652788  47.86659390
4044.00 -120.13325829  47.93152351
4046.00 -120.24001405  47.99650371
4048.00 -120.34679514  48.06153451
4050.00 -120.45360152  48.12661592
4052.00 -120.56043316  48.19174794
4054.00 -120.66729004  48.25693056
4056.00 -120.77417212  48.32216380
4058.00 -120.88107937  48.38744766
4060.00 -120.98801177  48.45278213
4062.00 -121.09496928  48.51816722
4064.00 -121.20195187  48.58360294
4066.00 -121.30895951  48.64908929
4068.00 -121.41599218  48.71462626
4070.00 -121.52304984  48.78021387
4072.00 -121.63013246  48.84585211
4074.00 -121.73724002  48.91154099
4076.00 -121.84437247  48.97728051
4078.00 -121.95152980  49.04307067
4080.00 -122.05871198  49.10891148
4082.00 -122.16591896  49.17480293
4084.00 -122.27315073  49.24074504
4086.00 -122.38040725  49.30673779
4088.00 -122.48768849  49.37278120
4090.00 -122.59499442  49.43887527
4092.00 -122.70232502  49.50502000
4094.00 -122.80968025  49.57121539
4096.00 -122.91706008  49.63746145
4098.00 -123.02446448  49.70375817
4100.00 -123.13189343  49.77010556
4102.00 -123.23934689  49.83650363
4104.00 -123.34682483  49.90295237
4106.00 -123.45432722  49.96945178
4108.00 -123.56185404  50.03600187
4110.00 -123.66940525  50.10260265
4112.00 -123.77698082  50.16925411
4114.00 -123.88458073  50.23595625
4116.00 -123.99220494  50.30270908
4118.00 -124.09985342  50.36951260
4120.00 -124.20752614  50.43636681
4122.00 -124.31522308  50.50327171
4124.00 -124.42294420  50.57022731
4126.00 -124.53068947  50.63723361
4128.00 -124.63845887  50.70429061
4130.00 -124.74625236  50.77139831
4132.00 -124.85406992  50.83855672
4134.00 -124.96191151  50.90576583
4136.00 -125.06977710  50.97302565
4138.00 -125.17766667  51.04033618
4140.00 -125.28558018  51.10769742
4142.00 -125.39351761  51.17510938
4144.00 -125.50147892  51.24257205
4146.00 -125.60946408  51.31008544
4148.00 -125.71747307  51.37764955
4150.00 -125.82550586  51.44526438
4152.00 -125.93356241  51.51292993
4154.00 -126.04164270  51.58064621
4156.00 -126.14974669  51.64841322
4158.00 -126.25787436  51.71623095
4160.00 -126.36602568  51.78409942
4162.00 -126.47420061  51.85201861
4164.00 -126.58239913  51.91998854
4166.00 -126.69062121  51.98800921
4168.00 -126.79886681  52.05608061
4170.00 -126.90713591  52.12420276
4172.00 -127.01542848  52.19237564
4174.00 -127.12374449  52.26059926
4176.00 -127.23208390  52.32887363
4178.00 -127.34044670  52.39719874
4180.00 -127.44883284  52.46557460
4182.00 -127.55724230  52.53400121
4184.00 -127.66567506  52.60247857
4186.00 -127.77413107  52.67100668
4188.00 -127.88261031  52.73958554
4190.00 -127.99111275  52.80821515
4192.00 -128.09963837  52.87689552
4194.00 -128.20818712  52.94562665
4196.00 -128.31675899  53.01440854
4198.00 -128.42535394  53.08324118
4200.00 -128.53397194  53.15212459
4202.00 -128.64261296  53.22105875
4204.00 -128.75127697  53.29004369
4206.00 -128.85996395  53.35907938
4208.00 -128.96867387  53.42816585
4210.00 -129.07740668  53.49730308
4212.00 -129.18616237  53.56649107
4214.00 -129.29494091  53.63572984
4216.00 -129.40374226  53.70501938
4218.00 -129.51256640  53.77435969
4220.00 -129.62141329  53.84375078
4222.00 -129.73028292  53.91319263
4224.00 -129.83917523  53.98268527
4226.00 -129.94809022  54.05222868
4228.00 -130.05702784  54.12182287
4230.00 -130.16598807  54.19146783
4232.00 -130.27497088  54.26116358
4234.00 -130.38397624  54.33091011
4236.00 -130.49300412  54.40070741
4238.00 -130.60205449  54.47055551
4240.00 -130.71112733  54.54045438
4242.00 -130.82022259  54.61040404
4244.00 -130.92934025  54.68040448
4246.00 -131.03848029  54.75045571
4248.00 -131.14764267  54.82055773
4250.00 -131.25682736  54.89071054
4252.00 -131.36603434  54.96091413
4254.00 -131.47526357  55.03116851
4256.00 -131.58451503  55.10147369
4258.00 -131.69378868  55.17182965
4260.00 -131.80308450  55.24223641
4262.00 -131.91240246  55.31269396
4264.00 -132.02174252  55.38320230
4266.00 -132.13110467  55.45376144
4268.00 -132.24048886  55.52437137
4270.00 -132.34989507  55.59503210
4272.00 -132.45932327  55.66574362
4274.00 -132.56877343  55.73650594
4276.00 -132.67824552  55.80731906
4278.00 -132.78773951  55.87818297
4280.00 -132.89725538  55.94909769
4282.00 -133.00679309  56.02006320
4284.00 -133.11635261  56.09107951
4286.00 -133.22593392  56.16214662
4288.00 -133.33553698  56.23326453
4290.00 -133.44516177  56.30443324
4292.00 -133.55480826  56.37565275
4294.00 -133.66447641  56.44692307
4296.00 -133.77416620  56.51824418
4298.00 -133.88387760  56.58961610
4300.00 -133.99361057  56.66103882
4302.00 -134.10336510  56.73251235
4304.00 -134.21314115  56.80403668
4306.00 -134.32293869  56.87561181
4308.00 -134.43275770  56.94723774
4310.00 -134.54259813  57.01891448
4312.00 -134.65245997  57.09064203
4314.00 -134.76234319  57.16242038
4316.00 -134.87224775  57.23424953
4318.00 -134.98217362  57.30612949
4320.00 -135.09212079  57.37806025
4322.00 -135.20208921  57.45004182
4324.00 -135.31207886  57.52207420
4326.00 -135.42208971  57.59415738
4328.00 -135.53212173  57.66629137
4330.00 -135.64217489  57.73847616
4332.00 -135.75224916  57.81071176
4334.00 -135.86234452  57.88299816
4336.00 -135.97246093  57.95533537
4338.00 -136.08259836  58.02772339
4340.00 -136.19275679  58.10016221
4342.00 -136.30293619  58.17265184
4344.00 -136.41313652  58.24519227
4346.00 -136.52335776  58.31778351
4348.00 -136.63359988  58.39042555
4350.00 -136.74386285  58.46311841
4352.00 -136.85414664  58.53586206
4354.00 -136.96445123  58.60865652
4356.00 -137.07477657  58.68150179
4358.00 -137.18512265  58.75439786
4360.00 -137.29548944  58.82734474
4362.00 -137.40587690  58.90034242
4364.00 -137.51628501  58.97339090
4366.00 -137.62671373  59.04649019
4368.00 -137.73716304  59.11964028
4370.00 -137.84763292  59.19284117
4372.00 -137.95812332  59.26609287
4374.00 -138.06863423  59.33939537
4376.00 -138.17916560  59.41274868
4378.00 -138.28971743  59.48615278
4380.00 -138.40028966  59.55960769
4382.00 -138.51088228  59.63311340
4384.00 -138.62149526  59.70666990
4386.00 -138.73212857  59.78027721
4388.00 -138.84278218  59.85393532
4390.00 -138.95345605  59.92764423
4392.00 -139.06415017  60.00140393
4394.00 -139.17486450  60.07521444
4396.00 -139.28559901  60.14907574
4398.00 -139.39635368  60.22298784
4400.00 -139.50712847  60.29695073
4402.00 -139.61792336  60.37096442
4404.00 -139.72873832  60.44502891
4406.00 -139.83957332  60.51914419
4408.00 -139.95042832  60.59331026
4410.00 -140.06130331  60.66752713
4412.00 -140.17219825  60.74179479
4414.00 -140.28311311  60.81611325
4416.00 -140.39404787  60.89048249
4418.00 -140.50500250  60.96490252
4420.00 -140.61597696  61.03937335
4422.00 -140.72697123  61.11389496
4424.00 -140.83798528  61.18846736
4426.00 -140.94901908  61.26309055
4428.00 -141.06007261  61.33776452
4430.00 -141.17114583  61.41248928
4432.00 -141.28223871  61.48726482
4434.00 -141.39335123  61.56209115
4436.00 -141.50448335  61.63696826
4438.00 -141.61563505  61.71189615
4440.00 -141.72680631  61.78687482
4442.00 -141.83799708  61.86190428
4444.00 -141.94920735  61.93698451
4446.00 -142.06043708  62.01211552
4448.00 -142.17168624  62.08729730
4450.00 -142.28295482  62.16252986
4452.00 -142.39424277  62.23781320
4454.00 -142.50555006  62.31314731
4456.00 -142.61687668  62.38853219
4458.00 -142.72822259  62.46396785
4460.00 -142.83958777  62.53945427
4462.00 -142.95097218  62.61499147
4464.00 -143.06237579  62.69057943
4466.00 -143.17379858  62.76621816
4468.00 -143.28524052  62.84190765
4470.00 -143.39670158  62.91764791
4472.00 -143.50818174  62.99343893
4474.00 -143.61968095  63.06928071
4476.00 -143.73119920  63.14517326
4478.00 -143.84273646  63.22111656
4480.00 -143.95429269  63.29711062
4482.00 -144.06586787  63.37315544
4484.00 -144.17746198  63.44925101
4486.00 -144.28907497  63.52539734
4488.00 -144.40070683  63.60159441
4490.00 -144.51235752  63.67784224
4492.00 -144.62402702  63.75414082
4494.00 -144.73571529  63.83049015
4496.00 -144.84742232  63.90689023
4498.00 -144.95914807  63.98334104
4500.00 -145.07089251  64.05984261
4502.00 -145.18265561  64.13639491
4504.00 -145.29443735  64.21299796
4506.00 -145.40623769  64.28965174
4508.00 -145.51805662  64.36635627
4510.00 -145.62989410  64.44311153
4512.00 -145.74175009  64.51991752
4514.00 -145.85362458  64.59677424
4516.00 -145.96551754  64.67368170
4518.00 -146.07742893  64.75063989
4520.00 -146.18935873  64.82764880
4522.00 -146.30130692  64.90470844
4524.00 -146.41327345  64.98181880
4526.00 -146.52525831  65.05897989
4528.00 -146.63726146  65.13619170
4530.00 -146.74928288  65.21345422
4532.00 -146.86132253  65.29076747
4534.00 -146.97338040  65.36813143
4536.00 -147.08545645  65.44554610
4538.00 -147.19755065  65.52301148
4540.00 -147.30966298  65.60052758
4542.00 -147.42179341  65.67809438
4544.00 -147.53394190  65.75571189
4546.00 -147.64610844  65.83338010
4548.00 -147.75829298  65.91109902
4550.00 -147.87049552  65.98886863
4552.00 -147.98271600  66.06668895
4554.00 -148.09495442  66.14455996
4556.00 -148.20721073  66.22248166
4558.00 -148.31948492  66.30045406
4560.00 -148.43177695  66.37847715
4562.00 -148.54408679  66.45655093
4564.00 -148.65641442  66.53467539
4566.00 -148.76875981  66.61285054
4568.00 -148.88112293  66.69107636
4570.00 -148.99350376  66.76935287
4572.00 -149.10590225  66.84768006
4574.00 -149.21831840  66.92605792
4576.00 -149.33075216  67.00448646
4578.00 -149.44320351  67.08296567
4580.00 -149.55567242  67.16149554
4582.00 -149.66815887  67.24007609
4584.00 -149.78066282  67.31870730
4586.00 -149.89318425  67.39738917
4588.00 -150.00572313  67.47612170
4590.00 -150.11827943  67.55490489
4592.00 -150.23085313  67.63373873
4594.00 -150.34344419  67.71262323
4596.00 -150.45605259  67.79155837
4598.00 -150.56867829  67.87054417
4600.00 -150.68132128  67.94958061
4602.00 -150.79398153  68.02866770
4604.00 -150.90665899  68.10780543
4606.00 -151.01935366  68.18699379
4608.00 -151.13206549  68.26623280
4610.00 -151.24479447  68.34552243
4612.00 -151.35754056  68.42486270
4614.00 -151.47030374  68.50425360
4616.00 -151.58308397  68.58369512
4618.00 -151.69588124  68.66318727
4620.00 -151.80869551  68.74273004
4622.00 -151.92152675  68.82232343
4624.00 -152.03437493  68.90196743
4626.00 -152.14724004  68.98166205
4628.00 -152.26012204  69.06140728
4630.00 -152.37302090  69.14120312
4632.00 -152.48593659  69.22104956
4634.00 -152.59886909  69.30094660
4636.00 -152.71181837  69.38089425
4638.00 -152.82478440  69.46089249
4640.00 -152.93776716  69.54094133
4642.00 -153.05076661  69.62104076
4644.00 -153.16378273  69.70119078
4646.00 -153.27681549  69.78139139
4648.00 -153.38986486  69.86164258
4650.00 -153.50293082  69.94194435
4652.00 -153.61601334  70.02229670
4654.00 -153.72911238  70.10269963
4656.00 -153.84222792  70.18315312
4658.00 -153.95535994  70.26365719
4660.00 -154.06850841  70.34421182
4662.00 -154.18167329  70.42481702
4664.00 -154.29485457  70.50547278
4666.00 -154.40805220  70.58617910
4668.00 -154.52126618  70.66693597
4670.00 -154.63449646  70.74774339
4672.00 -154.74774302  70.82860136
4674.00 -154.86100583  70.90950988
4676.00 -154.97428487  70.99046894
4678.00 -155.08758011  71.07147855
4680.00 -155.20089151  71.15253868
4682.00 -155.31421906  71.23364936
4684.00 -155.42756272  71.31481056
4686.00 -155.54092247  71.39602229
4688.00 -155.65429828  71.47728454
4690.00 -155.76769012  71.55859732
4692.00 -155.88109796  71.63996061
4694.00 -155.99452178  71.72137442
4696.00 -156.10796155  71.80283874
4698.00 -156.22141724  71.88435357
4700.00 -156.33488883  71.96591891
4702.00 -156.44837628  72.04753475
4704.00 -156.56187957  72.12920108
4706.00 -156.67539867  72.21091791
4708.00 -156.78893356  72.29268524
4710.00 -156.90248420  72.37450305
4712.00 -157.01605057  72.45637135
4714.00 -157.12963265  72.53829013
4716.00 -157.24323039  72.62025939
4718.00 -157.35684379  72.70227912
4720.00 -157.47047281  72.78434933
4722.00 -157.58411741  72.86647001
4724.00 -157.69777758  72.94864115
4726.00 -157.81145329  73.03086275
4728.00 -157.92514451  73.11313482
4730.00 -158.03885122  73.19545733
4732.00 -158.15257337  73.27783030
4734.00 -158.26631096  73.36025372
4736.00 -158.38006394  73.44272758
4738.00 -158.49383230  73.52525188
4740.00 -158.60761601  73.60782662
4742.00 -158.72141503  73.69045179
4744.00 -158.83522935  73.77312740
4746.00 -158.94905893  73.85585342
4748.00 -159.06290374  73.93862988
4750.00 -159.17676377  74.02145675
4752.00 -159.29063897  74.10433404
4754.00 -159.40452934  74.18726174
4756.00 -159.51843483  74.27023984
4758.00 -159.63235542  74.35326836
4760.00 -159.74629109  74.43634727
4762.00 -159.86024180  74.51947658
4764.00 -159.97420753  74.60265629
4766.00 -160.08818825  74.68588638
4768.00 -160.20218394  74.76916686
4770.00 -160.31619456  74.85249772
4772.00 -160.43022010  74.93587896
4774.00 -160.54426051  75.01931058
4776.00 -160.65831579  75.10279256
4778.00 -160.77238589  75.18632491
4780.00 -160.88647080  75.26990763
4782.00 -161.00057048  75.35354070
4784.00 -161.11468490  75.43722413
4786.00 -161.22881405  75.52095791
4788.00 -161.34295789  75.60474204
4790.00 -161.45711640  75.68857651
4792.00 -161.57128955  75.77246131
4794.00 -161.68547731  75.85639646
4796.00 -161.79967966  75.94038193
4798.00 -161.91389656  76.02441774
4800.00 -162.02812800  76.10850386
4802.00 -162.14237394  76.19264031
4804.00 -162.25663435  76.27682707
4806.00 -162.37090922  76.36106414
4808.00 -162.48519851  76.44535152
4810.00 -162.59950220  76.52968920
4812.00 -162.71382026  76.61407718
4814.00 -162.82815266  76.69851545
4816.00 -162.94249938  76.78300402
4818.00 -163.05686038  76.86754287
4820.00 -163.17123565  76.95213200
4822.00 -163.28562515  77.03677141
4824.00 -163.40002886  77.12146109
4826.00 -163.51444675  77.20620104
4828.00 -163.62887880  77.29099126
4830.00 -163.74332497  77.37583174
4832.00 -163.85778525  77.46072248
4834.00 -163.97225959  77.54566346
4836.00 -164.08674799  77.63065470
4838.00 -164.20125041  77.71569617
4840.00 -164.31576682  77.80078789
4842.00 -164.43029719  77.88592984
4844.00 -164.54484151  77.97112203
4846.00 -164.65939974  78.05636443
4848.00 -164.77397185  78.14165706
4850.00 -164.88855783  78.22699991
4852.00 -165.00315764  78.31239297
4854.00 -165.11777125  78.39783624
4856.00 -165.23239865  78.48332971
4858.00 -165.34703980  78.56887338
4860.00 -165.46169467  78.65446724
4862.00 -165.57636324  78.74011130
4864.00 -165.69104549  78.82580554
4866.00 -165.80574138  78.91154996
4868.00 -165.92045089  78.99734456
4870.00 -166.03517400  79.08318933
4872.00 -166.14991067  79.16908427
4874.00 -166.26466088  79.25502937
4876.00 -166.37942460  79.34102462
4878.00 -166.49420181  79.42707004
4880.00 -166.60899248  79.51316560
4882.00 -166.72379659  79.59931130
4884.00 -166.83861410  79.68550714
4886.00 -166.95344499  79.77175312
4888.00 -167.06828923  79.85804923
4890.00 -167.18314680  79.94439547
4892.00 -167.29801767  80.03079182
4894.00 -167.41290182  80.11723829
4896.00 -167.52779921  80.20373487
4898.00 -167.64270983  80.29028156
4900.00 -167.75763364  80.37687834
4902.00 -167.87257062  80.46352523
4904.00 -167.98752074  80.55022221
4906.00 -168.10248397  80.63696927
4908.00 -168.21746030  80.72376641
4910.00 -168.33244968  80.81061363
4912.00 -168.44745210  80.89751093
4914.00 -168.56246754  80.98445829
4916.00 -168.67749595  81.07145571
4918.00 -168.79253732  81.15850319
4920.00 -168.90759163  81.24560073
4922.00 -169.02265883  81.33274831
4924.00 -169.13773892  81.41994593
4926.00 -169.25283185  81.50719359
4928.00 -169.36793762  81.59449128
4930.00 -169.48305618  81.68183900
4932.00 -169.59818751  81.76923674
4934.00 -169.71333159  81.85668450
4936.00 -169.82848839  81.94418227
4938.00 -169.94365788  82.03173005
4940.00 -170.05884004  82.11932783
4942.00 -170.17403484  82.20697560
4944.00 -170.28924226  82.29467337
4946.00 -170.40446226  82.38242112
4948.00 -170.51969483  82.47021886
4950.00 -170.63493994  82.55806657
4952.00 -170.75019755  82.64596425
4954.00 -170.86546765  82.73391190
4956.00 -170.98075021  82.82190950
4958.00 -171.09604519  82.90995707
4960.00 -171.21135259  82.99805458
4962.00 -171.32667236  83.08620204
4964.00 -171.44200449  83.17439943
4966.00 -171.55734894  83.26264676
4968.00 -171.67270570  83.35094402
4970.00 -171.78807473  83.43929120
4972.00 -171.90345600  83.52768830
4974.00 -172.01884950  83.61613532
4976.00 -172.13425520  83.70463223
4978.00 -172.24967307  83.79317906
4980.00 -172.36510308  83.88177577
4982.00 -172.48054522  83.97042238
4984.00 -172.59599944  84.05911888
4986.00 -172.71146573  84.14786525
4988.00 -172.82694406  84.23666150
4990.00 -172.94243441  84.32550762
4992.00 -173.05793675  84.41440360
4994.00 -173.17345104  84.50334944
4996.00 -173.28897728  84.59234513
4998.00 -173.40451542  84.68139067
5000.00 -173.52006545  84.77048605
