wavelength(nm)         real         imag
100.00   3.84470237   0.00052842
102.00   3.84246856   0.00056076
104.00   3.84019053   0.00059440
106.00   3.83786829   0.00062935
108.00   3.83550183   0.00066565
110.00   3.83309115   0.00070331
112.00   3.83063627   0.00074237
114.00   3.82813717   0.00078285
116.00   3.82559386   0.00082478
118.00   3.82300634   0.00086818
120.00   3.82037461   0.00091307
122.00   3.81769868   0.00095949
124.00   3.81497854   0.00100745
126.00   3.81221420   0.00105698
128.00   3.80940565   0.00110811
130.00   3.80655290   0.00116086
132.00   3.80365594   0.00121526
134.00   3.80071479   0.00127134
136.00   3.79772944   0.00132911
138.00   3.79469989   0.00138861
140.00   3.79162615   0.00144985
142.00   3.78850821   0.00151288
144.00   3.78534608   0.00157770
146.00   3.78213975   0.00164434
148.00   3.77888924   0.00171284
150.00   3.77559454   0.00178321
152.00   3.77225564   0.00185548
154.00   3.76887257   0.00192968
156.00   3.76544531   0.00200584
158.00   3.76197386   0.00208396
160.00   3.75845823   0.00216410
162.00   3.75489843   0.00224626
164.00   3.75129444   0.00233047
166.00   3.74764628   0.00241676
168.00   3.74395394   0.00250515
170.00   3.74021743   0.00259567
172.00   3.73643674   0.00268835
174.00   3.73261189   0.00278321
176.00   3.72874287   0.00288027
178.00   3.72482968   0.00297956
180.00   3.72087232   0.00308111
182.00   3.71687080   0.00318494
184.00   3.71282512   0.00329107
186.00   3.70873528   0.00339954
188.00   3.70460128   0.00351036
190.00   3.70042312   0.00362356
192.00   3.69620081   0.00373917
194.00   3.69193435   0.00385722
196.00   3.68762373   0.00397772
198.00   3.68326897   0.00410070
200.00   3.67887006   0.00422619
202.00   3.67442700   0.00435422
204.00   3.66993980   0.00448481
206.00   3.66540846   0.00461797
208.00   3.66083298   0.00475375
210.00   3.65621336   0.00489217
212.00   3.65154961   0.00503324
214.00   3.64684173   0.00517700
216.00   3.64208971   0.00532346
218.00   3.63729356   0.00547267
220.00   3.63245329   0.00562463
222.00   3.62756889   0.00577938
224.00   3.62264037   0.00593695
226.00   3.61766772   0.00609735
228.00   3.61265096   0.00626061
230.00   3.60759009   0.00642676
232.00   3.60248510   0.00659582
234.00   3.59733599   0.00676782
236.00   3.59214278   0.00694278
238.00   3.58690546   0.00712073
240.00   3.58162403   0.00730169
242.00   3.57629851   0.00748569
244.00   3.57092888   0.00767276
246.00   3.56551515   0.00786291
248.00   3.56005733   0.00805618
250.00   3.55455542   0.00825259
252.00   3.54900941   0.00845216
254.00   3.54341932   0.00865493
256.00   3.53778514   0.00886091
258.00   3.53210687   0.00907013
260.00   3.52638453   0.00928261
262.00   3.52061811   0.00949839
264.00   3.51480761   0.00971748
266.00   3.50895303   0.00993991
268.00   3.50305439   0.01016571
270.00   3.49711168   0.01039490
272.00   3.49112490   0.01062751
274.00   3.48509406   0.01086356
276.00   3.47901916   0.01110308
278.00   3.47290020   0.01134609
280.00   3.46673719   0.01159261
282.00   3.46053012   0.01184268
284.00   3.45427900   0.01209632
286.00   3.44798384   0.01235355
288.00   3.44164463   0.01261440
290.00   3.43526138   0.01287890
292.00   3.42883409   0.01314706
294.00   3.42236277   0.01341892
296.00   3.41584741   0.01369449
298.00   3.40928803   0.01397381
300.00   3.40268461   0.01425690
302.00   3.39603718   0.01454378
304.00   3.38934572   0.01483449
306.00   3.38261024   0.01512903
308.00   3.37583074   0.01542745
310.00   3.36900724   0.01572976
312.00   3.36213972   0.01603600
314.00   3.35522820   0.01634618
316.00   3.34827267   0.01666033
318.00   3.34127314   0.01697847
320.00   3.33422962   0.01730064
322.00   3.32714210   0.01762685
324.00   3.32001058   0.01795713
326.00   3.31283508   0.01829151
328.00   3.30561560   0.01863001
330.00   3.29835213   0.01897266
332.00   3.29104469   0.01931948
334.00   3.28369327   0.01967050
336.00   3.27629787   0.02002573
338.00   3.26885851   0.02038522
340.00   3.26137518   0.02074897
342.00   3.25384789   0.02111703
344.00   3.24627664   0.02148940
346.00   3.23866143   0.02186613
348.00   3.23100227   0.02224722
350.00   3.22329917   0.02263272
352.00   3.21555211   0.02302263
354.00   3.20776111   0.02341700
356.00   3.19992618   0.02381583
358.00   3.19204730   0.02421917
360.00   3.18412450   0.02462702
362.00   3.17615776   0.02503943
364.00   3.16814711   0.02545641
366.00   3.16009252   0.02587798
368.00   3.15199402   0.02630418
370.00   3.14385161   0.02673503
372.00   3.13566528   0.02717055
374.00   3.12743505   0.02761077
376.00   3.11916091   0.02805571
378.00   3.11084287   0.02850541
380.00   3.10248094   0.02895987
382.00   3.09407511   0.02941913
384.00   3.08562539   0.02988322
386.00   3.07713179   0.03035215
388.00   3.06859430   0.03082596
390.00   3.06001294   0.03130467
392.00   3.05138770   0.03178830
394.00   3.04271859   0.03227688
396.00   3.03400561   0.03277043
398.00   3.02524877   0.03326899
400.00   3.01644807   0.03377256
402.00   3.00760351   0.03428119
404.00   2.99871510   0.03479488
406.00   2.98978285   0.03531368
408.00   2.98080675   0.03583760
410.00   2.97178681   0.03636667
412.00   2.96272303   0.03690091
414.00   2.95361542   0.03744035
416.00   2.94446398   0.03798502
418.00   2.93526872   0.03853493
420.00   2.92602964   0.03909012
422.00   2.91674674   0.03965060
424.00   2.90742003   0.04021641
426.00   2.89804951   0.04078757
428.00   2.88863519   0.04136410
430.00   2.87917707   0.04194602
432.00   2.86967515   0.04253338
434.00   2.86012944   0.04312618
436.00   2.85053994   0.04372445
438.00   2.84090666   0.04432822
440.00   2.83122960   0.04493751
442.00   2.82150877   0.04555235
444.00   2.81174416   0.04617277
446.00   2.80193579   0.04679878
448.00   2.79208366   0.04743041
450.00   2.78218776   0.04806770
452.00   2.77224812   0.04871065
454.00   2.76226472   0.04935930
456.00   2.75223758   0.05001368
458.00   2.74216670   0.05067380
460.00   2.73205209   0.05133969
462.00   2.72189374   0.05201138
464.00   2.71169167   0.05268889
466.00   2.70144587   0.05337225
468.00   2.69115635   0.05406148
470.00   2.68082312   0.05475660
472.00   2.67044618   0.05545765
474.00   2.66002554   0.05616464
476.00   2.64956119   0.05687761
478.00   2.63905315   0.05759657
480.00   2.62850142   0.05832155
482.00   2.61790600   0.05905257
484.00   2.60726690   0.05978967
486.00   2.59658412   0.06053286
488.00   2.58585767   0.06128217
490.00   2.57508756   0.06203763
492.00   2.56427377   0.06279925
494.00   2.55341633   0.06356707
496.00   2.54251524   0.06434111
498.00   2.53157050   0.06512140
500.00   2.52058211   0.06590795
502.00   2.50955008   0.06670079
504.00   2.49847442   0.06749996
506.00   2.48735513   0.06830546
508.00   2.47619221   0.06911734
510.00   2.46498567   0.06993561
512.00   2.45373552   0.07076029
514.00   2.44244176   0.07159142
516.00   2.43110439   0.07242901
518.00   2.41972342   0.07327310
520.00   2.40829886   0.07412370
522.00   2.39683070   0.07498085
524.00   2.38531896   0.07584456
526.00   2.37376364   0.07671486
528.00   2.36216474   0.07759177
530.00   2.35052227   0.07847533
532.00   2.33883624   0.07936555
534.00   2.32710664   0.08026246
536.00   2.31533349   0.08116609
538.00   2.30351679   0.08207645
540.00   2.29165655   0.08299358
542.00   2.27975276   0.08391749
544.00   2.26780544   0.08484822
546.00   2.25581459   0.08578579
548.00   2.24378022   0.08673022
550.00   2.23170232   0.08768154
552.00   2.21958092   0.08863977
554.00   2.20741600   0.08960494
556.00   2.19520758   0.09057706
558.00   2.18295566   0.09155618
560.00   2.17066025   0.09254230
562.00   2.15832135   0.09353546
564.00   2.14593898   0.09453568
566.00   2.13351312   0.09554298
568.00   2.12104379   0.09655739
570.00   2.10853100   0.09757894
572.00   2.09597474   0.09860764
574.00   2.08337504   0.09964353
576.00   2.07073188   0.10068662
578.00   2.05804528   0.10173695
580.00   2.04531523   0.10279454
582.00   2.03254176   0.10385940
584.00   2.01972486   0.10493157
586.00   2.00686454   0.10601108
588.00   1.99396080   0.10709793
590.00   1.98101365   0.10819217
592.00   1.96802309   0.10929381
594.00   1.95498914   0.11040288
596.00   1.94191179   0.11151941
598.00   1.92879106   0.11264341
600.00   1.91562694   0.11377491
602.00   1.90241944   0.11491394
604.00   1.88916858   0.11606053
606.00   1.87587435   0.11721469
608.00   1.86253676   0.11837645
610.00   1.84915581   0.11954583
612.00   1.83573152   0.12072287
614.00   1.82226389   0.12190758
616.00   1.80875292   0.12309998
618.00   1.79519862   0.12430011
620.00   1.78160100   0.12550799
622.00   1.76796005   0.12672364
624.00   1.75427580   0.12794709
626.00   1.74054824   0.12917836
628.00   1.72677737   0.13041748
630.00   1.71296322   0.13166446
632.00   1.69910577   0.13291934
634.00   1.68520504   0.13418214
636.00   1.67126104   0.13545288
638.00   1.65727376   0.13673159
640.00   1.64324322   0.13801830
642.00   1.62916942   0.13931302
644.00   1.61505237   0.14061578
646.00   1.60089207   0.14192660
648.00   1.58668853   0.14324552
650.00   1.57244176   0.14457255
652.00   1.55815176   0.14590772
654.00   1.54381854   0.14725106
656.00   1.52944210   0.14860258
658.00   1.51502246   0.14996231
660.00   1.50055961   0.15133028
662.00   1.48605356   0.15270651
664.00   1.47150433   0.15409103
666.00   1.45691191   0.15548385
668.00   1.44227631   0.15688501
670.00   1.42759754   0.15829453
672.00   1.41287561   0.15971243
674.00   1.39811051   0.16113874
676.00   1.38330227   0.16257347
678.00   1.36845088   0.16401667
680.00   1.35355635   0.16546834
682.00   1.33861868   0.16692852
684.00   1.32363789   0.16839723
686.00   1.30861398   0.16987449
688.00   1.29354696   0.17136032
690.00   1.27843683   0.17285476
692.00   1.26328360   0.17435783
694.00   1.24808727   0.17586954
696.00   1.23284786   0.17738993
698.00   1.21756536   0.17891902
700.00   1.20223980   0.18045683
702.00   1.18687116   0.18200338
704.00   1.17145946   0.18355871
706.00   1.15600471   0.18512284
708.00   1.14050692   0.18669578
710.00   1.12496608   0.18827757
712.00   1.10938220   0.18986822
714.00   1.09375530   0.19146777
716.00   1.07808538   0.19307624
718.00   1.06237245   0.19469364
720.00   1.04661650   0.19632001
722.00   1.03081756   0.19795537
724.00   1.01497563   0.19959975
726.00   0.99909070   0.20125316
728.00   0.98316280   0.20291563
730.00   0.96719193   0.20458719
732.00   0.95117808   0.20626786
734.00   0.93512128   0.20795766
736.00   0.91902153   0.20965662
738.00   0.90287884   0.21136477
740.00   0.88669320   0.21308212
742.00   0.87046463   0.21480870
744.00   0.85419314   0.21654454
746.00   0.83787873   0.21828965
748.00   0.82152142   0.22004407
750.00   0.80512119   0.22180782
752.00   0.78867808   0.22358091
754.00   0.77219207   0.22536338
756.00   0.75566318   0.22715526
758.00   0.73909142   0.22895655
760.00   0.72247679   0.23076729
762.00   0.70581930   0.23258751
764.00   0.68911896   0.23441722
766.00   0.67237577   0.23625645
768.00   0.65558974   0.23810522
770.00   0.63876088   0.23996356
772.00   0.62188919   0.24183150
774.00   0.60497469   0.24370905
776.00   0.58801738   0.24559623
778.00   0.57101727   0.24749309
780.00   0.55397436   0.24939963
782.00   0.53688867   0.25131588
784.00   0.51976019   0.25324187
786.00   0.50258894   0.25517762
788.00   0.48537493   0.25712315
790.00   0.46811815   0.25907849
792.00   0.45081863   0.26104366
794.00   0.43347637   0.26301868
796.00   0.41609136   0.26500359
798.00   0.39866363   0.26699840
800.00   0.38119318   0.26900314
802.00   0.36368002   0.27101783
804.00   0.34612415   0.27304249
806.00   0.32852558   0.27507715
808.00   0.31088432   0.27712184
810.00   0.29320038   0.27917657
812.00   0.27547376   0.28124137
814.00   0.25770448   0.28331627
816.00   0.23989254   0.28540129
818.00   0.22203794   0.28749645
820.00   0.20414070   0.28960177
822.00   0.18620082   0.29171729
824.00   0.16821831   0.29384302
826.00   0.15019318   0.29597898
828.00   0.13212544   0.29812521
830.00   0.11401509   0.30028173
832.00   0.09586214   0.30244855
834.00   0.07766661   0.30462571
836.00   0.05942849   0.30681322
838.00   0.04114779   0.30901111
840.00   0.02282453   0.31121941
842.00   0.00445871   0.31343814
844.00  -0.01394966   0.31566732
846.00  -0.03240058   0.31790697
848.00  -0.05089403   0.32015712
850.00  -0.06943001   0.32241780
852.00  -0.08800850   0.32468902
854.00  -0.10662951   0.32697082
856.00  -0.12529302   0.32926320
858.00  -0.14399903   0.33156621
860.00  -0.16274752   0.33387986
862.00  -0.18153850   0.33620417
864.00  -0.20037194   0.33853917
866.00  -0.21924785   0.34088489
868.00  -0.23816621   0.34324134
870.00  -0.25712702   0.34560855
872.00  -0.27613027   0.34798655
874.00  -0.29517595   0.35037535
876.00  -0.31426405   0.35277499
878.00  -0.33339457   0.35518548
880.00  -0.35256749   0.35760684
882.00  -0.37178281   0.36003911
884.00  -0.39104052   0.36248231
886.00  -0.41034061   0.36493645
888.00  -0.42968307   0.36740157
890.00  -0.44906790   0.36987768
892.00  -0.46849508   0.37236482
894.00  -0.48796461   0.37486299
896.00  -0.50747648   0.37737224
898.00  -0.52703069   0.37989257
900.00  -0.54662721   0.38242402
902.00  -0.56626605   0.38496661
904.00  -0.58594720   0.38752036
906.00  -0.60567064   0.39008529
908.00  -0.62543638   0.39266143
910.00  -0.64524439   0.39524881
912.00  -0.66509468   0.39784743
914.00  -0.68498723   0.40045734
916.00  -0.70492203   0.40307855
918.00  -0.72489909   0.40571109
920.00  -0.74491838   0.40835497
922.00  -0.76497990   0.41101023
924.00  -0.78508364   0.41367688
926.00  -0.80522959   0.41635496
928.00  -0.82541775   0.41904447
930.00  -0.84564810   0.42174546
932.00  -0.86592064   0.42445793
934.00  -0.88623535   0.42718192
936.00  -0.90659224   0.42991744
938.00  -0.92699128   0.43266452
940.00  -0.94743248   0.43542319
942.00  -0.96791582   0.43819346
944.00  -0.98844129   0.44097537
946.00  -1.00900889   0.44376893
948.00  -1.02961861   0.44657416
950.00  -1.05027043   0.44939110
952.00  -1.07096435   0.45221976
954.00  -1.09170037   0.45506016
956.00  -1.11247846   0.45791234
958.00  -1.13329863   0.46077631
960.00  -1.15416085   0.46365210
962.00  -1.17506514   0.46653972
964.00  -1.19601147   0.46943921
966.00  -1.21699983   0.47235059
968.00  -1.23803023   0.47527388
970.00  -1.25910264   0.47820910
972.00  -1.28021706   0.48115628
974.00  -1.30137348   0.48411544
976.00  -1.32257190   0.48708660
978.00  -1.34381229   0.49006978
980.00  -1.36509466   0.49306502
982.00  -1.38641900   0.49607233
984.00  -1.40778529   0.49909174
986.00  -1.42919352   0.50212326
988.00  -1.45064369   0.50516693
990.00  -1.47213579   0.50822276
992.00  -1.49366981   0.51129078
994.00  -1.51524574   0.51437101
996.00  -1.53686357   0.51746348
998.00  -1.55852329   0.52056821
1000.00  -1.58022489   0.52368522
1002.00  -1.60196837   0.52681453
1004.00  -1.62375370   0.52995617
1006.00  -1.64558089   0.53311016
1008.00  -1.66744993   0.53627652
1010.00  -1.68936080   0.53945529
1012.00  -1.71131350   0.54264647
1014.00  -1.73330801   0.54585009
1016.00  -1.75534434   0.54906618
1018.00  -1.77742245   0.55229476
1020.00  -1.79954236   0.55553585
1022.00  -1.82170405   0.55878948
1024.00  -1.84390751   0.56205566
1026.00  -1.86615272   0.56533443
1028.00  -1.88843969   0.56862580
1030.00  -1.91076840   0.57192980
1032.00  -1.93313884   0.57524645
1034.00  -1.95555100   0.57857577
1036.00  -1.97800488   0.58191779
1038.00  -2.00050045   0.58527252
1040.00  -2.02303773   0.58864000
1042.00  -2.04561668   0.59202025
1044.00  -2.06823731   0.59541328
1046.00  -2.09089961   0.59881912
1048.00  -2.11360356   0.60223780
1050.00  -2.13634915   0.60566933
1052.00  -2.15913638   0.60911375
1054.00  -2.18196524   0.61257106
1056.00  -2.20483571   0.61604131
1058.00  -2.22774779   0.61952450
1060.00  -2.25070147   0.62302066
1062.00  -2.27369673   0.62652981
1064.00  -2.29673357   0.63005199
1066.00  -2.31981198   0.63358720
1068.00  -2.34293195   0.63713548
1070.00  -2.36609346   0.64069684
1072.00  -2.38929651   0.64427131
1074.00  -2.41254109   0.64785891
1076.00  -2.43582719   0.65145966
1078.00  -2.45915480   0.65507359
1080.00  -2.48252390   0.65870072
1082.00  -2.50593450   0.66234107
1084.00  -2.52938657   0.66599467
1086.00  -2.55288011   0.66966154
1088.00  -2.57641511   0.67334169
1090.00  -2.59999156   0.67703516
1092.00  -2.62360945   0.68074197
1094.00  -2.64726877   0.68446213
1096.00  -2.67096950   0.68819568
1098.00  -2.69471165   0.69194262
1100.00  -2.71849519   0.69570300
1102.00  -2.74232012   0.69947683
1104.00  -2.76618643   0.70326412
1106.00  -2.79009411   0.70706491
1108.00  -2.81404314   0.71087922
1110.00  -2.83803353   0.71470707
1112.00  -2.86206525   0.71854849
1114.00  -2.88613830   0.72240348
1116.00  -2.91025266   0.72627209
1118.00  -2.93440834   0.73015432
1120.00  -2.95860531   0.73405021
1122.00  -2.98284357   0.73795977
1124.00  -3.00712310   0.74188304
1126.00  -3.03144390   0.74582002
1128.00  -3.05580596   0.74977075
1130.00  -3.08020926   0.75373524
1132.00  -3.10465379   0.75771352
1134.00  -3.12913956   0.76170561
1136.00  -3.15366653   0.76571153
1138.00  -3.17823471   0.76973132
1140.00  -3.20284409   0.77376497
1142.00  -3.22749464   0.77781253
1144.00  -3.25218638   0.78187402
1146.00  -3.27691927   0.78594945
1148.00  -3.30169331   0.79003884
1150.00  -3.32650850   0.79414223
1152.00  -3.35136482   0.79825963
1154.00  -3.37626226   0.80239107
1156.00  -3.40120080   0.80653656
1158.00  -3.42618045   0.81069614
1160.00  -3.45120119   0.81486982
1162.00  -3.47626300   0.81905762
1164.00  -3.50136589   0.82325957
1166.00  -3.52650983   0.82747569
1168.00  -3.55169481   0.83170600
1170.00  -3.57692083   0.83595053
1172.00  -3.60218788   0.84020930
1174.00  -3.62749594   0.84448232
1176.00  -3.65284501   0.84876962
1178.00  -3.67823507   0.85307123
1180.00  -3.70366611   0.85738717
1182.00  -3.72913812   0.86171745
1184.00  -3.75465110   0.86606211
1186.00  -3.78020502   0.87042115
1188.00  -3.80579989   0.87479462
1190.00  -3.83143568   0.87918252
1192.00  -3.85711239   0.88358488
1194.00  -3.88283001   0.88800172
1196.00  -3.90858852   0.89243306
1198.00  -3.93438792   0.89687894
1200.00  -3.96022820   0.90133936
1202.00  -3.98610934   0.90581435
1204.00  -4.01203133   0.91030393
1206.00  -4.03799416   0.91480813
1208.00  -4.06399782   0.91932697
1210.00  -4.09004230   0.92386047
1212.00  -4.11612759   0.92840864
1214.00  -4.14225368   0.93297152
1216.00  -4.16842056   0.93754913
1218.00  -4.19462821   0.94214149
1220.00  -4.22087663   0.94674861
1222.00  -4.24716580   0.95137053
1224.00  -4.27349571   0.95600726
1226.00  -4.29986636   0.96065883
1228.00  -4.32627773   0.96532525
1230.00  -4.35272980   0.97000656
1232.00  -4.37922257   0.97470277
1234.00  -4.40575604   0.97941390
1236.00  -4.43233017   0.98413998
1238.00  -4.45894497   0.98888103
1240.00  -4.48560043   0.99363707
1242.00  -4.51229653   0.99840812
1244.00  -4.53903326   1.00319420
1246.00  -4.56581061   1.00799534
1248.00  -4.59262856   1.01281156
1250.00  -4.61948712   1.01764288
1252.00  -4.64638626   1.02248932
1254.00  -4.67332598   1.02735090
1256.00  -4.70030626   1.03222765
1258.00  -4.72732709   1.03711959
1260.00  -4.75438847   1.04202674
1262.00  -4.78149037   1.04694912
1264.00  -4.80863279   1.05188675
1266.00  -4.83581572   1.05683966
1268.00  -4.86303914   1.06180787
1270.00  -4.89030305   1.06679139
1272.00  -4.91760743   1.07179026
1274.00  -4.94495227   1.07680448
1276.00  -4.97233756   1.08183410
1278.00  -4.99976329   1.08687911
1280.00  -5.02722945   1.09193956
1282.00  -5.05473602   1.09701546
1284.00  -5.08228299   1.10210682
1286.00  -5.10987036   1.10721368
1288.00  -5.13749811   1.11233606
1290.00  -5.16516623   1.11747397
1292.00  -5.19287470   1.12262744
1294.00  -5.22062352   1.12779649
1296.00  -5.24841267   1.13298114
1298.00  -5.27624215   1.13818142
1300.00  -5.30411194   1.14339734
1302.00  -5.33202202   1.14862893
1304.00  -5.35997240   1.15387620
1306.00  -5.38796305   1.15913919
1308.00  -5.41599396   1.16441791
1310.00  -5.44406513   1.16971238
1312.00  -5.47217653   1.17502263
1314.00  -5.50032817   1.18034867
1316.00  -5.52852002   1.18569053
1318.00  -5.55675208   1.19104823
1320.00  -5.58502433   1.19642179
1322.00  -5.61333676   1.20181123
1324.00  -5.64168937   1.20721658
1326.00  -5.67008213   1.21263786
1328.00  -5.69851504   1.21807508
1330.00  -5.72698808   1.22352827
1332.00  -5.75550124   1.22899745
1334.00  -5.78405452   1.23448265
1336.00  -5.81264789   1.23998387
1338.00  -5.84128135   1.24550115
1340.00  -5.86995488   1.25103451
1342.00  -5.89866848   1.25658397
1344.00  -5.92742213   1.26214954
1346.00  -5.95621581   1.26773126
1348.00  -5.98504953   1.27332913
1350.00  -6.01392326   1.27894319
1352.00  -6.04283699   1.28457346
1354.00  -6.07179071   1.29021995
1356.00  -6.10078441   1.29588269
1358.00  -6.12981807   1.30156170
1360.00  -6.15889170   1.30725699
1362.00  -6.18800526   1.31296860
1364.00  -6.21715875   1.31869655
1366.00  -6.24635216   1.32444084
1368.00  -6.27558548   1.33020151
1370.00  -6.30485869   1.33597858
1372.00  -6.33417178   1.34177207
1374.00  -6.36352474   1.34758200
1376.00  -6.39291756   1.35340838
1378.00  -6.42235022   1.35925125
1380.00  -6.45182272   1.36511062
1382.00  -6.48133503   1.37098652
1384.00  -6.51088716   1.37687896
1386.00  -6.54047908   1.38278797
1388.00  -6.57011078   1.38871356
1390.00  -6.59978225   1.39465577
1392.00  -6.62949348   1.40061460
1394.00  -6.65924446   1.40659009
1396.00  -6.68903517   1.41258224
1398.00  -6.71886561   1.41859110
1400.00  -6.74873575   1.42461666
1402.00  -6.77864559   1.43065896
1404.00  -6.80859512   1.43671802
1406.00  -6.83858431   1.44279386
1408.00  -6.86861317   1.44888650
1410.00  -6.89868167   1.45499595
1412.00  -6.92878981   1.46112225
1414.00  -6.95893757   1.46726541
1416.00  -6.98912494   1.47342545
1418.00  -7.01935190   1.47960240
1420.00  -7.04961845   1.48579627
1422.00  -7.07992458   1.49200709
1424.00  -7.11027026   1.49823488
1426.00  -7.14065549   1.50447965
1428.00  -7.17108025   1.51074143
1430.00  -7.20154453   1.51702025
1432.00  -7.23204833   1.52331611
1434.00  -7.26259161   1.52962904
1436.00  -7.29317439   1.53595907
1438.00  -7.32379663   1.54230622
1440.00  -7.35445833   1.54867049
1442.00  -7.38515948   1.55505192
1444.00  -7.41590006   1.56145053
1446.00  -7.44668006   1.56786634
1448.00  -7.47749947   1.57429936
1450.00  -7.50835827   1.58074962
1452.00  -7.53925645   1.58721715
1454.00  -7.57019401   1.59370195
1456.00  -7.60117092   1.60020405
1458.00  -7.63218717   1.60672348
1460.00  -7.66324275   1.61326025
1462.00  -7.69433765   1.61981438
1464.00  -7.72547186   1.62638590
1466.00  -7.75664536   1.63297482
1468.00  -7.78785813   1.63958117
1470.00  -7.81911018   1.64620496
1472.00  -7.85040147   1.65284622
1474.00  -7.88173201   1.65950497
1476.00  -7.91310177   1.66618123
1478.00  -7.94451075   1.67287501
1480.00  -7.97595893   1.67958635
1482.00  -8.00744630   1.68631526
1484.00  -8.03897285   1.69306175
1486.00  -8.07053855   1.69982586
1488.00  -8.10214341   1.70660761
1490.00  -8.13378740   1.71340700
1492.00  -8.16547052   1.72022407
1494.00  -8.19719275   1.72705883
1496.00  -8.22895407   1.73391131
1498.00  -8.26075448   1.74078152
1500.00  -8.29259396   1.74766949
1502.00  -8.32447249   1.75457523
1504.00  -8.35639007   1.76149877
1506.00  -8.38834669   1.76844013
1508.00  -8.42034232   1.77539932
1510.00  -8.45237696   1.78237638
1512.00  -8.48445059   1.78937131
1514.00  -8.51656319   1.79638414
1516.00  -8.54871477   1.80341489
1518.00  -8.58090529   1.81046358
1520.00  -8.61313476   1.81753023
1522.00  -8.64540315   1.82461486
1524.00  -8.67771045   1.83171750
1526.00  -8.71005665   1.83883815
1528.00  -8.74244174   1.84597684
1530.00  -8.77486570   1.85313360
1532.00  -8.80732853   1.86030844
1534.00  -8.83983019   1.86750139
1536.00  -8.87237069   1.87471245
1538.00  -8.90495001   1.88194166
1540.00  -8.93756813   1.88918904
1542.00  -8.97022505   1.89645459
1544.00  -9.00292075   1.90373835
1546.00  -9.03565521   1.91104034
1548.00  -9.06842842   1.91836057
1550.00  -9.10124038   1.92569907
1552.00  -9.13409105   1.93305585
1554.00  -9.16698044   1.94043093
1556.00  -9.19990853   1.94782435
1558.00  -9.23287531   1.95523610
1560.00  -9.26588075   1.96266623
1562.00  -9.29892485   1.97011474
1564.00  -9.33200760   1.97758165
1566.00  -9.36512897   1.98506699
1568.00  -9.39828897   1.99257078
1570.00  -9.43148757   2.00009304
1572.00  -9.46472475   2.00763378
1574.00  -9.49800052   2.01519303
1576.00  -9.53131484   2.02277080
1578.00  -9.56466772   2.03036713
1580.00  -9.59805913   2.03798201
1582.00  -9.63148906   2.04561549
1584.00  -9.66495750   2.05326757
1586.00  -9.69846443   2.06093828
1588.00  -9.73200984   2.06862764
1590.00  -9.76559372   2.07633566
1592.00  -9.79921606   2.08406237
1594.00  -9.83287683   2.09180779
1596.00  -9.86657603   2.09957193
1598.00  -9.90031364   2.10735482
1600.00  -9.93408965   2.11515648
1602.00  -9.96790404   2.12297692
1604.00 -10.00175680   2.13081617
1606.00 -10.03564792   2.13867425
1608.00 -10.06957739   2.14655117
1610.00 -10.10354518   2.15444696
1612.00 -10.13755128   2.16236163
1614.00 -10.17159569   2.17029521
1616.00 -10.20567838   2.17824772
1618.00 -10.23979935   2.18621917
1620.00 -10.27395857   2.19420958
1622.00 -10.30815605   2.20221898
1624.00 -10.34239175   2.21024739
1626.00 -10.37666567   2.21829482
1628.00 -10.41097779   2.22636129
1630.00 -10.44532811   2.23444683
1632.00 -10.47971659   2.24255145
1634.00 -10.51414324   2.25067517
1636.00 -10.54860804   2.25881802
1638.00 -10.58311097   2.26698000
1640.00 -10.61765202   2.27516116
1642.00 -10.65223118   2.28336149
1644.00 -10.68684842   2.29158102
1646.00 -10.72150375   2.29981978
1648.00 -10.75619713   2.30807777
1650.00 -10.79092857   2.31635503
1652.00 -10.82569804   2.32465157
1654.00 -10.86050553   2.33296740
1656.00 -10.89535102   2.34130256
1658.00 -10.93023451   2.34965705
1660.00 -10.96515598   2.35803090
1662.00 -11.00011541   2.36642413
1664.00 -11.03511279   2.37483676
1666.00 -11.07014811   2.38326880
1668.00 -11.10522134   2.39172028
1670.00 -11.14033249   2.40019122
1672.00 -11.17548152   2.40868163
1674.00 -11.21066844   2.41719153
1676.00 -11.24589322   2.42572095
1678.00 -11.28115585   2.43426990
1680.00 -11.31645631   2.44283840
1682.00 -11.35179460   2.45142648
1684.00 -11.38717069   2.46003415
1686.00 -11.42258457   2.46866143
1688.00 -11.45803623   2.47730834
1690.00 -11.49352566   2.48597489
1692.00 -11.52905284   2.49466112
1694.00 -11.56461775   2.50336704
1696.00 -11.60022038   2.51209266
1698.00 -11.63586071   2.52083801
1700.00 -11.67153874   2.52960311
1702.00 -11.70725445   2.53838797
1704.00 -11.74300781   2.54719261
1706.00 -11.77879883   2.55601706
1708.00 -11.81462748   2.56486133
1710.00 -11.85049375   2.57372545
1712.00 -11.88639762   2.58260943
1714.00 -11.92233909   2.59151328
1716.00 -11.95831813   2.60043704
1718.00 -11.99433473   2.60938071
1720.00 -12.03038888   2.61834433
1722.00 -12.06648056   2.62732790
1724.00 -12.10260975   2.63633144
1726.00 -12.13877645   2.64535499
1728.00 -12.17498064   2.65439854
1730.00 -12.21122230   2.66346213
1732.00 -12.24750142   2.67254578
1734.00 -12.28381798   2.68164949
1736.00 -12.32017198   2.69077330
1738.00 -12.35656338   2.69991721
1740.00 -12.39299219   2.70908126
1742.00 -12.42945839   2.71826545
1744.00 -12.46596195   2.72746981
1746.00 -12.50250287   2.73669435
1748.00 -12.53908113   2.74593910
1750.00 -12.57569672   2.75520407
1752.00 -12.61234962   2.76448929
1754.00 -12.64903982   2.77379476
1756.00 -12.68576730   2.78312052
1758.00 -12.72253204   2.79246657
1760.00 -12.75933404   2.80183295
1762.00 -12.79617328   2.81121966
1764.00 -12.83304974   2.82062673
1766.00 -12.86996341   2.83005417
1768.00 -12.90691427   2.83950200
1770.00 -12.94390231   2.84897025
1772.00 -12.98092751   2.85845893
1774.00 -13.01798986   2.86796806
1776.00 -13.05508934   2.87749765
1778.00 -13.09222595   2.88704774
1780.00 -13.12939966   2.89661833
1782.00 -13.16661045   2.90620944
1784.00 -13.20385832   2.91582110
1786.00 -13.24114325   2.92545332
1788.00 -13.27846522   2.93510612
1790.00 -13.31582422   2.94477952
1792.00 -13.35322024   2.95447354
1794.00 -13.39065325   2.96418820
1796.00 -13.42812325   2.97392351
1798.00 -13.46563022   2.98367950
1800.00 -13.50317414   2.99345618
1802.00 -13.54075500   3.00325357
1804.00 -13.57837278   3.01307169
1806.00 -13.61602747   3.02291056
1808.00 -13.65371906   3.03277019
1810.00 -13.69144752   3.04265062
1812.00 -13.72921285   3.05255184
1814.00 -13.76701502   3.06247389
1816.00 -13.80485403   3.07241678
1818.00 -13.84272986   3.08238053
1820.00 -13.88064248   3.09236516
1822.00 -13.91859190   3.10237068
1824.00 -13.95657809   3.11239712
1826.00 -13.99460103   3.12244449
1828.00 -14.03266072   3.13251282
1830.00 -14.07075713   3.14260211
1832.00 -14.10889025   3.15271240
1834.00 -14.14706007   3.16284369
1836.00 -14.18526657   3.17299600
1838.00 -14.22350974   3.18316936
1840.00 -14.26178956   3.19336379
1842.00 -14.30010601   3.20357929
1844.00 -14.33845908   3.21381589
1846.00 -14.37684875   3.22407361
1848.00 -14.41527502   3.23435246
1850.00 -14.45373786   3.24465247
1852.00 -14.49223725   3.25497365
1854.00 -14.53077319   3.26531601
1856.00 -14.56934566   3.27567959
1858.00 -14.60795463   3.28606439
1860.00 -14.64660011   3.29647044
1862.00 -14.68528206   3.30689775
1864.00 -14.72400049   3.31734635
1866.00 -14.76275536   3.32781624
1868.00 -14.80154667   3.33830745
1870.00 -14.84037439   3.34881999
1872.00 -14.87923852   3.35935389
1874.00 -14.91813904   3.36990916
1876.00 -14.95707594   3.38048581
1878.00 -14.99604919   3.39108388
1880.00 -15.03505878   3.40170337
1882.00 -15.07410470   3.41234431
1884.00 -15.11318692   3.42300671
1886.00 -15.15230545   3.43369059
1888.00 -15.19146025   3.44439596
1890.00 -15.23065132   3.45512285
1892.00 -15.26987864   3.46587128
1894.00 -15.30914219   3.47664126
1896.00 -15.34844196   3.48743281
1898.00 -15.38777793   3.49824594
1900.00 -15.42715008   3.50908068
1902.00 -15.46655841   3.51993705
1904.00 -15.50600289   3.53081505
1906.00 -15.54548351   3.54171472
1908.00 -15.58500025   3.55263606
1910.00 -15.62455311   3.56357910
1912.00 -15.66414205   3.57454385
1914.00 -15.70376707   3.58553033
1916.00 -15.74342815   3.59653856
1918.00 -15.78312528   3.60756856
1920.00 -15.82285843   3.61862034
1922.00 -15.86262760   3.62969392
1924.00 -15.90243277   3.64078932
1926.00 -15.94227392   3.65190656
1928.00 -15.98215103   3.66304566
1930.00 -16.02206410   3.67420663
1932.00 -16.06201310   3.68538948
1934.00 -16.10199802   3.69659425
1936.00 -16.14201884   3.70782094
1938.00 -16.18207555   3.71906958
1940.00 -16.22216813   3.73034017
1942.00 -16.26229656   3.74163275
1944.00 -16.30246084   3.75294732
1946.00 -16.34266094   3.76428390
1948.00 -16.38289684   3.77564252
1950.00 -16.42316854   3.78702319
1952.00 -16.46347602   3.79842592
1954.00 -16.50381925   3.80985073
1956.00 -16.54419823   3.82129765
1958.00 -16.58461294   3.83276669
1960.00 -16.62506335   3.84425786
1962.00 -16.66554947   3.85577119
1964.00 -16.70607126   3.86730669
1966.00 -16.74662872   3.87886438
1968.00 -16.78722183   3.89044428
1970.00 -16.82785057   3.90204640
1972.00 -16.86851492   3.91367076
1974.00 -16.90921488   3.92531738
1976.00 -16.94995042   3.93698627
1978.00 -16.99072153   3.94867746
1980.00 -17.03152819   3.96039096
1982.00 -17.07237038   3.97212679
1984.00 -17.11324810   3.98388497
1986.00 -17.15416132   3.99566550
1988.00 -17.19511002   4.00746842
1990.00 -17.23609420   4.01929374
1992.00 -17.27711384   4.03114146
1994.00 -17.31816891   4.04301163
1996.00 -17.35925941   4.05490424
1998.00 -17.40038531   4.06681931
2000.00 -17.44154660   4.07875687
2002.00 -17.48274327   4.09071693
2004.00 -17.52397530   4.10269951
2006.00 -17.56524267   4.11470463
2008.00 -17.60654536   4.12673229
2010.00 -17.64788336   4.13878253
2012.00 -17.68925666   4.15085535
2014.00 -17.73066524   4.16295078
2016.00 -17.77210907   4.17506883
2018.00 -17.81358816   4.18720951
2020.00 -17.85510246   4.19937285
2022.00 -17.89665199   4.21155886
2024.00 -17.93823670   4.22376757
2026.00 -17.97985660   4.23599897
2028.00 -18.02151166   4.24825310
2030.00 -18.06320187   4.26052997
2032.00 -18.10492721   4.27282960
2034.00 -18.14668766   4.28515200
2036.00 -18.18848321   4.29749719
2038.00 -18.23031384   4.30986519
2040.00 -18.27217954   4.32225602
2042.00 -18.31408028   4.33466969
2044.00 -18.35601606   4.34710621
2046.00 -18.39798685   4.35956561
2048.00 -18.43999265   4.37204791
2050.00 -18.48203342   4.38455311
2052.00 -18.52410917   4.39708124
2054.00 -18.56621986   4.40963231
2056.00 -18.60836549   4.42220634
2058.00 -18.65054603   4.43480335
2060.00 -18.69276148   4.44742335
2062.00 -18.73501181   4.46006636
2064.00 -18.77729700   4.47273239
2066.00 -18.81961705   4.48542147
2068.00 -18.86197194   4.49813362
2070.00 -18.90436164   4.51086883
2072.00 -18.94678614   4.52362714
2074.00 -18.98924543   4.53640857
2076.00 -19.03173949   4.54921311
2078.00 -19.07426830   4.56204081
2080.00 -19.11683185   4.57489166
2082.00 -19.15943011   4.58776569
2084.00 -19.20206308   4.60066291
2086.00 -19.24473073   4.61358334
2088.00 -19.28743305   4.62652700
2090.00 -19.33017003   4.63949390
2092.00 -19.37294164   4.65248407
2094.00 -19.41574787   4.66549750
2096.00 -19.45858870   4.67853423
2098.00 -19.50146412   4.69159427
2100.00 -19.54437410   4.70467764
2102.00 -19.58731864   4.71778435
2104.00 -19.63029772   4.73091441
2106.00 -19.67331131   4.74406786
2108.00 -19.71635941   4.75724469
2110.00 -19.75944200   4.77044493
2112.00 -19.80255905   4.78366860
2114.00 -19.84571055   4.79691570
2116.00 -19.88889649   4.81018626
2118.00 -19.93211685   4.82348030
2120.00 -19.97537161   4.83679783
2122.00 -20.01866076   4.85013886
2124.00 -20.06198427   4.86350341
2126.00 -20.10534214   4.87689151
2128.00 -20.14873434   4.89030315
2130.00 -20.19216086   4.90373837
2132.00 -20.23562168   4.91719718
2134.00 -20.27911678   4.93067959
2136.00 -20.32264615   4.94418562
2138.00 -20.36620978   4.95771529
2140.00 -20.40980763   4.97126861
2142.00 -20.45343971   4.98484559
2144.00 -20.49710598   4.99844626
2146.00 -20.54080644   5.01207064
2148.00 -20.58454106   5.02571873
2150.00 -20.62830983   5.03939055
2152.00 -20.67211274   5.05308612
2154.00 -20.71594976   5.06680546
2156.00 -20.75982088   5.08054857
2158.00 -20.80372608   5.09431549
2160.00 -20.84766534   5.10810622
2162.00 -20.89163865   5.12192078
2164.00 -20.93564600   5.13575918
2166.00 -20.97968736   5.14962145
2168.00 -21.02376271   5.16350759
2170.00 -21.06787204   5.17741762
2172.00 -21.11201534   5.19135157
2174.00 -21.15619258   5.20530944
2176.00 -21.20040375   5.21929125
2178.00 -21.24464884   5.23329702
2180.00 -21.28892781   5.24732676
2182.00 -21.33324067   5.26138049
2184.00 -21.37758738   5.27545822
2186.00 -21.42196794   5.28955998
2188.00 -21.46638233   5.30368577
2190.00 -21.51083052   5.31783562
2192.00 -21.55531251   5.33200953
2194.00 -21.59982827   5.34620752
2196.00 -21.64437779   5.36042962
2198.00 -21.68896105   5.37467583
2200.00 -21.73357803   5.38894617
2202.00 -21.77822872   5.40324066
2204.00 -21.82291310   5.41755931
2206.00 -21.86763115   5.43190214
2208.00 -21.91238286   5.44626916
2210.00 -21.95716820   5.46066040
2212.00 -22.00198717   5.47507585
2214.00 -22.04683974   5.48951555
2216.00 -22.09172589   5.50397951
2218.00 -22.13664562   5.51846773
2220.00 -22.18159889   5.53298025
2222.00 -22.22658570   5.54751707
2224.00 -22.27160603   5.56207820
2226.00 -22.31665986   5.57666368
2228.00 -22.36174717   5.59127350
2230.00 -22.40686795   5.60590768
2232.00 -22.45202217   5.62056625
2234.00 -22.49720983   5.63524921
2236.00 -22.54243090   5.64995659
2238.00 -22.58768536   5.66468839
2240.00 -22.63297321   5.67944464
2242.00 -22.67829441   5.69422534
2244.00 -22.72364896   5.70903052
2246.00 -22.76903684   5.72386019
2248.00 -22.81445803   5.73871436
2250.00 -22.85991251   5.75359305
2252.00 -22.90540026   5.76849628
2254.00 -22.95092128   5.78342405
2256.00 -22.99647553   5.79837639
2258.00 -23.04206301   5.81335332
2260.00 -23.08768369   5.82835484
2262.00 -23.13333756   5.84338097
2264.00 -23.17902460   5.85843173
2266.00 -23.22474479   5.87350713
2268.00 -23.27049812   5.88860718
2270.00 -23.31628457   5.90373191
2272.00 -23.36210412   5.91888133
2274.00 -23.40795675   5.93405545
2276.00 -23.45384245   5.94925429
2278.00 -23.49976119   5.96447787
2280.00 -23.54571297   5.97972619
2282.00 -23.59169776   5.99499927
2284.00 -23.63771555   6.01029713
2286.00 -23.68376632   6.02561979
2288.00 -23.72985004   6.04096726
2290.00 -23.77596671   6.05633955
2292.00 -23.82211631   6.07173668
2294.00 -23.86829881   6.08715866
2296.00 -23.91451421   6.10260551
2298.00 -23.96076248   6.11807725
2300.00 -24.00704361   6.13357388
2302.00 -24.05335757   6.14909543
2304.00 -24.09970435   6.16464191
2306.00 -24.14608394   6.18021333
2308.00 -24.19249631   6.19580971
2310.00 -24.23894146   6.21143106
2312.00 -24.28541935   6.22707741
2314.00 -24.33192997   6.24274875
2316.00 -24.37847331   6.25844512
2318.00 -24.42504935   6.27416651
2320.00 -24.47165806   6.28991296
2322.00 -24.51829944   6.30568447
2324.00 -24.56497346   6.32148106
2326.00 -24.61168011   6.33730273
2328.00 -24.65841937   6.35314952
2330.00 -24.70519122   6.36902143
2332.00 -24.75199564   6.38491847
2334.00 -24.79883262   6.40084067
2336.00 -24.84570214   6.41678803
2338.00 -24.89260418   6.43276058
2340.00 -24.93953872   6.44875832
2342.00 -24.98650575   6.46478127
2344.00 -25.03350524   6.48082944
2346.00 -25.08053719   6.49690285
2348.00 -25.12760156   6.51300152
2350.00 -25.17469835   6.52912546
2352.00 -25.22182754   6.54527468
2354.00 -25.26898911   6.56144920
2356.00 -25.31618303   6.57764903
2358.00 -25.36340930   6.59387419
2360.00 -25.41066790   6.61012468
2362.00 -25.45795880   6.62640054
2364.00 -25.50528199   6.64270177
2366.00 -25.55263745   6.65902838
2368.00 -25.60002517   6.67538039
2370.00 -25.64744512   6.69175781
2372.00 -25.69489730   6.70816066
2374.00 -25.74238167   6.72458896
2376.00 -25.78989822   6.74104271
2378.00 -25.83744694   6.75752194
2380.00 -25.88502781   6.77402665
2382.00 -25.93264081   6.79055686
2384.00 -25.98028591   6.80711259
2386.00 -26.02796311   6.82369384
2388.00 -26.07567239   6.84030064
2390.00 -26.12341372   6.85693300
2392.00 -26.17118709   6.87359092
2394.00 -26.21899249   6.89027444
2396.00 -26.26682989   6.90698355
2398.00 -26.31469927   6.92371828
2400.00 -26.36260062   6.94047864
2402.00 -26.41053392   6.95726464
2404.00 -26.45849915   6.97407630
2406.00 -26.50649630   6.99091363
2408.00 -26.55452534   7.00777665
2410.00 -26.60258626   7.02466536
2412.00 -26.65067904   7.04157979
2414.00 -26.69880366   7.05851995
2416.00 -26.74696011   7.07548585
2418.00 -26.79514836   7.09247751
2420.00 -26.84336840   7.10949493
2422.00 -26.89162021   7.12653814
2424.00 -26.93990377   7.14360715
2426.00 -26.98821906   7.16070198
2428.00 -27.03656608   7.17782263
2430.00 -27.08494478   7.19496911
2432.00 -27.13335517   7.21214146
2434.00 -27.18179722   7.22933967
2436.00 -27.23027091   7.24656376
2438.00 -27.27877623   7.26381375
2440.00 -27.32731316   7.28108965
2442.00 -27.37588167   7.29839148
2444.00 -27.42448176   7.31571924
2446.00 -27.47311339   7.33307296
2448.00 -27.52177657   7.35045264
2450.00 -27.57047126   7.36785829
2452.00 -27.61919745   7.38528995
2454.00 -27.66795511   7.40274761
2456.00 -27.71674425   7.42023129
2458.00 -27.76556482   7.43774100
2460.00 -27.81441682   7.45527677
2462.00 -27.86330023   7.47283859
2464.00 -27.91221503   7.49042650
2466.00 -27.96116120   7.50804049
2468.00 -28.01013872   7.52568058
2470.00 -28.05914758   7.54334680
2472.00 -28.10818775   7.56103914
2474.00 -28.15725923   7.57875763
2476.00 -28.20636198   7.59650227
2478.00 -28.25549600   7.61427309
2480.00 -28.30466126   7.63207009
2482.00 -28.35385774   7.64989329
2484.00 -28.40308544   7.66774270
2486.00 -28.45234432   7.68561834
2488.00 -28.50163437   7.70352022
2490.00 -28.55095558   7.72144835
2492.00 -28.60030792   7.73940275
2494.00 -28.64969138   7.75738343
2496.00 -28.69910593   7.77539040
2498.00 -28.74855157   7.79342368
2500.00 -28.79802826   7.81148328
2502.00 -28.84753600   7.82956921
2504.00 -28.89707476   7.84768149
2506.00 -28.94664453   7.86582013
2508.00 -28.99624529   7.88398514
2510.00 -29.04587702   7.90217655
2512.00 -29.09553970   7.92039435
2514.00 -29.14523331   7.93863857
2516.00 -29.19495783   7.95690921
2518.00 -29.24471326   7.97520629
2520.00 -29.29449956   7.99352983
2522.00 -29.34431672   8.01187984
2524.00 -29.39416472   8.03025633
2526.00 -29.44404354   8.04865931
2528.00 -29.49395317   8.06708879
2530.00 -29.54389359   8.08554480
2532.00 -29.59386477   8.10402734
2534.00 -29.64386670   8.12253643
2536.00 -29.69389937   8.14107208
2538.00 -29.74396274   8.15963430
2540.00 -29.79405681   8.17822311
2542.00 -29.84418155   8.19683851
2544.00 -29.89433696   8.21548053
2546.00 -29.94452300   8.23414917
2548.00 -29.99473966   8.25284446
2550.00 -30.04498692   8.27156639
2552.00 -30.09526477   8.29031499
2554.00 -30.14557318   8.30909027
2556.00 -30.19591213   8.32789223
2558.00 -30.24628162   8.34672090
2560.00 -30.29668161   8.36557629
2562.00 -30.34711210   8.38445840
2564.00 -30.39757306   8.40336726
2566.00 -30.44806447   8.42230288
2568.00 -30.49858632   8.44126526
2570.00 -30.54913858   8.46025442
2572.00 -30.59972124   8.47927038
2574.00 -30.65033429   8.49831315
2576.00 -30.70097769   8.51738273
2578.00 -30.75165144   8.53647915
2580.00 -30.80235551   8.55560241
2582.00 -30.85308988   8.57475254
2584.00 -30.90385455   8.59392953
2586.00 -30.95464948   8.61313341
2588.00 -31.00547466   8.63236418
2590.00 -31.05633007   8.65162186
2592.00 -31.10721570   8.67090647
2594.00 -31.15813152   8.69021801
2596.00 -31.20907752   8.70955649
2598.00 -31.26005367   8.72892194
2600.00 -31.31105996   8.74831436
2602.00 -31.36209637   8.76773377
2604.00 -31.41316289   8.78718017
2606.00 -31.46425948   8.80665359
2608.00 -31.51538614   8.82615403
2610.00 -31.56654284   8.84568150
2612.00 -31.61772958   8.86523603
2614.00 -31.66894632   8.88481761
2616.00 -31.72019304   8.90442627
2618.00 -31.77146974   8.92406202
2620.00 -31.82277640   8.94372486
2622.00 -31.87411298   8.96341481
2624.00 -31.92547948   8.98313189
2626.00 -31.97687588   9.00287611
2628.00 -32.02830215   9.02264747
2630.00 -32.07975828   9.04244599
2632.00 -32.13124425   9.06227169
2634.00 -32.18276005   9.08212458
2636.00 -32.23430564   9.10200466
2638.00 -32.28588102   9.12191195
2640.00 -32.33748616   9.14184647
2642.00 -32.38912106   9.16180822
2644.00 -32.44078567   9.18179722
2646.00 -32.49248000   9.20181348
2648.00 -32.54420402   9.22185701
2650.00 -32.59595771   9.24192782
2652.00 -32.64774105   9.26202593
2654.00 -32.69955403   9.28215136
2656.00 -32.75139662   9.30230410
2658.00 -32.80326881   9.32248418
2660.00 -32.85517057   9.34269160
2662.00 -32.90710190   9.36292638
2664.00 -32.95906276   9.38318853
2666.00 -33.01105315   9.40347806
2668.00 -33.06307303   9.42379499
2670.00 -33.11512241   9.44413932
2672.00 -33.16720124   9.46451107
2674.00 -33.21930953   9.48491025
2676.00 -33.27144724   9.50533688
2678.00 -33.32361435   9.52579096
2680.00 -33.37581086   9.54627250
2682.00 -33.42803674   9.56678153
2684.00 -33.48029197   9.58731804
2686.00 -33.53257654   9.60788206
2688.00 -33.58489042   9.62847360
2690.00 -33.63723359   9.64909266
2692.00 -33.68960604   9.66973925
2694.00 -33.74200775   9.69041340
2696.00 -33.79443870   9.71111512
2698.00 -33.84689886   9.73184440
2700.00 -33.89938823   9.75260128
2702.00 -33.95190678   9.77338575
2704.00 -34.00445449   9.79419783
2706.00 -34.05703135   9.81503753
2708.00 -34.10963734   9.83590487
2710.00 -34.16227243   9.85679985
2712.00 -34.21493661   9.87772249
2714.00 -34.26762985   9.89867280
2716.00 -34.32035215   9.91965079
2718.00 -34.37310348   9.94065647
2720.00 -34.42588382   9.96168986
2722.00 -34.47869315   9.98275096
2724.00 -34.53153146  10.00383979
2726.00 -34.58439872  10.02495636
2728.00 -34.63729492  10.04610068
2730.00 -34.69022004  10.06727277
2732.00 -34.74317405  10.08847263
2734.00 -34.79615695  10.10970027
2736.00 -34.84916870  10.13095571
2738.00 -34.90220930  10.15223896
2740.00 -34.95527872  10.17355003
2742.00 -35.00837694  10.19488894
2744.00 -35.06150395  10.21625568
2746.00 -35.11465972  10.23765029
2748.00 -35.16784424  10.25907276
2750.00 -35.22105749  10.28052310
2752.00 -35.27429944  10.30200134
2754.00 -35.32757009  10.32350748
2756.00 -35.38086940  10.34504153
2758.00 -35.43419737  10.36660351
2760.00 -35.48755397  10.38819342
2762.00 -35.54093918  10.40981128
2764.00 -35.59435299  10.43145709
2766.00 -35.64779538  10.45313088
2768.00 -35.70126632  10.47483265
2770.00 -35.75476579  10.49656240
2772.00 -35.80829379  10.51832017
2774.00 -35.86185029  10.54010595
2776.00 -35.91543526  10.56191975
2778.00 -35.96904870  10.58376159
2780.00 -36.02269058  10.60563148
2782.00 -36.07636088  10.62752943
2784.00 -36.13005958  10.64945545
2786.00 -36.18378667  10.67140956
2788.00 -36.23754213  10.69339176
2790.00 -36.29132593  10.71540206
2792.00 -36.34513806  10.73744048
2794.00 -36.39897850  10.75950702
2796.00 -36.45284723  10.78160171
2798.00 -36.50674423  10.80372454
2800.00 -36.56066948  10.82587554
2802.00 -36.61462296  10.84805470
2804.00 -36.66860466  10.87026205
2806.00 -36.72261455  10.89249759
2808.00 -36.77665261  10.91476134
2810.00 -36.83071883  10.93705330
2812.00 -36.88481319  10.95937349
2814.00 -36.93893566  10.98172191
2816.00 -36.99308624  11.00409859
2818.00 -37.04726489  11.02650352
2820.00 -37.10147160  11.04893673
2822.00 -37.15570635  11.07139821
2824.00 -37.20996912  11.09388799
2826.00 -37.26425990  11.11640607
2828.00 -37.31857866  11.13895247
2830.00 -37.37292538  11.16152719
2832.00 -37.42730005  11.18413025
2834.00 -37.48170264  11.20676165
2836.00 -37.53613314  11.22942141
2838.00 -37.59059153  11.25210954
2840.00 -37.64507778  11.27482605
2842.00 -37.69959189  11.29757095
2844.00 -37.75413382  11.32034425
2846.00 -37.80870357  11.34314596
2848.00 -37.86330111  11.36597609
2850.00 -37.91792641  11.38883466
2852.00 -37.97257948  11.41172166
2854.00 -38.02726027  11.43463713
2856.00 -38.08196878  11.45758105
2858.00 -38.13670499  11.48055346
2860.00 -38.19146887  11.50355435
2862.00 -38.24626041  11.52658373
2864.00 -38.30107958  11.54964162
2866.00 -38.35592638  11.57272803
2868.00 -38.41080077  11.59584297
2870.00 -38.46570274  11.61898645
2872.00 -38.52063228  11.64215848
2874.00 -38.57558935  11.66535906
2876.00 -38.63057395  11.68858822
2878.00 -38.68558605  11.71184596
2880.00 -38.74062563  11.73513229
2882.00 -38.79569268  11.75844722
2884.00 -38.85078717  11.78179076
2886.00 -38.90590909  11.80516293
2888.00 -38.96105841  11.82856373
2890.00 -39.01623513  11.85199317
2892.00 -39.07143921  11.87545127
2894.00 -39.12667064  11.89893803
2896.00 -39.18192939  11.92245346
2898.00 -39.23721546  11.94599758
2900.00 -39.29252882  11.96957040
2902.00 -39.34786945  11.99317192
2904.00 -39.40323733  12.01680216
2906.00 -39.45863245  12.04046112
2908.00 -39.51405477  12.06414882
2910.00 -39.56950430  12.08786526
2912.00 -39.62498099  12.11161047
2914.00 -39.68048485  12.13538444
2916.00 -39.73601583  12.15918718
2918.00 -39.79157394  12.18301871
2920.00 -39.84715914  12.20687904
2922.00 -39.90277142  12.23076818
2924.00 -39.95841076  12.25468614
2926.00 -40.01407714  12.27863292
2928.00 -40.06977054  12.30260854
2930.00 -40.12549094  12.32661301
2932.00 -40.18123832  12.35064634
2934.00 -40.23701267  12.37470854
2936.00 -40.29281395  12.39879961
2938.00 -40.34864216  12.42291957
2940.00 -40.40449727  12.44706843
2942.00 -40.46037927  12.47124620
2944.00 -40.51628813  12.49545288
2946.00 -40.57222384  12.51968850
2948.00 -40.62818638  12.54395305
2950.00 -40.68417572  12.56824655
2952.00 -40.74019185  12.59256900
2954.00 -40.79623475  12.61692043
2956.00 -40.85230439  12.64130083
2958.00 -40.90840077  12.66571022
2960.00 -40.96452385  12.69014861
2962.00 -41.02067363  12.71461600
2964.00 -41.07685008  12.73911241
2966.00 -41.13305318  12.76363784
2968.00 -41.18928291  12.78819232
2970.00 -41.24553925  12.81277584
2972.00 -41.30182219  12.83738841
2974.00 -41.35813171  12.86203005
2976.00 -41.41446777  12.88670077
2978.00 -41.47083037  12.91140057
2980.00 -41.52721949  12.93612946
2982.00 -41.58363511  12.96088746
2984.00 -41.64007720  12.98567457
2986.00 -41.69654575  13.01049081
2988.00 -41.75304074  13.03533618
2990.00 -41.80956214  13.06021069
2992.00 -41.86610995  13.08511436
2994.00 -41.92268413  13.11004719
2996.00 -41.97928468  13.13500919
2998.00 -42.03591156  13.16000037
3000.00 -42.09256477  13.18502074
3002.00 -42.14924428  13.21007031
3004.00 -42.20595007  13.23514909
3006.00 -42.26268212  13.26025709
3008.00 -42.31944042  13.28539431
3010.00 -42.37622494  13.31056078
3012.00 -42.43303567  13.33575649
3014.00 -42.48987258  13.36098146
3016.00 -42.54673565  13.38623570
3018.00 -42.60362488  13.41151921
3020.00 -42.66054023  13.43683201
3022.00 -42.71748168  13.46217410
3024.00 -42.77444923  13.48754549
3026.00 -42.83144284  13.51294620
3028.00 -42.88846250  13.53837623
3030.00 -42.94550819  13.56383559
3032.00 -43.00257989  13.58932429
3034.00 -43.05967758  13.61484234
3036.00 -43.11680124  13.64038975
3038.00 -43.17395085  13.66596653
3040.00 -43.23112639  13.69157269
3042.00 -43.28832785  13.71720824
3044.00 -43.34555519  13.74287318
3046.00 -43.40280841  13.76856752
3048.00 -43.46008749  13.79429128
3050.00 -43.51739239  13.82004447
3052.00 -43.57472312  13.84582709
3054.00 -43.63207963  13.87163914
3056.00 -43.68946192  13.89748065
3058.00 -43.74686997  13.92335162
3060.00 -43.80430376  13.94925206
3062.00 -43.86176326  13.97518198
3064.00 -43.91924846  14.00114138
3066.00 -43.97675933  14.02713028
3068.00 -44.03429586  14.05314869
3070.00 -44.09185804  14.07919660
3072.00 -44.14944583  14.10527405
3074.00 -44.20705922  14.13138102
3076.00 -44.26469819  14.15751753
3078.00 -44.32236272  14.18368360
3080.00 -44.38005279  14.20987922
3082.00 -44.43776839  14.23610441
3084.00 -44.49550948  14.26235918
3086.00 -44.55327606  14.28864353
3088.00 -44.61106810  14.31495748
3090.00 -44.66888558  14.34130103
3092.00 -44.72672848  14.36767419
3094.00 -44.78459679  14.39407697
3096.00 -44.84249048  14.42050938
3098.00 -44.90040954  14.44697143
3100.00 -44.95835395  14.47346313
3102.00 -45.01632367  14.49998448
3104.00 -45.07431871  14.52653549
3106.00 -45.13233903  14.55311618
3108.00 -45.19038461  14.57972655
3110.00 -45.24845545  14.60636661
3112.00 -45.30655151  14.63303637
3114.00 -45.36467278  14.65973584
3116.00 -45.42281924  14.68646502
3118.00 -45.48099086  14.71322393
3120.00 -45.53918764  14.74001257
3122.00 -45.59740955  14.76683095
3124.00 -45.65565656  14.79367909
3126.00 -45.71392867  14.82055698
3128.00 -45.77222584  14.84746464
3130.00 -45.83054807  14.87440208
3132.00 -45.88889533  14.90136930
3134.00 -45.94726760  14.92836631
3136.00 -46.00566486  14.95539312
3138.00 -46.06408709  14.98244975
3140.00 -46.12253428  15.00953619
3142.00 -46.18100640  15.03665246
3144.00 -46.23950344  15.06379857
3146.00 -46.29802537  15.09097452
3148.00 -46.35657217  15.11818032
3150.00 -46.41514383  15.14541598
3152.00 -46.47374032  15.17268151
3154.00 -46.53236163  15.19997692
3156.00 -46.59100774  15.22730221
3158.00 -46.64967862  15.25465740
3160.00 -46.70837425  15.28204248
3162.00 -46.76709463  15.30945748
3164.00 -46.82583972  15.33690240
3166.00 -46.88460951  15.36437724
3168.00 -46.94340398  15.39188202
3170.00 -47.00222311  15.41941674
3172.00 -47.06106687  15.44698141
3174.00 -47.11993525  15.47457604
3176.00 -47.17882824  15.50220064
3178.00 -47.23774580  15.52985521
3180.00 -47.29668793  15.55753977
3182.00 -47.35565459  15.58525432
3184.00 -47.41464578  15.61299887
3186.00 -47.47366146  15.64077342
3188.00 -47.53270163  15.66857800
3190.00 -47.59176626  15.69641260
3192.00 -47.65085533  15.72427722
3194.00 -47.70996883  15.75217189
3196.00 -47.76910672  15.78009661
3198.00 -47.82826900  15.80805139
3200.00 -47.88745565  15.83603622
3202.00 -47.94666664  15.86405113
3204.00 -48.00590195  15.89209612
3206.00 -48.06516156  15.92017120
3208.00 -48.12444547  15.94827638
3210.00 -48.18375363  15.97641165
3212.00 -48.24308605  16.00457704
3214.00 -48.30244268  16.03277255
3216.00 -48.36182353  16.06099819
3218.00 -48.42122856  16.08925396
3220.00 -48.48065776  16.11753987
3222.00 -48.54011110  16.14585593
3224.00 -48.59958857  16.17420216
3226.00 -48.65909015  16.20257854
3228.00 -48.71861582  16.23098511
3230.00 -48.77816556  16.25942185
3232.00 -48.83773934  16.28788879
3234.00 -48.89733716  16.31638592
3236.00 -48.95695898  16.34491325
3238.00 -49.01660479  16.37347080
3240.00 -49.07627457  16.40205857
3242.00 -49.13596831  16.43067657
3244.00 -49.19568597  16.45932480
3246.00 -49.25542755  16.48800327
3248.00 -49.31519301  16.51671200
3250.00 -49.37498235  16.54545098
3252.00 -49.43479554  16.57422023
3254.00 -49.49463256  16.60301975
3256.00 -49.55449339  16.63184956
3258.00 -49.61437801  16.66070965
3260.00 -49.67428641  16.68960004
3262.00 -49.73421856  16.71852073
3264.00 -49.79417445  16.74747173
3266.00 -49.85415405  16.77645305
3268.00 -49.91415734  16.80546470
3270.00 -49.97418431  16.83450668
3272.00 -50.03423493  16.86357900
3274.00 -50.09430919  16.89268166
3276.00 -50.15440706  16.92181469
3278.00 -50.21452853  16.95097807
3280.00 -50.27467357  16.98017183
3282.00 -50.33484217  17.00939596
3284.00 -50.39503431  17.03865048
3286.00 -50.45524996  17.06793539
3288.00 -50.51548911  17.09725070
3290.00 -50.57575174  17.12659641
3292.00 -50.63603782  17.15597254
3294.00 -50.69634735  17.18537910
3296.00 -50.75668029  17.21481607
3298.00 -50.81703662  17.24428349
3300.00 -50.87741634  17.27378135
3302.00 -50.93781942  17.30330965
3304.00 -50.99824584  17.33286842
3306.00 -51.05869557  17.36245765
3308.00 -51.11916861  17.39207735
3310.00 -51.17966492  17.42172753
3312.00 -51.24018450  17.45140819
3314.00 -51.30072731  17.48111935
3316.00 -51.36129335  17.51086100
3318.00 -51.42188259  17.54063317
3320.00 -51.48249501  17.57043584
3322.00 -51.54313059  17.60026904
3324.00 -51.60378931  17.63013277
3326.00 -51.66447116  17.66002703
3328.00 -51.72517611  17.68995183
3330.00 -51.78590414  17.71990718
3332.00 -51.84665523  17.74989309
3334.00 -51.90742937  17.77990956
3336.00 -51.96822653  17.80995660
3338.00 -52.02904669  17.84003422
3340.00 -52.08988984  17.87014242
3342.00 -52.15075595  17.90028121
3344.00 -52.21164501  17.93045060
3346.00 -52.27255700  17.96065059
3348.00 -52.33349188  17.99088119
3350.00 -52.39444966  18.02114241
3352.00 -52.45543030  18.05143425
3354.00 -52.51643378  18.08175673
3356.00 -52.57746009  18.11210984
3358.00 -52.63850921  18.14249360
3360.00 -52.69958112  18.17290801
3362.00 -52.76067579  18.20335308
3364.00 -52.82179321  18.23382881
3366.00 -52.88293336  18.26433522
3368.00 -52.94409621  18.29487230
3370.00 -53.00528175  18.32544007
3372.00 -53.06648997  18.35603853
3374.00 -53.12772083  18.38666769
3376.00 -53.18897431  18.41732755
3378.00 -53.25025041  18.44801813
3380.00 -53.31154910  18.47873942
3382.00 -53.37287036  18.50949144
3384.00 -53.43421417  18.54027419
3386.00 -53.49558050  18.57108767
3388.00 -53.55696935  18.60193191
3390.00 -53.61838069  18.63280689
3392.00 -53.67981450  18.66371263
3394.00 -53.74127076  18.69464913
3396.00 -53.80274945  18.72561640
3398.00 -53.86425056  18.75661445
3400.00 -53.92577406  18.78764329
3402.00 -53.98731992  18.81870291
3404.00 -54.04888815  18.84979333
3406.00 -54.11047870  18.88091455
3408.00 -54.17209157  18.91206658
3410.00 -54.23372673  18.94324942
3412.00 -54.29538416  18.97446309
3414.00 -54.35706385  19.00570758
3416.00 -54.41876578  19.03698291
3418.00 -54.48048991  19.06828908
3420.00 -54.54223625  19.09962610
3422.00 -54.60400475  19.13099397
3424.00 -54.66579542  19.16239269
3426.00 -54.72760821  19.19382229
3428.00 -54.78944313  19.22528275
3430.00 -54.85130014  19.25677409
3432.00 -54.91317922  19.28829632
3434.00 -54.97508036  19.31984944
3436.00 -55.03700354  19.35143345
3438.00 -55.09894874  19.38304837
3440.00 -55.16091593  19.41469419
3442.00 -55.22290511  19.44637093
3444.00 -55.28491623  19.47807859
3446.00 -55.34694930  19.50981718
3448.00 -55.40900429  19.54158670
3450.00 -55.47108117  19.57338716
3452.00 -55.53317994  19.60521857
3454.00 -55.59530056  19.63708093
3456.00 -55.65744302  19.66897424
3458.00 -55.71960730  19.70089852
3460.00 -55.78179338  19.73285376
3462.00 -55.84400125  19.76483999
3464.00 -55.90623087  19.79685719
3466.00 -55.96848223  19.82890538
3468.00 -56.03075532  19.86098456
3470.00 -56.09305010  19.89309474
3472.00 -56.15536657  19.92523593
3474.00 -56.21770470  19.95740813
3476.00 -56.28006447  19.98961134
3478.00 -56.34244587  20.02184558
3480.00 -56.40484886  20.05411085
3482.00 -56.46727344  20.08640715
3484.00 -56.52971959  20.11873449
3486.00 -56.59218727  20.15109287
3488.00 -56.65467648  20.18348231
3490.00 -56.71718720  20.21590280
3492.00 -56.77971940  20.24835436
3494.00 -56.84227306  20.28083698
3496.00 -56.90484817  20.31335069
3498.00 -56.96744470  20.34589547
3500.00 -57.03006264  20.37847133
3502.00 -57.09270197  20.41107829
3504.00 -57.15536266  20.44371634
3506.00 -57.21804469  20.47638550
3508.00 -57.28074806  20.50908577
3510.00 -57.34347273  20.54181715
3512.00 -57.40621869  20.57457965
3514.00 -57.46898591  20.60737328
3516.00 -57.53177438  20.64019803
3518.00 -57.59458408  20.67305392
3520.00 -57.65741499  20.70594096
3522.00 -57.72026709  20.73885914
3524.00 -57.78314036  20.77180848
3526.00 -57.84603477  20.80478897
3528.00 -57.90895032  20.83780063
3530.00 -57.97188697  20.87084345
3532.00 -58.03484472  20.90391746
3534.00 -58.09782353  20.93702264
3536.00 -58.16082340  20.97015901
3538.00 -58.22384430  21.00332656
3540.00 -58.28688620  21.03652532
3542.00 -58.34994910  21.06975528
3544.00 -58.41303297  21.10301644
3546.00 -58.47613780  21.13630882
3548.00 -58.53926355  21.16963241
3550.00 -58.60241022  21.20298723
3552.00 -58.66557778  21.23637328
3554.00 -58.72876622  21.26979056
3556.00 -58.79197550  21.30323908
3558.00 -58.85520562  21.33671884
3560.00 -58.91845656  21.37022986
3562.00 -58.98172829  21.40377213
3564.00 -59.04502080  21.43734565
3566.00 -59.10833406  21.47095045
3568.00 -59.17166805  21.50458651
3570.00 -59.23502276  21.53825385
3572.00 -59.29839817  21.57195247
3574.00 -59.36179425  21.60568238
3576.00 -59.42521099  21.63944358
3578.00 -59.48864837  21.67323607
3580.00 -59.55210636  21.70705987
3582.00 -59.61558495  21.74091497
3584.00 -59.67908412  21.77480138
3586.00 -59.74260385  21.80871911
3588.00 -59.80614412  21.84266816
3590.00 -59.86970490  21.87664854
3592.00 -59.93328619  21.91066025
3594.00 -59.99688795  21.94470329
3596.00 -60.06051017  21.97877768
3598.00 -60.12415284  22.01288341
3600.00 -60.18781592  22.04702050
3602.00 -60.25149940  22.08118894
3604.00 -60.31520327  22.11538874
3606.00 -60.37892750  22.14961991
3608.00 -60.44267206  22.18388245
3610.00 -60.50643696  22.21817637
3612.00 -60.57022215  22.25250166
3614.00 -60.63402762  22.28685834
3616.00 -60.69785336  22.32124642
3618.00 -60.76169935  22.35566588
3620.00 -60.82556555  22.39011675
3622.00 -60.88945196  22.42459903
3624.00 -60.95335856  22.45911271
3626.00 -61.01728531  22.49365780
3628.00 -61.08123222  22.52823432
3630.00 -61.14519925  22.56284226
3632.00 -61.20918638  22.59748163
3634.00 -61.27319360  22.63215243
3636.00 -61.33722089  22.66685467
3638.00 -61.40126823  22.70158836
3640.00 -61.46533559  22.73635349
3642.00 -61.52942296  22.77115007
3644.00 -61.59353032  22.80597811
3646.00 -61.65765764  22.84083761
3648.00 -61.72180492  22.87572857
3650.00 -61.78597212  22.91065101
3652.00 -61.85015923  22.94560492
3654.00 -61.91436623  22.98059031
3656.00 -61.97859311  23.01560719
3658.00 -62.04283983  23.05065555
3660.00 -62.10710638  23.08573541
3662.00 -62.17139275  23.12084676
3664.00 -62.23569890  23.15598962
3666.00 -62.30002483  23.19116398
3668.00 -62.36437051  23.22636986
3670.00 -62.42873592  23.26160725
3672.00 -62.49312105  23.29687616
3674.00 -62.55752587  23.33217659
3676.00 -62.62195036  23.36750856
3678.00 -62.68639451  23.40287205
3680.00 -62.75085829  23.43826709
3682.00 -62.81534169  23.47369366
3684.00 -62.87984468  23.50915178
3686.00 -62.94436724  23.54464146
3688.00 -63.00890937  23.58016268
3690.00 -63.07347103  23.61571547
3692.00 -63.13805220  23.65129982
3694.00 -63.20265288  23.68691574
3696.00 -63.26727303  23.72256323
3698.00 -63.33191264  23.75824229
3700.00 -63.39657169  23.79395294
3702.00 -63.46125016  23.82969517
3704.00 -63.52594802  23.86546899
3706.00 -63.59066527  23.90127440
3708.00 -63.65540187  23.93711141
3710.00 -63.72015782  23.97298002
3712.00 -63.78493309  24.00888024
3714.00 -63.84972766  24.04481207
3716.00 -63.91454151  24.08077551
3718.00 -63.97937462  24.11677056
3720.00 -64.04422698  24.15279724
3722.00 -64.10909856  24.18885555
3724.00 -64.17398934  24.22494549
3726.00 -64.23889930  24.26106706
3728.00 -64.30382843  24.29722026
3730.00 -64.36877671  24.33340511
3732.00 -64.43374411  24.36962161
3734.00 -64.49873061  24.40586976
3736.00 -64.56373620  24.44214956
3738.00 -64.62876086  24.47846102
3740.00 -64.69380457  24.51480414
3742.00 -64.75886730  24.55117892
3744.00 -64.82394904  24.58758538
3746.00 -64.88904977  24.62402351
3748.00 -64.95416946  24.66049332
3750.00 -65.01930811  24.69699481
3752.00 -65.08446568  24.73352798
3754.00 -65.14964217  24.77009284
3756.00 -65.21483754  24.80668940
3758.00 -65.28005179  24.84331765
3760.00 -65.34528489  24.87997761
3762.00 -65.41053682  24.91666926
3764.00 -65.47580756  24.95339263
3766.00 -65.54109710  24.99014771
3768.00 -65.60640541  25.02693450
3770.00 -65.67173247  25.06375302
3772.00 -65.73707826  25.10060325
3774.00 -65.80244277  25.13748522
3776.00 -65.86782598  25.17439891
3778.00 -65.93322786  25.21134434
3780.00 -65.99864840  25.24832150
3782.00 -66.06408758  25.28533041
3784.00 -66.12954537  25.32237106
3786.00 -66.19502176  25.35944346
3788.00 -66.26051672  25.39654762
3790.00 -66.32603025  25.43368353
3792.00 -66.39156232  25.47085119
3794.00 -66.45711290  25.50805063
3796.00 -66.52268198  25.54528182
3798.00 -66.58826955  25.58254479
3800.00 -66.65387558  25.61983954
3802.00 -66.71950005  25.65716605
3804.00 -66.78514294  25.69452435
3806.00 -66.85080423  25.73191444
3808.00 -66.91648390  25.76933631
3810.00 -66.98218194  25.80678997
3812.00 -67.04789833  25.84427543
3814.00 -67.11363304  25.88179268
3816.00 -67.17938605  25.91934174
3818.00 -67.24515735  25.95692260
3820.00 -67.31094692  25.99453527
3822.00 -67.37675473  26.03217975
3824.00 -67.44258077  26.06985604
3826.00 -67.50842502  26.10756416
3828.00 -67.57428745  26.14530409
3830.00 -67.64016806  26.18307585
3832.00 -67.70606681  26.22087944
3834.00 -67.77198370  26.25871485
3836.00 -67.83791870  26.29658211
3838.00 -67.90387178  26.33448120
3840.00 -67.96984294  26.37241213
3842.00 -68.03583215  26.41037491
3844.00 -68.10183940  26.44836953
3846.00 -68.16786465  26.48639600
3848.00 -68.23390791  26.52445433
3850.00 -68.29996913  26.56254452
3852.00 -68.36604831  26.60066656
3854.00 -68.43214543  26.63882047
3856.00 -68.49826046  26.67700624
3858.00 -68.56439339  26.71522389
3860.00 -68.63054420  26.75347341
3862.00 -68.69671287  26.79175480
3864.00 -68.76289937  26.83006807
3866.00 -68.82910369  26.86841322
3868.00 -68.89532582  26.90679026
3870.00 -68.96156572  26.94519919
3872.00 -69.02782339  26.98364001
3874.00 -69.09409879  27.02211272
3876.00 -69.16039192  27.06061733
3878.00 -69.22670275  27.09915383
3880.00 -69.29303127  27.13772224
3882.00 -69.35937745  27.17632256
3884.00 -69.42574127  27.21495479
3886.00 -69.49212272  27.25361892
3888.00 -69.55852178  27.29231498
3890.00 -69.62493842  27.33104295
3892.00 -69.69137263  27.36980284
3894.00 -69.75782439  27.40859465
3896.00 -69.82429367  27.44741839
3898.00 -69.89078047  27.48627406
3900.00 -69.95728475  27.52516166
3902.00 -70.02380651  27.56408119
3904.00 -70.09034571  27.60303266
3906.00 -70.15690235  27.64201608
3908.00 -70.22347640  27.68103143
3910.00 -70.29006784  27.72007873
3912.00 -70.35667666  27.75915798
3914.00 -70.42330283  27.79826918
3916.00 -70.48994634  27.83741233
3918.00 -70.55660716  27.87658744
3920.00 -70.62328527  27.91579451
3922.00 -70.68998067  27.95503355
3924.00 -70.75669332  27.99430454
3926.00 -70.82342321  28.03360751
3928.00 -70.89017032  28.07294244
3930.00 -70.95693463  28.11230935
3932.00 -71.02371612  28.15170823
3934.00 -71.09051477  28.19113908
3936.00 -71.15733057  28.23060192
3938.00 -71.22416348  28.27009675
3940.00 -71.29101350  28.30962355
3942.00 -71.35788060  28.34918235
3944.00 -71.42476477  28.38877313
3946.00 -71.49166598  28.42839591
3948.00 -71.55858422  28.46805069
3950.00 -71.62551947  28.50773746
3952.00 -71.69247170  28.54745623
3954.00 -71.75944090  28.58720700
3956.00 -71.82642705  28.62698978
3958.00 -71.89343013  28.66680457
3960.00 -71.96045012  28.70665137
3962.00 -72.02748700  28.74653018
3964.00 -72.09454076  28.78644101
3966.00 -72.16161136  28.82638385
3968.00 -72.22869880  28.86635871
3970.00 -72.29580305  28.90636560
3972.00 -72.36292410  28.94640451
3974.00 -72.43006193  28.98647544
3976.00 -72.49721651  29.02657841
3978.00 -72.56438782  29.06671340
3980.00 -72.63157586  29.10688043
3982.00 -72.69878059  29.14707950
3984.00 -72.76600201  29.18731060
3986.00 -72.83324008  29.22757374
3988.00 -72.90049479  29.26786893
3990.00 -72.96776613  29.30819616
3992.00 -73.03505407  29.34855544
3994.00 -73.10235859  29.38894677
3996.00 -73.16967968  29.42937015
3998.00 -73.23701731  29.46982558
4000.00 -73.30437147  29.51031306
4002.00 -73.37174213  29.55083261
4004.00 -73.43912928  29.59138422
4006.00 -73.50653290  29.63196788
4008.00 -73.57395297  29.67258361
4010.00 -73.64138947  29.71323141
4012.00 -73.70884238  29.75391128
4014.00 -73.77631168  29.79462321
4016.00 -73.84379735  29.83536722
4018.00 -73.91129938  29.87614330
4020.00 -73.97881774  29.91695146
4022.00 -74.04635241  29.95779170
4024.00 -74.11390338  29.99866402
4026.00 -74.18147063  30.03956842
4028.00 -74.24905413  30.08050490
4030.00 -74.31665388  30.12147348
4032.00 -74.38426984  30.16247413
4034.00 -74.45190200  30.20350688
4036.00 -74.51955034  30.24457172
4038.00 -74.58721485  30.28566866
4040.00 -74.65489549  30.32679769
4042.00 -74.72259226  30.36795882
4044.00 -74.79030514  30.40915205
4046.00 -74.85803410  30.45037738
4048.00 -74.92577912  30.49163481
4050.00 -74.99354019  30.53292435
4052.00 -75.06131729  30.57424599
4054.00 -75.12911040  30.61559974
4056.00 -75.19691950  30.65698561
4058.00 -75.26474457  30.69840358
4060.00 -75.33258559  30.73985367
4062.00 -75.40044254  30.78133588
4064.00 -75.46831541  30.82285020
4066.00 -75.53620417  30.86439664
4068.00 -75.60410881  30.90597520
4070.00 -75.67202930  30.94758589
4072.00 -75.73996563  30.98922870
4074.00 -75.80791777  31.03090363
4076.00 -75.87588572  31.07261069
4078.00 -75.94386945  31.11434989
4080.00 -76.01186893  31.15612121
4082.00 -76.07988416  31.19792466
4084.00 -76.14791511  31.23976025
4086.00 -76.21596177  31.28162797
4088.00 -76.28402410  31.32352783
4090.00 -76.35210211  31.36545983
4092.00 -76.42019576  31.40742397
4094.00 -76.48830504  31.44942025
4096.00 -76.55642993  31.49144868
4098.00 -76.62457040  31.53350924
4100.00 -76.69272645  31.57560196
4102.00 -76.76089805  31.61772682
4104.00 -76.82908518  31.65988383
4106.00 -76.89728782  31.70207299
4108.00 -76.96550596  31.74429431
4110.00 -77.03373957  31.78654778
4112.00 -77.10198865  31.82883340
4114.00 -77.17025315  31.87115118
4116.00 -77.23853308  31.91350111
4118.00 -77.30682841  31.95588321
4120.00 -77.37513911  31.99829746
4122.00 -77.44346518  32.04074388
4124.00 -77.51180659  32.08322246
4126.00 -77.58016333  32.12573320
4128.00 -77.64853537  32.16827611
4130.00 -77.71692269  32.21085119
4132.00 -77.78532528  32.25345843
4134.00 -77.85374312  32.29609785
4136.00 -77.92217619  32.33876943
4138.00 -77.99062447  32.38147319
4140.00 -78.05908794  32.42420912
4142.00 -78.12756658  32.46697723
4144.00 -78.19606037  32.50977751
4146.00 -78.26456930  32.55260996
4148.00 -78.33309335  32.59547460
4150.00 -78.40163249  32.63837141
4152.00 -78.47018670  32.68130041
4154.00 -78.53875598  32.72426158
4156.00 -78.60734030  32.76725494
4158.00 -78.67593964  32.81028049
4160.00 -78.74455397  32.85333821
4162.00 -78.81318330  32.89642813
4164.00 -78.88182758  32.93955023
4166.00 -78.95048681  32.98270451
4168.00 -79.01916097  33.02589099
4170.00 -79.08785004  33.06910966
4172.00 -79.15655399  33.11236052
4174.00 -79.22527282  33.15564357
4176.00 -79.29400649  33.19895881
4178.00 -79.36275500  33.24230625
4180.00 -79.43151832  33.28568588
4182.00 -79.50029643  33.32909771
4184.00 -79.56908933  33.37254174
4186.00 -79.63789697  33.41601796
4188.00 -79.70671936  33.45952639
4190.00 -79.77555646  33.50306701
4192.00 -79.84440827  33.54663983
4194.00 -79.91327475  33.59024486
4196.00 -79.98215590  33.63388209
4198.00 -80.05105169  33.67755152
4200.00 -80.11996211  33.72125315
4202.00 -80.18888713  33.76498699
4204.00 -80.25782674  33.80875304
4206.00 -80.32678092  33.85255129
4208.00 -80.39574965  33.89638175
4210.00 -80.46473291  33.94024442
4212.00 -80.53373069  33.98413930
4214.00 -80.60274295  34.02806639
4216.00 -80.67176969  34.07202569
4218.00 -80.74081089  34.11601719
4220.00 -80.80986652  34.16004092
4222.00 -80.87893658  34.20409685
4224.00 -80.94802103  34.24818500
4226.00 -81.01711986  34.29230536
4228.00 -81.08623306  34.33645794
4230.00 -81.15536060  34.38064273
4232.00 -81.22450246  34.42485973
4234.00 -81.29365863  34.46910896
4236.00 -81.36282909  34.51339040
4238.00 -81.43201381  34.55770406
4240.00 -81.50121279  34.60204994
4242.00 -81.57042599  34.64642804
4244.00 -81.63965341  34.69083835
4246.00 -81.70889502  34.73528089
4248.00 -81.77815081  34.77975565
4250.00 -81.84742076  34.82426263
4252.00 -81.91670484  34.86880183
4254.00 -81.98600304  34.91337325
4256.00 -82.05531534  34.95797690
4258.00 -82.12464172  35.00261277
4260.00 -82.19398217  35.04728086
4262.00 -82.26333666  35.09198118
4264.00 -82.33270517  35.13671372
4266.00 -82.40208770  35.18147849
4268.00 -82.47148421  35.22627548
4270.00 -82.54089469  35.27110470
4272.00 -82.61031912  35.31596615
4274.00 -82.67975748  35.36085982
4276.00 -82.74920976  35.40578572
4278.00 -82.81867593  35.45074385
4280.00 -82.88815598  35.49573421
4282.00 -82.95764989  35.54075679
4284.00 -83.02715764  35.58581160
4286.00 -83.09667920  35.63089864
4288.00 -83.16621457  35.67601791
4290.00 -83.23576373  35.72116941
4292.00 -83.30532664  35.76635314
4294.00 -83.37490331  35.81156910
4296.00 -83.44449370  35.85681729
4298.00 -83.51409780  35.90209771
4300.00 -83.58371559  35.94741036
4302.00 -83.65334706  35.99275524
4304.00 -83.72299217  36.03813236
4306.00 -83.79265093  36.08354170
4308.00 -83.86232329  36.12898328
4310.00 -83.93200926  36.17445708
4312.00 -84.00170881  36.21996312
4314.00 -84.07142191  36.26550140
4316.00 -84.14114856  36.31107190
4318.00 -84.21088873  36.35667463
4320.00 -84.28064241  36.40230960
4322.00 -84.35040957  36.44797680
4324.00 -84.42019020  36.49367624
4326.00 -84.48998429  36.53940790
4328.00 -84.55979180  36.58517180
4330.00 -84.62961272  36.63096793
4332.00 -84.69944704  36.67679630
4334.00 -84.76929474  36.72265689
4336.00 -84.83915579  36.76854972
4338.00 -84.90903018  36.81447478
4340.00 -84.97891789  36.86043208
4342.00 -85.04881890  36.90642161
4344.00 -85.11873320  36.95244337
4346.00 -85.18866076  36.99849736
4348.00 -85.25860156  37.04458358
4350.00 -85.32855560  37.09070204
4352.00 -85.39852284  37.13685273
4354.00 -85.46850328  37.18303565
4356.00 -85.53849688  37.22925081
4358.00 -85.60850364  37.27549820
4360.00 -85.67852354  37.32177781
4362.00 -85.74855656  37.36808967
4364.00 -85.81860267  37.41443375
4366.00 -85.88866186  37.46081006
4368.00 -85.95873412  37.50721861
4370.00 -86.02881942  37.55365938
4372.00 -86.09891774  37.60013239
4374.00 -86.16902907  37.64663763
4376.00 -86.23915339  37.69317509
4378.00 -86.30929068  37.73974479
4380.00 -86.37944092  37.78634672
4382.00 -86.44960410  37.83298088
4384.00 -86.51978019  37.87964727
4386.00 -86.58996917  37.92634588
4388.00 -86.66017104  37.97307673
4390.00 -86.73038576  38.01983980
4392.00 -86.80061333  38.06663510
4394.00 -86.87085372  38.11346263
4396.00 -86.94110691  38.16032239
4398.00 -87.01137289  38.20721437
4400.00 -87.08165164  38.25413859
4402.00 -87.15194314  38.30109502
4404.00 -87.22224737  38.34808369
4406.00 -87.29256432  38.39510457
4408.00 -87.36289396  38.44215769
4410.00 -87.43323627  38.48924303
4412.00 -87.50359125  38.53636059
4414.00 -87.57395886  38.58351038
4416.00 -87.64433910  38.63069239
4418.00 -87.71473194  38.67790662
4420.00 -87.78513736  38.72515308
4422.00 -87.85555536  38.77243175
4424.00 -87.92598590  38.81974265
4426.00 -87.99642897  38.86708577
4428.00 -88.06688455  38.91446111
4430.00 -88.13735263  38.96186867
4432.00 -88.20783319  39.00930845
4434.00 -88.27832620  39.05678045
4436.00 -88.34883165  39.10428466
4438.00 -88.41934952  39.15182110
4440.00 -88.48987980  39.19938975
4442.00 -88.56042246  39.24699061
4444.00 -88.63097748  39.29462369
4446.00 -88.70154486  39.34228899
4448.00 -88.77212456  39.38998650
4450.00 -88.84271658  39.43771623
4452.00 -88.91332089  39.48547816
4454.00 -88.98393748  39.53327231
4456.00 -89.05456632  39.58109867
4458.00 -89.12520740  39.62895725
4460.00 -89.19586071  39.67684803
4462.00 -89.26652621  39.72477102
4464.00 -89.33720391  39.77272622
4466.00 -89.40789377  39.82071363
4468.00 -89.47859577  39.86873325
4470.00 -89.54930991  39.91678507
4472.00 -89.62003616  39.96486909
4474.00 -89.69077450  40.01298533
4476.00 -89.76152492  40.06113376
4478.00 -89.83228740  40.10931440
4480.00 -89.90306192  40.15752724
4482.00 -89.97384846  40.20577229
4484.00 -90.04464700  40.25404953
4486.00 -90.11545753  40.30235897
4488.00 -90.18628003  40.35070062
4490.00 -90.25711447  40.39907446
4492.00 -90.32796085  40.44748049
4494.00 -90.39881914  40.49591873
4496.00 -90.46968932  40.54438915
4498.00 -90.54057138  40.59289178
4500.00 -90.61146530  40.64142659
4502.00 -90.68237107  40.68999360
4504.00 -90.75328865  40.73859280
4506.00 -90.82421804  40.78722419
4508.00 -90.89515922  40.83588777
4510.00 -90.96611217  40.88458354
4512.00 -91.03707686  40.93331149
4514.00 -91.10805329  40.98207163
4516.00 -91.17904144  41.03086396
4518.00 -91.25004128  41.07968847
4520.00 -91.32105280  41.12854516
4522.00 -91.39207598  41.17743404
4524.00 -91.46311080  41.22635509
4526.00 -91.53415725  41.27530833
4528.00 -91.60521531  41.32429375
4530.00 -91.67628495  41.37331134
4532.00 -91.74736617  41.42236111
4534.00 -91.81845894  41.47144305
4536.00 -91.88956324  41.52055717
4538.00 -91.96067906  41.56970347
4540.00 -92.03180638  41.61888193
4542.00 -92.10294519  41.66809256
4544.00 -92.17409545  41.71733537
4546.00 -92.24525716  41.76661034
4548.00 -92.31643030  41.81591748
4550.00 -92.38761485  41.86525679
4552.00 -92.45881079  41.91462826
4554.00 -92.53001810  41.96403189
4556.00 -92.60123677  42.01346768
4558.00 -92.67246678  42.06293564
4560.00 -92.74370811  42.11243576
4562.00 -92.81496074  42.16196803
4564.00 -92.88622465  42.21153246
4566.00 -92.95749983  42.26112905
4568.00 -93.02878626  42.31075779
4570.00 -93.10008393  42.36041868
4572.00 -93.17139280  42.41011172
4574.00 -93.24271287  42.45983692
4576.00 -93.31404412  42.50959426
4578.00 -93.38538652  42.55938375
4580.00 -93.45674007  42.60920539
4582.00 -93.52810474  42.65905917
4584.00 -93.59948052  42.70894510
4586.00 -93.67086739  42.75886316
4588.00 -93.74226533  42.80881337
4590.00 -93.81367432  42.85879571
4592.00 -93.88509434  42.90881020
4594.00 -93.95652538  42.95885682
4596.00 -94.02796742  43.00893557
4598.00 -94.09942045  43.05904645
4600.00 -94.17088444  43.10918947
4602.00 -94.24235937  43.15936462
4604.00 -94.31384523  43.20957189
4606.00 -94.38534200  43.25981130
4608.00 -94.45684967  43.31008282
4610.00 -94.52836821  43.36038647
4612.00 -94.59989761  43.41072225
4614.00 -94.67143784  43.46109014
4616.00 -94.74298890  43.51149015
4618.00 -94.81455077  43.56192228
4620.00 -94.88612342  43.61238653
4622.00 -94.95770684  43.66288289
4624.00 -95.02930101  43.71341136
4626.00 -95.10090591  43.76397194
4628.00 -95.17252154  43.81456463
4630.00 -95.24414785  43.86518943
4632.00 -95.31578485  43.91584634
4634.00 -95.38743252  43.96653534
4636.00 -95.45909082  44.01725645
4638.00 -95.53075976  44.06800967
4640.00 -95.60243930  44.11879498
4642.00 -95.67412944  44.16961238
4644.00 -95.74583015  44.22046189
4646.00 -95.81754142  44.27134348
4648.00 -95.88926323  44.32225717
4650.00 -95.96099556  44.37320295
4652.00 -96.03273840  44.42418082
4654.00 -96.10449172  44.47519077
4656.00 -96.17625551  44.52623281
4658.00 -96.24802975  44.57730693
4660.00 -96.31981443  44.62841313
4662.00 -96.39160952  44.67955141
4664.00 -96.46341501  44.73072177
4666.00 -96.53523088  44.78192420
4668.00 -96.60705712  44.83315871
4670.00 -96.67889370  44.88442529
4672.00 -96.75074061  44.93572394
4674.00 -96.82259783  44.98705465
4676.00 -96.89446535  45.03841744
4678.00 -96.96634314  45.08981228
4680.00 -97.03823119  45.14123919
4682.00 -97.11012948  45.19269816
4684.00 -97.18203799  45.24418919
4686.00 -97.25395671  45.29571227
4688.00 -97.32588562  45.34726741
4690.00 -97.39782470  45.39885460
4692.00 -97.46977393  45.45047383
4694.00 -97.54173330  45.50212512
4696.00 -97.61370279  45.55380846
4698.00 -97.68568238  45.60552383
4700.00 -97.75767205  45.65727125
4702.00 -97.82967179  45.70905071
4704.00 -97.90168158  45.76086221
4706.00 -97.97370140  45.81270575
4708.00 -98.04573123  45.86458131
4710.00 -98.11777106  45.91648891
4712.00 -98.18982087  45.96842854
4714.00 -98.26188064  46.02040020
4716.00 -98.33395035  46.07240388
4718.00 -98.40602999  46.12443958
4720.00 -98.47811955  46.17650731
4722.00 -98.55021899  46.22860705
4724.00 -98.62232831  46.28073882
4726.00 -98.69444748  46.33290259
4728.00 -98.76657650  46.38509838
4730.00 -98.83871533  46.43732618
4732.00 -98.91086398  46.48958598
4734.00 -98.98302241  46.54187779
4736.00 -99.05519061  46.59420161
4738.00 -99.12736856  46.64655743
4740.00 -99.19955625  46.69894524
4742.00 -99.27175366  46.75136505
4744.00 -99.34396077  46.80381686
4746.00 -99.41617757  46.85630066
4748.00 -99.48840403  46.90881645
4750.00 -99.56064014  46.96136422
4752.00 -99.63288588  47.01394398
4754.00 -99.70514124  47.06655573
4756.00 -99.77740619  47.11919945
4758.00 -99.84968073  47.17187515
4760.00 -99.92196483  47.22458283
4762.00 -99.99425847  47.27732248
4764.00 -100.06656165  47.33009411
4766.00 -100.13887433  47.38289770
4768.00 -100.21119651  47.43573325
4770.00 -100.28352816  47.48860078
4772.00 -100.35586928  47.54150026
4774.00 -100.42821983  47.59443170
4776.00 -100.50057981  47.64739510
4778.00 -100.57294920  47.70039045
4780.00 -100.64532799  47.75341776
4782.00 -100.71771614  47.80647701
4784.00 -100.79011365  47.85956821
4786.00 -100.86252050  47.91269135
4788.00 -100.93493667  47.96584644
4790.00 -101.00736215  48.01903346
4792.00 -101.07979691  48.07225243
4794.00 -101.15224095  48.12550332
4796.00 -101.22469424  48.17878615
4798.00 -101.29715676  48.23210091
4800.00 -101.36962851  48.28544759
4802.00 -101.44210945  48.33882620
4804.00 -101.51459958  48.39223672
4806.00 -101.58709888  48.44567917
4808.00 -101.65960733  48.49915353
4810.00 -101.73212491  48.55265981
4812.00 -101.80465161  48.60619800
4814.00 -101.87718741  48.65976809
4816.00 -101.94973229  48.71337010
4818.00 -102.02228624  48.76700400
4820.00 -102.09484923  48.82066980
4822.00 -102.16742126  48.87436751
4824.00 -102.24000230  48.92809710
4826.00 -102.31259234  48.98185859
4828.00 -102.38519135  49.03565197
4830.00 -102.45779933  49.08947724
4832.00 -102.53041626  49.14333439
4834.00 -102.60304211  49.19722342
4836.00 -102.67567688  49.25114433
4838.00 -102.74832054  49.30509712
4840.00 -102.82097308  49.35908178
4842.00 -102.89363448  49.41309831
4844.00 -102.96630473  49.46714670
4846.00 -103.03898380  49.52122696
4848.00 -103.11167168  49.57533909
4850.00 -103.18436835  49.62948307
4852.00 -103.25707380  49.68365891
4854.00 -103.32978801  49.73786660
4856.00 -103.40251097  49.79210615
4858.00 -103.47524264  49.84637754
4860.00 -103.54798303  49.90068078
4862.00 -103.62073210  49.95501585
4864.00 -103.69348986  50.00938277
4866.00 -103.76625626  50.06378153
4868.00 -103.83903131  50.11821211
4870.00 -103.91181499  50.17267453
4872.00 -103.98460727  50.22716878
4874.00 -104.05740814  50.28169485
4876.00 -104.13021758  50.33625274
4878.00 -104.20303558  50.39084245
4880.00 -104.27586212  50.44546398
4882.00 -104.34869718  50.50011732
4884.00 -104.42154074  50.55480247
4886.00 -104.49439280  50.60951942
4888.00 -104.56725333  50.66426818
4890.00 -104.64012231  50.71904874
4892.00 -104.71299973  50.77386110
4894.00 -104.78588557  50.82870526
4896.00 -104.85877982  50.88358120
4898.00 -104.93168246  50.93848894
4900.00 -105.00459346  50.99342846
4902.00 -105.07751282  51.04839976
4904.00 -105.15044052  51.10340284
4906.00 -105.22337654  51.15843770
4908.00 -105.29632086  51.21350433
4910.00 -105.36927347  51.26860273
4912.00 -105.44223435  51.32373290
4914.00 -105.51520349  51.37889484
4916.00 -105.58818086  51.43408853
4918.00 -105.66116645  51.48931398
4920.00 -105.73416024  51.54457119
4922.00 -105.80716222  51.59986015
4924.00 -105.88017238  51.65518086
4926.00 -105.95319068  51.71053331
4928.00 -106.02621712  51.76591750
4930.00 -106.09925168  51.82133343
4932.00 -106.17229435  51.87678110
4934.00 -106.24534510  51.93226050
4936.00 -106.31840392  51.98777163
4938.00 -106.39147080  52.04331449
4940.00 -106.46454571  52.09888907
4942.00 -106.53762864  52.15449536
4944.00 -106.61071957  52.21013338
4946.00 -106.68381849  52.26580310
4948.00 -106.75692539  52.32150454
4950.00 -106.83004023  52.37723768
4952.00 -106.90316301  52.43300252
4954.00 -106.97629371  52.48879907
4956.00 -107.04943232  52.54462731
4958.00 -107.12257881  52.60048724
4960.00 -107.19573317  52.65637887
4962.00 -107.26889539  52.71230217
4964.00 -107.34206545  52.76825717
4966.00 -107.41524332  52.82424384
4968.00 -107.48842900  52.88026219
4970.00 -107.56162247  52.93631221
4972.00 -107.63482370  52.99239390
4974.00 -107.70803270  53.04850725
4976.00 -107.78124943  53.10465227
4978.00 -107.85447388  53.16082895
4980.00 -107.92770603  53.21703728
4982.00 -108.00094588  53.27327727
4984.00 -108.07419339  53.32954890
4986.00 -108.14744857  53.38585218
4988.00 -108.22071138  53.44218711
4990.00 -108.29398181  53.49855367
4992.00 -108.36725985  53.55495186
4994.00 -108.44054548  53.61138169
4996.00 -108.51383868  53.66784314
4998.00 -108.58713944  53.72433622
5000.00 -108.66044774  53.78086092
