wavelength(nm)         real         imag
100.00   3.80929835   0.00086674
102.00   3.80563435   0.00091978
104.00   3.80189783   0.00097495
106.00   3.79808878   0.00103229
108.00   3.79420721   0.00109182
110.00   3.79025311   0.00115360
112.00   3.78622650   0.00121767
114.00   3.78212736   0.00128407
116.00   3.77795571   0.00135284
118.00   3.77371155   0.00142402
120.00   3.76939487   0.00149766
122.00   3.76500569   0.00157379
124.00   3.76054399   0.00165246
126.00   3.75600979   0.00173371
128.00   3.75140308   0.00181757
130.00   3.74672387   0.00190410
132.00   3.74197216   0.00199333
134.00   3.73714795   0.00208531
136.00   3.73225125   0.00218007
138.00   3.72728205   0.00227766
140.00   3.72224035   0.00237812
142.00   3.71712617   0.00248149
144.00   3.71193950   0.00258781
146.00   3.70668034   0.00269712
148.00   3.70134870   0.00280947
150.00   3.69594458   0.00292490
152.00   3.69046798   0.00304345
154.00   3.68491891   0.00316515
156.00   3.67929736   0.00329006
158.00   3.67360334   0.00341821
160.00   3.66783685   0.00354965
162.00   3.66199790   0.00368441
164.00   3.65608648   0.00382254
166.00   3.65010260   0.00396407
168.00   3.64404626   0.00410906
170.00   3.63791747   0.00425754
172.00   3.63171622   0.00440956
174.00   3.62544252   0.00456514
176.00   3.61909638   0.00472435
178.00   3.61267779   0.00488721
180.00   3.60618676   0.00505377
182.00   3.59962328   0.00522408
184.00   3.59298738   0.00539816
186.00   3.58627904   0.00557607
188.00   3.57949826   0.00575785
190.00   3.57264507   0.00594353
192.00   3.56571944   0.00613316
194.00   3.55872140   0.00632678
196.00   3.55165093   0.00652443
198.00   3.54450806   0.00672616
200.00   3.53729276   0.00693199
202.00   3.53000506   0.00714199
204.00   3.52264496   0.00735618
206.00   3.51521245   0.00757461
208.00   3.50770754   0.00779732
210.00   3.50013024   0.00802435
212.00   3.49248054   0.00825574
214.00   3.48475845   0.00849154
216.00   3.47696398   0.00873178
218.00   3.46909713   0.00897652
220.00   3.46115789   0.00922578
222.00   3.45314628   0.00947961
224.00   3.44506230   0.00973805
226.00   3.43690595   0.01000114
228.00   3.42867724   0.01026893
230.00   3.42037616   0.01054145
232.00   3.41200272   0.01081876
234.00   3.40355693   0.01110088
236.00   3.39503879   0.01138786
238.00   3.38644831   0.01167974
240.00   3.37778548   0.01197656
242.00   3.36905031   0.01227837
244.00   3.36024280   0.01258520
246.00   3.35136297   0.01289710
248.00   3.34241080   0.01321411
250.00   3.33338632   0.01353627
252.00   3.32428951   0.01386362
254.00   3.31512039   0.01419620
256.00   3.30587895   0.01453406
258.00   3.29656521   0.01487723
260.00   3.28717916   0.01522575
262.00   3.27772082   0.01557968
264.00   3.26819018   0.01593904
266.00   3.25858725   0.01630389
268.00   3.24891203   0.01667425
270.00   3.23916452   0.01705018
272.00   3.22934474   0.01743172
274.00   3.21945269   0.01781890
276.00   3.20948836   0.01821176
278.00   3.19945177   0.01861036
280.00   3.18934292   0.01901473
282.00   3.17916181   0.01942490
284.00   3.16890845   0.01984093
286.00   3.15858284   0.02026285
288.00   3.14818499   0.02069071
290.00   3.13771490   0.02112455
292.00   3.12717257   0.02156440
294.00   3.11655802   0.02201031
296.00   3.10587124   0.02246232
298.00   3.09511224   0.02292047
300.00   3.08428102   0.02338481
302.00   3.07337760   0.02385536
304.00   3.06240196   0.02433219
306.00   3.05135413   0.02481532
308.00   3.04023410   0.02530480
310.00   3.02904188   0.02580067
312.00   3.01777747   0.02630296
314.00   3.00644088   0.02681173
316.00   2.99503211   0.02732701
318.00   2.98355117   0.02784885
320.00   2.97199807   0.02837728
322.00   2.96037280   0.02891235
324.00   2.94867537   0.02945409
326.00   2.93690580   0.03000256
328.00   2.92506408   0.03055778
330.00   2.91315021   0.03111981
332.00   2.90116421   0.03168868
334.00   2.88910608   0.03226443
336.00   2.87697583   0.03284711
338.00   2.86477345   0.03343675
340.00   2.85249896   0.03403340
342.00   2.84015236   0.03463710
344.00   2.82773366   0.03524788
346.00   2.81524285   0.03586580
348.00   2.80267996   0.03649089
350.00   2.79004497   0.03712320
352.00   2.77733790   0.03776275
354.00   2.76455876   0.03840961
356.00   2.75170755   0.03906380
358.00   2.73878427   0.03972536
360.00   2.72578893   0.04039435
362.00   2.71272153   0.04107079
364.00   2.69958209   0.04175474
366.00   2.68637061   0.04244623
368.00   2.67308708   0.04314530
370.00   2.65973153   0.04385200
372.00   2.64630395   0.04456636
374.00   2.63280435   0.04528842
376.00   2.61923274   0.04601824
378.00   2.60558912   0.04675584
380.00   2.59187350   0.04750128
382.00   2.57808589   0.04825458
384.00   2.56422628   0.04901580
386.00   2.55029469   0.04978496
388.00   2.53629112   0.05056213
390.00   2.52221558   0.05134732
392.00   2.50806808   0.05214060
394.00   2.49384862   0.05294199
396.00   2.47955720   0.05375153
398.00   2.46519384   0.05456928
400.00   2.45075853   0.05539527
402.00   2.43625130   0.05622954
404.00   2.42167213   0.05707213
406.00   2.40702104   0.05792308
408.00   2.39229804   0.05878244
410.00   2.37750313   0.05965024
412.00   2.36263632   0.06052653
414.00   2.34769761   0.06141134
416.00   2.33268701   0.06230473
418.00   2.31760453   0.06320672
420.00   2.30245018   0.06411736
422.00   2.28722395   0.06503669
424.00   2.27192586   0.06596476
426.00   2.25655592   0.06690159
428.00   2.24111413   0.06784724
430.00   2.22560049   0.06880175
432.00   2.21001502   0.06976515
434.00   2.19435772   0.07073749
436.00   2.17862859   0.07171880
438.00   2.16282766   0.07270913
440.00   2.14695491   0.07370852
442.00   2.13101036   0.07471701
444.00   2.11499402   0.07573464
446.00   2.09890588   0.07676146
448.00   2.08274597   0.07779749
450.00   2.06651429   0.07884279
452.00   2.05021084   0.07989739
454.00   2.03383562   0.08096134
456.00   2.01738866   0.08203467
458.00   2.00086995   0.08311743
460.00   1.98427951   0.08420966
462.00   1.96761733   0.08531140
464.00   1.95088343   0.08642268
466.00   1.93407781   0.08754355
468.00   1.91720049   0.08867406
470.00   1.90025146   0.08981424
472.00   1.88323074   0.09096412
474.00   1.86613833   0.09212377
476.00   1.84897424   0.09329320
478.00   1.83173848   0.09447247
480.00   1.81443106   0.09566162
482.00   1.79705198   0.09686068
484.00   1.77960125   0.09806970
486.00   1.76207888   0.09928871
488.00   1.74448488   0.10051777
490.00   1.72681925   0.10175690
492.00   1.70908200   0.10300615
494.00   1.69127314   0.10426556
496.00   1.67339268   0.10553518
498.00   1.65544062   0.10681503
500.00   1.63741697   0.10810517
502.00   1.61932175   0.10940563
504.00   1.60115495   0.11071645
506.00   1.58291659   0.11203768
508.00   1.56460667   0.11336936
510.00   1.54622521   0.11471152
512.00   1.52777220   0.11606420
514.00   1.50924767   0.11742745
516.00   1.49065161   0.11880131
518.00   1.47198403   0.12018582
520.00   1.45324495   0.12158102
522.00   1.43443437   0.12298694
524.00   1.41555229   0.12440364
526.00   1.39659873   0.12583114
528.00   1.37757370   0.12726950
530.00   1.35847720   0.12871875
532.00   1.33930925   0.13017893
534.00   1.32006984   0.13165008
536.00   1.30075899   0.13313225
538.00   1.28137671   0.13462547
540.00   1.26192300   0.13612979
542.00   1.24239788   0.13764523
544.00   1.22280135   0.13917186
546.00   1.20313342   0.14070970
548.00   1.18339410   0.14225880
550.00   1.16358340   0.14381919
552.00   1.14370133   0.14539092
554.00   1.12374789   0.14697403
556.00   1.10372309   0.14856856
558.00   1.08362695   0.15017454
560.00   1.06345946   0.15179203
562.00   1.04322065   0.15342105
564.00   1.02291052   0.15506165
566.00   1.00252907   0.15671388
568.00   0.98207632   0.15837776
570.00   0.96155228   0.16005335
572.00   0.94095695   0.16174067
574.00   0.92029034   0.16343978
576.00   0.89955247   0.16515071
578.00   0.87874333   0.16687351
580.00   0.85786295   0.16860820
582.00   0.83691133   0.17035484
584.00   0.81588847   0.17211347
586.00   0.79479439   0.17388412
588.00   0.77362910   0.17566683
590.00   0.75239261   0.17746164
592.00   0.73108492   0.17926861
594.00   0.70970604   0.18108775
596.00   0.68825599   0.18291913
598.00   0.66673477   0.18476276
600.00   0.64514240   0.18661871
602.00   0.62347887   0.18848700
604.00   0.60174421   0.19036768
606.00   0.57993842   0.19226078
608.00   0.55806150   0.19416635
610.00   0.53611348   0.19608443
612.00   0.51409435   0.19801505
614.00   0.49200414   0.19995827
616.00   0.46984284   0.20191411
618.00   0.44761047   0.20388262
620.00   0.42530704   0.20586383
622.00   0.40293255   0.20785780
624.00   0.38048702   0.20986455
626.00   0.35797046   0.21188414
628.00   0.33538288   0.21391659
630.00   0.31272428   0.21596195
632.00   0.28999467   0.21802026
634.00   0.26719408   0.22009156
636.00   0.24432249   0.22217589
638.00   0.22137994   0.22427329
640.00   0.19836641   0.22638379
642.00   0.17528194   0.22850745
644.00   0.15212652   0.23064430
646.00   0.12890016   0.23279437
648.00   0.10560288   0.23495772
650.00   0.08223469   0.23713438
652.00   0.05879559   0.23932438
654.00   0.03528560   0.24152778
656.00   0.01170473   0.24374460
658.00  -0.01194702   0.24597490
660.00  -0.03566964   0.24821871
662.00  -0.05946310   0.25047606
664.00  -0.08332741   0.25274701
666.00  -0.10726255   0.25503158
668.00  -0.13126852   0.25732982
670.00  -0.15534529   0.25964178
672.00  -0.17949287   0.26196748
674.00  -0.20371123   0.26430697
676.00  -0.22800038   0.26666030
678.00  -0.25236030   0.26902749
680.00  -0.27679097   0.27140859
682.00  -0.30129240   0.27380364
684.00  -0.32586456   0.27621268
686.00  -0.35050745   0.27863575
688.00  -0.37522106   0.28107288
690.00  -0.40000538   0.28352413
692.00  -0.42486038   0.28598952
694.00  -0.44978608   0.28846910
696.00  -0.47478245   0.29096291
698.00  -0.49984948   0.29347099
700.00  -0.52498716   0.29599337
702.00  -0.55019548   0.29853011
704.00  -0.57547444   0.30108122
706.00  -0.60082401   0.30364677
708.00  -0.62624420   0.30622678
710.00  -0.65173498   0.30882130
712.00  -0.67729634   0.31143037
714.00  -0.70292829   0.31405402
716.00  -0.72863079   0.31669229
718.00  -0.75440385   0.31934524
720.00  -0.78024746   0.32201288
722.00  -0.80616159   0.32469527
724.00  -0.83214624   0.32739245
726.00  -0.85820140   0.33010445
728.00  -0.88432706   0.33283131
730.00  -0.91052321   0.33557308
732.00  -0.93678983   0.33832978
734.00  -0.96312691   0.34110147
736.00  -0.98953444   0.34388819
738.00  -1.01601242   0.34668996
740.00  -1.04256083   0.34950684
742.00  -1.06917965   0.35233885
744.00  -1.09586888   0.35518605
746.00  -1.12262850   0.35804847
748.00  -1.14945851   0.36092614
750.00  -1.17635888   0.36381912
752.00  -1.20332962   0.36672743
754.00  -1.23037071   0.36965112
756.00  -1.25748213   0.37259023
758.00  -1.28466388   0.37554479
760.00  -1.31191594   0.37851486
762.00  -1.33923830   0.38150045
764.00  -1.36663095   0.38450163
766.00  -1.39409388   0.38751841
768.00  -1.42162708   0.39055085
770.00  -1.44923053   0.39359899
772.00  -1.47690422   0.39666286
774.00  -1.50464814   0.39974250
776.00  -1.53246228   0.40283795
778.00  -1.56034663   0.40594925
780.00  -1.58830117   0.40907644
782.00  -1.61632589   0.41221957
784.00  -1.64442079   0.41537866
786.00  -1.67258584   0.41855376
788.00  -1.70082104   0.42174491
790.00  -1.72912637   0.42495214
792.00  -1.75750182   0.42817550
794.00  -1.78594738   0.43141503
796.00  -1.81446304   0.43467076
798.00  -1.84304879   0.43794274
800.00  -1.87170460   0.44123100
802.00  -1.90043048   0.44453558
804.00  -1.92922640   0.44785652
806.00  -1.95809236   0.45119387
808.00  -1.98702834   0.45454765
810.00  -2.01603434   0.45791792
812.00  -2.04511033   0.46130470
814.00  -2.07425630   0.46470804
816.00  -2.10347225   0.46812798
818.00  -2.13275816   0.47156455
820.00  -2.16211402   0.47501780
822.00  -2.19153981   0.47848777
824.00  -2.22103553   0.48197448
826.00  -2.25060115   0.48547799
828.00  -2.28023667   0.48899833
830.00  -2.30994208   0.49253554
832.00  -2.33971736   0.49608966
834.00  -2.36956249   0.49966073
836.00  -2.39947747   0.50324879
838.00  -2.42946229   0.50685387
840.00  -2.45951692   0.51047602
842.00  -2.48964137   0.51411528
844.00  -2.51983560   0.51777167
846.00  -2.55009962   0.52144525
848.00  -2.58043341   0.52513606
850.00  -2.61083695   0.52884412
852.00  -2.64131023   0.53256948
854.00  -2.67185324   0.53631218
856.00  -2.70246597   0.54007226
858.00  -2.73314840   0.54384975
860.00  -2.76390052   0.54764470
862.00  -2.79472232   0.55145714
864.00  -2.82561378   0.55528712
866.00  -2.85657489   0.55913467
868.00  -2.88760563   0.56299983
870.00  -2.91870600   0.56688263
872.00  -2.94987598   0.57078313
874.00  -2.98111556   0.57470135
876.00  -3.01242472   0.57863734
878.00  -3.04380345   0.58259113
880.00  -3.07525173   0.58656277
882.00  -3.10676956   0.59055228
884.00  -3.13835692   0.59455972
886.00  -3.17001379   0.59858512
888.00  -3.20174016   0.60262852
890.00  -3.23353602   0.60668995
892.00  -3.26540136   0.61076946
894.00  -3.29733616   0.61486708
896.00  -3.32934041   0.61898285
898.00  -3.36141409   0.62311682
900.00  -3.39355719   0.62726902
902.00  -3.42576969   0.63143948
904.00  -3.45805159   0.63562825
906.00  -3.49040287   0.63983537
908.00  -3.52282351   0.64406087
910.00  -3.55531350   0.64830480
912.00  -3.58787283   0.65256719
914.00  -3.62050148   0.65684807
916.00  -3.65319944   0.66114750
918.00  -3.68596670   0.66546550
920.00  -3.71880324   0.66980212
922.00  -3.75170904   0.67415739
924.00  -3.78468410   0.67853136
926.00  -3.81772839   0.68292406
928.00  -3.85084191   0.68733552
930.00  -3.88402464   0.69176580
932.00  -3.91727656   0.69621492
934.00  -3.95059767   0.70068292
936.00  -3.98398795   0.70516985
938.00  -4.01744737   0.70967574
940.00  -4.05097594   0.71420063
942.00  -4.08457363   0.71874455
944.00  -4.11824044   0.72330756
946.00  -4.15197633   0.72788968
948.00  -4.18578131   0.73249095
950.00  -4.21965536   0.73711141
952.00  -4.25359846   0.74175111
954.00  -4.28761059   0.74641007
956.00  -4.32169175   0.75108833
958.00  -4.35584192   0.75578595
960.00  -4.39006109   0.76050294
962.00  -4.42434923   0.76523936
964.00  -4.45870634   0.76999523
966.00  -4.49313239   0.77477060
968.00  -4.52762739   0.77956551
970.00  -4.56219130   0.78437999
972.00  -4.59682412   0.78921409
974.00  -4.63152583   0.79406783
976.00  -4.66629642   0.79894126
978.00  -4.70113587   0.80383442
980.00  -4.73604417   0.80874734
982.00  -4.77102130   0.81368006
984.00  -4.80606724   0.81863263
986.00  -4.84118199   0.82360507
988.00  -4.87636552   0.82859743
990.00  -4.91161783   0.83360974
992.00  -4.94693889   0.83864205
994.00  -4.98232869   0.84369438
996.00  -5.01778723   0.84876679
998.00  -5.05331447   0.85385930
1000.00  -5.08891041   0.85897196
1002.00  -5.12457503   0.86410480
1004.00  -5.16030832   0.86925785
1006.00  -5.19611025   0.87443117
1008.00  -5.23198083   0.87962478
1010.00  -5.26792002   0.88483873
1012.00  -5.30392782   0.89007305
1014.00  -5.34000420   0.89532778
1016.00  -5.37614917   0.90060295
1018.00  -5.41236269   0.90589861
1020.00  -5.44864475   0.91121479
1022.00  -5.48499534   0.91655154
1024.00  -5.52141445   0.92190888
1026.00  -5.55790205   0.92728686
1028.00  -5.59445813   0.93268552
1030.00  -5.63108268   0.93810488
1032.00  -5.66777568   0.94354500
1034.00  -5.70453711   0.94900590
1036.00  -5.74136696   0.95448763
1038.00  -5.77826522   0.95999022
1040.00  -5.81523186   0.96551371
1042.00  -5.85226687   0.97105813
1044.00  -5.88937025   0.97662354
1046.00  -5.92654196   0.98220995
1048.00  -5.96378199   0.98781742
1050.00  -6.00109034   0.99344598
1052.00  -6.03846697   0.99909566
1054.00  -6.07591189   1.00476651
1056.00  -6.11342506   1.01045855
1058.00  -6.15100648   1.01617184
1060.00  -6.18865613   1.02190640
1062.00  -6.22637399   1.02766227
1064.00  -6.26416005   1.03343950
1066.00  -6.30201429   1.03923811
1068.00  -6.33993669   1.04505815
1070.00  -6.37792725   1.05089966
1072.00  -6.41598593   1.05676266
1074.00  -6.45411273   1.06264721
1076.00  -6.49230764   1.06855332
1078.00  -6.53057062   1.07448106
1080.00  -6.56890168   1.08043044
1082.00  -6.60730078   1.08640151
1084.00  -6.64576792   1.09239430
1086.00  -6.68430308   1.09840886
1088.00  -6.72290624   1.10444521
1090.00  -6.76157739   1.11050341
1092.00  -6.80031651   1.11658348
1094.00  -6.83912358   1.12268545
1096.00  -6.87799859   1.12880938
1098.00  -6.91694152   1.13495530
1100.00  -6.95595235   1.14112323
1102.00  -6.99503107   1.14731323
1104.00  -7.03417766   1.15352532
1106.00  -7.07339210   1.15975955
1108.00  -7.11267438   1.16601595
1110.00  -7.15202449   1.17229456
1112.00  -7.19144239   1.17859542
1114.00  -7.23092809   1.18491856
1116.00  -7.27048155   1.19126402
1118.00  -7.31010277   1.19763183
1120.00  -7.34979173   1.20402204
1122.00  -7.38954840   1.21043469
1124.00  -7.42937278   1.21686980
1126.00  -7.46926485   1.22332741
1128.00  -7.50922458   1.22980757
1130.00  -7.54925197   1.23631031
1132.00  -7.58934700   1.24283566
1134.00  -7.62950964   1.24938367
1136.00  -7.66973989   1.25595437
1138.00  -7.71003772   1.26254779
1140.00  -7.75040311   1.26916398
1142.00  -7.79083606   1.27580297
1144.00  -7.83133655   1.28246480
1146.00  -7.87190454   1.28914950
1148.00  -7.91254004   1.29585711
1150.00  -7.95324302   1.30258767
1152.00  -7.99401347   1.30934122
1154.00  -8.03485136   1.31611778
1156.00  -8.07575669   1.32291741
1158.00  -8.11672943   1.32974013
1160.00  -8.15776956   1.33658598
1162.00  -8.19887707   1.34345501
1164.00  -8.24005194   1.35034723
1166.00  -8.28129416   1.35726270
1168.00  -8.32260370   1.36420145
1170.00  -8.36398055   1.37116352
1172.00  -8.40542470   1.37814893
1174.00  -8.44693612   1.38515774
1176.00  -8.48851479   1.39218997
1178.00  -8.53016070   1.39924566
1180.00  -8.57187384   1.40632485
1182.00  -8.61365418   1.41342757
1184.00  -8.65550170   1.42055387
1186.00  -8.69741639   1.42770377
1188.00  -8.73939823   1.43487732
1190.00  -8.78144721   1.44207455
1192.00  -8.82356330   1.44929550
1194.00  -8.86574649   1.45654020
1196.00  -8.90799676   1.46380870
1198.00  -8.95031409   1.47110101
1200.00  -8.99269847   1.47841720
1202.00  -9.03514987   1.48575728
1204.00  -9.07766828   1.49312130
1206.00  -9.12025368   1.50050929
1208.00  -9.16290605   1.50792128
1210.00  -9.20562538   1.51535733
1212.00  -9.24841164   1.52281745
1214.00  -9.29126482   1.53030170
1216.00  -9.33418491   1.53781009
1218.00  -9.37717187   1.54534268
1220.00  -9.42022570   1.55289949
1222.00  -9.46334638   1.56048057
1224.00  -9.50653388   1.56808594
1226.00  -9.54978820   1.57571565
1228.00  -9.59310930   1.58336973
1230.00  -9.63649718   1.59104822
1232.00  -9.67995182   1.59875115
1234.00  -9.72347319   1.60647856
1236.00  -9.76706128   1.61423049
1238.00  -9.81071607   1.62200697
1240.00  -9.85443754   1.62980803
1242.00  -9.89822568   1.63763372
1244.00  -9.94208046   1.64548407
1246.00  -9.98600187   1.65335912
1248.00 -10.02998988   1.66125890
1250.00 -10.07404449   1.66918344
1252.00 -10.11816567   1.67713279
1254.00 -10.16235340   1.68510698
1256.00 -10.20660766   1.69310605
1258.00 -10.25092844   1.70113002
1260.00 -10.29531572   1.70917895
1262.00 -10.33976948   1.71725286
1264.00 -10.38428969   1.72535178
1266.00 -10.42887635   1.73347577
1268.00 -10.47352943   1.74162484
1270.00 -10.51824891   1.74979904
1272.00 -10.56303478   1.75799840
1274.00 -10.60788701   1.76622296
1276.00 -10.65280560   1.77447276
1278.00 -10.69779051   1.78274782
1280.00 -10.74284173   1.79104819
1282.00 -10.78795924   1.79937390
1284.00 -10.83314302   1.80772499
1286.00 -10.87839305   1.81610149
1288.00 -10.92370932   1.82450344
1290.00 -10.96909181   1.83293088
1292.00 -11.01454049   1.84138383
1294.00 -11.06005534   1.84986234
1296.00 -11.10563636   1.85836644
1298.00 -11.15128351   1.86689616
1300.00 -11.19699679   1.87545155
1302.00 -11.24277616   1.88403263
1304.00 -11.28862162   1.89263945
1306.00 -11.33453313   1.90127204
1308.00 -11.38051069   1.90993042
1310.00 -11.42655428   1.91861465
1312.00 -11.47266387   1.92732476
1314.00 -11.51883944   1.93606077
1316.00 -11.56508098   1.94482273
1318.00 -11.61138847   1.95361067
1320.00 -11.65776188   1.96242463
1322.00 -11.70420120   1.97126463
1324.00 -11.75070641   1.98013073
1326.00 -11.79727749   1.98902295
1328.00 -11.84391442   1.99794132
1330.00 -11.89061718   2.00688589
1332.00 -11.93738575   2.01585669
1334.00 -11.98422011   2.02485375
1336.00 -12.03112024   2.03387710
1338.00 -12.07808613   2.04292680
1340.00 -12.12511774   2.05200286
1342.00 -12.17221507   2.06110532
1344.00 -12.21937809   2.07023423
1346.00 -12.26660679   2.07938961
1348.00 -12.31390114   2.08857150
1350.00 -12.36126112   2.09777993
1352.00 -12.40868671   2.10701494
1354.00 -12.45617791   2.11627657
1356.00 -12.50373467   2.12556485
1358.00 -12.55135699   2.13487981
1360.00 -12.59904485   2.14422149
1362.00 -12.64679822   2.15358993
1364.00 -12.69461708   2.16298516
1366.00 -12.74250142   2.17240721
1368.00 -12.79045122   2.18185612
1370.00 -12.83846645   2.19133193
1372.00 -12.88654710   2.20083467
1374.00 -12.93469314   2.21036437
1376.00 -12.98290455   2.21992107
1378.00 -13.03118133   2.22950480
1380.00 -13.07952343   2.23911561
1382.00 -13.12793086   2.24875351
1384.00 -13.17640357   2.25841856
1386.00 -13.22494156   2.26811078
1388.00 -13.27354481   2.27783020
1390.00 -13.32221329   2.28757687
1392.00 -13.37094699   2.29735082
1394.00 -13.41974587   2.30715208
1396.00 -13.46860993   2.31698069
1398.00 -13.51753915   2.32683668
1400.00 -13.56653350   2.33672008
1402.00 -13.61559296   2.34663093
1404.00 -13.66471751   2.35656928
1406.00 -13.71390713   2.36653514
1408.00 -13.76316181   2.37652855
1410.00 -13.81248151   2.38654955
1412.00 -13.86186623   2.39659818
1414.00 -13.91131593   2.40667447
1416.00 -13.96083061   2.41677845
1418.00 -14.01041023   2.42691015
1420.00 -14.06005479   2.43706962
1422.00 -14.10976425   2.44725688
1424.00 -14.15953859   2.45747197
1426.00 -14.20937780   2.46771493
1428.00 -14.25928186   2.47798579
1430.00 -14.30925075   2.48828458
1432.00 -14.35928443   2.49861133
1434.00 -14.40938291   2.50896609
1436.00 -14.45954614   2.51934889
1438.00 -14.50977412   2.52975976
1440.00 -14.56006681   2.54019873
1442.00 -14.61042421   2.55066584
1444.00 -14.66084629   2.56116112
1446.00 -14.71133302   2.57168462
1448.00 -14.76188440   2.58223635
1450.00 -14.81250039   2.59281636
1452.00 -14.86318097   2.60342468
1454.00 -14.91392613   2.61406134
1456.00 -14.96473585   2.62472639
1458.00 -15.01561009   2.63541984
1460.00 -15.06654885   2.64614174
1462.00 -15.11755210   2.65689212
1464.00 -15.16861982   2.66767102
1466.00 -15.21975199   2.67847846
1468.00 -15.27094859   2.68931449
1470.00 -15.32220959   2.70017913
1472.00 -15.37353497   2.71107243
1474.00 -15.42492472   2.72199441
1476.00 -15.47637882   2.73294510
1478.00 -15.52789723   2.74392455
1480.00 -15.57947995   2.75493278
1482.00 -15.63112694   2.76596984
1484.00 -15.68283819   2.77703575
1486.00 -15.73461368   2.78813054
1488.00 -15.78645338   2.79925426
1490.00 -15.83835727   2.81040693
1492.00 -15.89032534   2.82158859
1494.00 -15.94235756   2.83279927
1496.00 -15.99445390   2.84403901
1498.00 -16.04661436   2.85530784
1500.00 -16.09883890   2.86660580
1502.00 -16.15112750   2.87793291
1504.00 -16.20348015   2.88928921
1506.00 -16.25589682   2.90067473
1508.00 -16.30837748   2.91208952
1510.00 -16.36092213   2.92353359
1512.00 -16.41353073   2.93500699
1514.00 -16.46620327   2.94650975
1516.00 -16.51893972   2.95804191
1518.00 -16.57174007   2.96960348
1520.00 -16.62460428   2.98119452
1522.00 -16.67753234   2.99281505
1524.00 -16.73052423   3.00446511
1526.00 -16.78357992   3.01614472
1528.00 -16.83669939   3.02785393
1530.00 -16.88988262   3.03959276
1532.00 -16.94312960   3.05136126
1534.00 -16.99644029   3.06315945
1536.00 -17.04981467   3.07498736
1538.00 -17.10325273   3.08684503
1540.00 -17.15675444   3.09873250
1542.00 -17.21031978   3.11064979
1544.00 -17.26394873   3.12259695
1546.00 -17.31764126   3.13457399
1548.00 -17.37139735   3.14658096
1550.00 -17.42521699   3.15861789
1552.00 -17.47910014   3.17068481
1554.00 -17.53304679   3.18278176
1556.00 -17.58705692   3.19490876
1558.00 -17.64113049   3.20706586
1560.00 -17.69526750   3.21925308
1562.00 -17.74946792   3.23147046
1564.00 -17.80373172   3.24371803
1566.00 -17.85805889   3.25599583
1568.00 -17.91244939   3.26830388
1570.00 -17.96690322   3.28064222
1572.00 -18.02142034   3.29301088
1574.00 -18.07600074   3.30540990
1576.00 -18.13064439   3.31783930
1578.00 -18.18535127   3.33029913
1580.00 -18.24012136   3.34278941
1582.00 -18.29495463   3.35531018
1584.00 -18.34985106   3.36786147
1586.00 -18.40481064   3.38044331
1588.00 -18.45983333   3.39305574
1590.00 -18.51491911   3.40569878
1592.00 -18.57006797   3.41837248
1594.00 -18.62527988   3.43107686
1596.00 -18.68055482   3.44381196
1598.00 -18.73589276   3.45657780
1600.00 -18.79129368   3.46937443
1602.00 -18.84675756   3.48220187
1604.00 -18.90228438   3.49506016
1606.00 -18.95787411   3.50794933
1608.00 -19.01352673   3.52086941
1610.00 -19.06924222   3.53382043
1612.00 -19.12502056   3.54680244
1614.00 -19.18086172   3.55981545
1616.00 -19.23676568   3.57285950
1618.00 -19.29273242   3.58593463
1620.00 -19.34876192   3.59904087
1622.00 -19.40485414   3.61217825
1624.00 -19.46100907   3.62534680
1626.00 -19.51722669   3.63854655
1628.00 -19.57350698   3.65177754
1630.00 -19.62984990   3.66503980
1632.00 -19.68625544   3.67833336
1634.00 -19.74272357   3.69165825
1636.00 -19.79925428   3.70501452
1638.00 -19.85584753   3.71840218
1640.00 -19.91250331   3.73182127
1642.00 -19.96922159   3.74527182
1644.00 -20.02600235   3.75875387
1646.00 -20.08284556   3.77226744
1648.00 -20.13975121   3.78581258
1650.00 -20.19671926   3.79938931
1652.00 -20.25374971   3.81299766
1654.00 -20.31084251   3.82663766
1656.00 -20.36799766   3.84030936
1658.00 -20.42521512   3.85401277
1660.00 -20.48249487   3.86774794
1662.00 -20.53983690   3.88151489
1664.00 -20.59724117   3.89531366
1666.00 -20.65470766   3.90914427
1668.00 -20.71223636   3.92300677
1670.00 -20.76982723   3.93690117
1672.00 -20.82748025   3.95082752
1674.00 -20.88519541   3.96478585
1676.00 -20.94297267   3.97877618
1678.00 -21.00081201   3.99279856
1680.00 -21.05871341   4.00685300
1682.00 -21.11667685   4.02093955
1684.00 -21.17470230   4.03505823
1686.00 -21.23278974   4.04920908
1688.00 -21.29093915   4.06339213
1690.00 -21.34915049   4.07760741
1692.00 -21.40742376   4.09185494
1694.00 -21.46575892   4.10613478
1696.00 -21.52415595   4.12044694
1698.00 -21.58261482   4.13479145
1700.00 -21.64113552   4.14916835
1702.00 -21.69971803   4.16357768
1704.00 -21.75836230   4.17801945
1706.00 -21.81706833   4.19249371
1708.00 -21.87583609   4.20700048
1710.00 -21.93466555   4.22153980
1712.00 -21.99355669   4.23611169
1714.00 -22.05250949   4.25071620
1716.00 -22.11152392   4.26535334
1718.00 -22.17059997   4.28002316
1720.00 -22.22973759   4.29472568
1722.00 -22.28893678   4.30946094
1724.00 -22.34819751   4.32422896
1726.00 -22.40751975   4.33902977
1728.00 -22.46690348   4.35386342
1730.00 -22.52634868   4.36872993
1732.00 -22.58585531   4.38362933
1734.00 -22.64542337   4.39856165
1736.00 -22.70505282   4.41352692
1738.00 -22.76474364   4.42852518
1740.00 -22.82449580   4.44355646
1742.00 -22.88430928   4.45862078
1744.00 -22.94418407   4.47371818
1746.00 -23.00412012   4.48884869
1748.00 -23.06411742   4.50401234
1750.00 -23.12417595   4.51920916
1752.00 -23.18429568   4.53443919
1754.00 -23.24447659   4.54970245
1756.00 -23.30471864   4.56499897
1758.00 -23.36502183   4.58032879
1760.00 -23.42538612   4.59569194
1762.00 -23.48581148   4.61108844
1764.00 -23.54629790   4.62651833
1766.00 -23.60684536   4.64198165
1768.00 -23.66745381   4.65747841
1770.00 -23.72812325   4.67300865
1772.00 -23.78885365   4.68857241
1774.00 -23.84964498   4.70416970
1776.00 -23.91049721   4.71980057
1778.00 -23.97141034   4.73546505
1780.00 -24.03238432   4.75116316
1782.00 -24.09341913   4.76689494
1784.00 -24.15451476   4.78266041
1786.00 -24.21567117   4.79845961
1788.00 -24.27688834   4.81429257
1790.00 -24.33816625   4.83015932
1792.00 -24.39950487   4.84605988
1794.00 -24.46090417   4.86199430
1796.00 -24.52236414   4.87796259
1798.00 -24.58388475   4.89396480
1800.00 -24.64546597   4.91000094
1802.00 -24.70710778   4.92607106
1804.00 -24.76881016   4.94217519
1806.00 -24.83057307   4.95831334
1808.00 -24.89239649   4.97448556
1810.00 -24.95428041   4.99069187
1812.00 -25.01622479   5.00693230
1814.00 -25.07822961   5.02320689
1816.00 -25.14029485   5.03951566
1818.00 -25.20242047   5.05585865
1820.00 -25.26460646   5.07223589
1822.00 -25.32685279   5.08864740
1824.00 -25.38915944   5.10509321
1826.00 -25.45152638   5.12157336
1828.00 -25.51395358   5.13808788
1830.00 -25.57644102   5.15463679
1832.00 -25.63898868   5.17122013
1834.00 -25.70159653   5.18783793
1836.00 -25.76426454   5.20449021
1838.00 -25.82699270   5.22117701
1840.00 -25.88978097   5.23789836
1842.00 -25.95262933   5.25465429
1844.00 -26.01553775   5.27144482
1846.00 -26.07850622   5.28826999
1848.00 -26.14153470   5.30512982
1850.00 -26.20462317   5.32202435
1852.00 -26.26777160   5.33895361
1854.00 -26.33097997   5.35591763
1856.00 -26.39424826   5.37291643
1858.00 -26.45757644   5.38995005
1860.00 -26.52096448   5.40701852
1862.00 -26.58441235   5.42412186
1864.00 -26.64792005   5.44126011
1866.00 -26.71148752   5.45843329
1868.00 -26.77511476   5.47564144
1870.00 -26.83880174   5.49288459
1872.00 -26.90254843   5.51016276
1874.00 -26.96635480   5.52747599
1876.00 -27.03022084   5.54482429
1878.00 -27.09414651   5.56220772
1880.00 -27.15813179   5.57962629
1882.00 -27.22217665   5.59708003
1884.00 -27.28628108   5.61456897
1886.00 -27.35044503   5.63209315
1888.00 -27.41466850   5.64965258
1890.00 -27.47895145   5.66724731
1892.00 -27.54329385   5.68487736
1894.00 -27.60769568   5.70254276
1896.00 -27.67215692   5.72024354
1898.00 -27.73667754   5.73797973
1900.00 -27.80125752   5.75575136
1902.00 -27.86589682   5.77355846
1904.00 -27.93059542   5.79140105
1906.00 -27.99535331   5.80927917
1908.00 -28.06017044   5.82719285
1910.00 -28.12504680   5.84514211
1912.00 -28.18998236   5.86312698
1914.00 -28.25497710   5.88114750
1916.00 -28.32003098   5.89920369
1918.00 -28.38514398   5.91729559
1920.00 -28.45031608   5.93542321
1922.00 -28.51554726   5.95358660
1924.00 -28.58083748   5.97178577
1926.00 -28.64618671   5.99002077
1928.00 -28.71159494   6.00829161
1930.00 -28.77706214   6.02659833
1932.00 -28.84258828   6.04494095
1934.00 -28.90817334   6.06331951
1936.00 -28.97381728   6.08173403
1938.00 -29.03952009   6.10018455
1940.00 -29.10528174   6.11867109
1942.00 -29.17110219   6.13719367
1944.00 -29.23698144   6.15575234
1946.00 -29.30291944   6.17434712
1948.00 -29.36891618   6.19297803
1950.00 -29.43497162   6.21164511
1952.00 -29.50108575   6.23034838
1954.00 -29.56725853   6.24908787
1956.00 -29.63348994   6.26786362
1958.00 -29.69977995   6.28667565
1960.00 -29.76612854   6.30552399
1962.00 -29.83253568   6.32440867
1964.00 -29.89900134   6.34332971
1966.00 -29.96552550   6.36228715
1968.00 -30.03210813   6.38128102
1970.00 -30.09874921   6.40031133
1972.00 -30.16544871   6.41937813
1974.00 -30.23220660   6.43848144
1976.00 -30.29902286   6.45762128
1978.00 -30.36589746   6.47679770
1980.00 -30.43283037   6.49601070
1982.00 -30.49982157   6.51526034
1984.00 -30.56687103   6.53454662
1986.00 -30.63397872   6.55386958
1988.00 -30.70114463   6.57322926
1990.00 -30.76836871   6.59262567
1992.00 -30.83565095   6.61205884
1994.00 -30.90299132   6.63152882
1996.00 -30.97038980   6.65103561
1998.00 -31.03784635   6.67057925
2000.00 -31.10536094   6.69015977
2002.00 -31.17293356   6.70977720
2004.00 -31.24056418   6.72943156
2006.00 -31.30825277   6.74912289
2008.00 -31.37599930   6.76885121
2010.00 -31.44380375   6.78861655
2012.00 -31.51166608   6.80841893
2014.00 -31.57958628   6.82825839
2016.00 -31.64756432   6.84813495
2018.00 -31.71560017   6.86804865
2020.00 -31.78369380   6.88799951
2022.00 -31.85184518   6.90798755
2024.00 -31.92005430   6.92801281
2026.00 -31.98832112   6.94807531
2028.00 -32.05664562   6.96817508
2030.00 -32.12502776   6.98831216
2032.00 -32.19346753   7.00848656
2034.00 -32.26196490   7.02869831
2036.00 -32.33051983   7.04894745
2038.00 -32.39913231   7.06923400
2040.00 -32.46780230   7.08955798
2042.00 -32.53652978   7.10991943
2044.00 -32.60531472   7.13031838
2046.00 -32.67415710   7.15075485
2048.00 -32.74305688   7.17122886
2050.00 -32.81201405   7.19174046
2052.00 -32.88102857   7.21228965
2054.00 -32.95010041   7.23287648
2056.00 -33.01922956   7.25350097
2058.00 -33.08841598   7.27416315
2060.00 -33.15765964   7.29486304
2062.00 -33.22696053   7.31560067
2064.00 -33.29631860   7.33637607
2066.00 -33.36573384   7.35718927
2068.00 -33.43520622   7.37804029
2070.00 -33.50473571   7.39892917
2072.00 -33.57432228   7.41985592
2074.00 -33.64396591   7.44082058
2076.00 -33.71366657   7.46182318
2078.00 -33.78342423   7.48286373
2080.00 -33.85323886   7.50394228
2082.00 -33.92311044   7.52505884
2084.00 -33.99303895   7.54621344
2086.00 -34.06302434   7.56740611
2088.00 -34.13306660   7.58863688
2090.00 -34.20316570   7.60990577
2092.00 -34.27332162   7.63121282
2094.00 -34.34353431   7.65255804
2096.00 -34.41380376   7.67394147
2098.00 -34.48412995   7.69536314
2100.00 -34.55451283   7.71682306
2102.00 -34.62495239   7.73832127
2104.00 -34.69544859   7.75985779
2106.00 -34.76600142   7.78143266
2108.00 -34.83661084   7.80304589
2110.00 -34.90727682   7.82469751
2112.00 -34.97799934   7.84638756
2114.00 -35.04877837   7.86811606
2116.00 -35.11961389   7.88988303
2118.00 -35.19050586   7.91168850
2120.00 -35.26145425   7.93353251
2122.00 -35.33245905   7.95541507
2124.00 -35.40352022   7.97733621
2126.00 -35.47463773   7.99929596
2128.00 -35.54581156   8.02129434
2130.00 -35.61704169   8.04333139
2132.00 -35.68832807   8.06540713
2134.00 -35.75967069   8.08752158
2136.00 -35.83106952   8.10967478
2138.00 -35.90252452   8.13186674
2140.00 -35.97403568   8.15409750
2142.00 -36.04560296   8.17636709
2144.00 -36.11722634   8.19867552
2146.00 -36.18890579   8.22102282
2148.00 -36.26064128   8.24340903
2150.00 -36.33243278   8.26583417
2152.00 -36.40428026   8.28829826
2154.00 -36.47618371   8.31080133
2156.00 -36.54814308   8.33334341
2158.00 -36.62015836   8.35592452
2160.00 -36.69222951   8.37854469
2162.00 -36.76435651   8.40120395
2164.00 -36.83653933   8.42390231
2166.00 -36.90877793   8.44663982
2168.00 -36.98107230   8.46941650
2170.00 -37.05342241   8.49223236
2172.00 -37.12582822   8.51508744
2174.00 -37.19828971   8.53798176
2176.00 -37.27080686   8.56091536
2178.00 -37.34337962   8.58388825
2180.00 -37.41600799   8.60690046
2182.00 -37.48869192   8.62995201
2184.00 -37.56143139   8.65304295
2186.00 -37.63422637   8.67617328
2188.00 -37.70707683   8.69934303
2190.00 -37.77998275   8.72255224
2192.00 -37.85294410   8.74580093
2194.00 -37.92596084   8.76908912
2196.00 -37.99903296   8.79241683
2198.00 -38.07216042   8.81578411
2200.00 -38.14534320   8.83919096
2202.00 -38.21858126   8.86263742
2204.00 -38.29187458   8.88612351
2206.00 -38.36522313   8.90964927
2208.00 -38.43862689   8.93321470
2210.00 -38.51208582   8.95681984
2212.00 -38.58559989   8.98046472
2214.00 -38.65916909   9.00414937
2216.00 -38.73279337   9.02787379
2218.00 -38.80647271   9.05163803
2220.00 -38.88020709   9.07544211
2222.00 -38.95399647   9.09928605
2224.00 -39.02784083   9.12316988
2226.00 -39.10174014   9.14709362
2228.00 -39.17569436   9.17105731
2230.00 -39.24970348   9.19506095
2232.00 -39.32376747   9.21910459
2234.00 -39.39788628   9.24318825
2236.00 -39.47205991   9.26731195
2238.00 -39.54628831   9.29147571
2240.00 -39.62057146   9.31567956
2242.00 -39.69490933   9.33992354
2244.00 -39.76930190   9.36420765
2246.00 -39.84374913   9.38853194
2248.00 -39.91825100   9.41289641
2250.00 -39.99280747   9.43730111
2252.00 -40.06741853   9.46174605
2254.00 -40.14208413   9.48623126
2256.00 -40.21680426   9.51075676
2258.00 -40.29157888   9.53532258
2260.00 -40.36640796   9.55992874
2262.00 -40.44129149   9.58457528
2264.00 -40.51622942   9.60926220
2266.00 -40.59122173   9.63398955
2268.00 -40.66626839   9.65875734
2270.00 -40.74136937   9.68356560
2272.00 -40.81652465   9.70841436
2274.00 -40.89173419   9.73330363
2276.00 -40.96699797   9.75823345
2278.00 -41.04231595   9.78320383
2280.00 -41.11768812   9.80821481
2282.00 -41.19311443   9.83326641
2284.00 -41.26859487   9.85835865
2286.00 -41.34412940   9.88349156
2288.00 -41.41971799   9.90866516
2290.00 -41.49536062   9.93387948
2292.00 -41.57105726   9.95913454
2294.00 -41.64680787   9.98443037
2296.00 -41.72261244  10.00976698
2298.00 -41.79847092  10.03514442
2300.00 -41.87438330  10.06056269
2302.00 -41.95034953  10.08602183
2304.00 -42.02636961  10.11152186
2306.00 -42.10244348  10.13706281
2308.00 -42.17857114  10.16264469
2310.00 -42.25475254  10.18826753
2312.00 -42.33098766  10.21393136
2314.00 -42.40727647  10.23963621
2316.00 -42.48361894  10.26538209
2318.00 -42.56001504  10.29116903
2320.00 -42.63646474  10.31699706
2322.00 -42.71296802  10.34286619
2324.00 -42.78952484  10.36877646
2326.00 -42.86613518  10.39472789
2328.00 -42.94279901  10.42072050
2330.00 -43.01951629  10.44675431
2332.00 -43.09628701  10.47282936
2334.00 -43.17311112  10.49894566
2336.00 -43.24998860  10.52510324
2338.00 -43.32691943  10.55130212
2340.00 -43.40390357  10.57754233
2342.00 -43.48094099  10.60382389
2344.00 -43.55803166  10.63014682
2346.00 -43.63517557  10.65651115
2348.00 -43.71237267  10.68291691
2350.00 -43.78962293  10.70936411
2352.00 -43.86692633  10.73585279
2354.00 -43.94428285  10.76238296
2356.00 -44.02169244  10.78895465
2358.00 -44.09915508  10.81556788
2360.00 -44.17667075  10.84222267
2362.00 -44.25423940  10.86891906
2364.00 -44.33186102  10.89565706
2366.00 -44.40953557  10.92243670
2368.00 -44.48726303  10.94925800
2370.00 -44.56504336  10.97612099
2372.00 -44.64287654  11.00302568
2374.00 -44.72076254  11.02997211
2376.00 -44.79870132  11.05696029
2378.00 -44.87669286  11.08399025
2380.00 -44.95473713  11.11106202
2382.00 -45.03283410  11.13817561
2384.00 -45.11098374  11.16533106
2386.00 -45.18918602  11.19252837
2388.00 -45.26744091  11.21976759
2390.00 -45.34574838  11.24704872
2392.00 -45.42410841  11.27437180
2394.00 -45.50252096  11.30173685
2396.00 -45.58098600  11.32914389
2398.00 -45.65950351  11.35659294
2400.00 -45.73807345  11.38408403
2402.00 -45.81669580  11.41161718
2404.00 -45.89537052  11.43919242
2406.00 -45.97409759  11.46680976
2408.00 -46.05287698  11.49446924
2410.00 -46.13170865  11.52217087
2412.00 -46.21059258  11.54991467
2414.00 -46.28952875  11.57770068
2416.00 -46.36851711  11.60552891
2418.00 -46.44755763  11.63339939
2420.00 -46.52665030  11.66131213
2422.00 -46.60579508  11.68926717
2424.00 -46.68499194  11.71726452
2426.00 -46.76424085  11.74530422
2428.00 -46.84354179  11.77338627
2430.00 -46.92289471  11.80151071
2432.00 -47.00229960  11.82967756
2434.00 -47.08175642  11.85788684
2436.00 -47.16126514  11.88613857
2438.00 -47.24082574  11.91443277
2440.00 -47.32043818  11.94276948
2442.00 -47.40010243  11.97114871
2444.00 -47.47981847  11.99957048
2446.00 -47.55958626  12.02803482
2448.00 -47.63940578  12.05654175
2450.00 -47.71927699  12.08509129
2452.00 -47.79919987  12.11368347
2454.00 -47.87917438  12.14231831
2456.00 -47.95920050  12.17099582
2458.00 -48.03927819  12.19971604
2460.00 -48.11940743  12.22847899
2462.00 -48.19958819  12.25728468
2464.00 -48.27982043  12.28613315
2466.00 -48.36010413  12.31502441
2468.00 -48.44043926  12.34395848
2470.00 -48.52082579  12.37293539
2472.00 -48.60126368  12.40195517
2474.00 -48.68175291  12.43101782
2476.00 -48.76229345  12.46012339
2478.00 -48.84288526  12.48927187
2480.00 -48.92352832  12.51846332
2482.00 -49.00422260  12.54769773
2484.00 -49.08496807  12.57697513
2486.00 -49.16576470  12.60629556
2488.00 -49.24661245  12.63565902
2490.00 -49.32751130  12.66506555
2492.00 -49.40846122  12.69451515
2494.00 -49.48946218  12.72400787
2496.00 -49.57051415  12.75354371
2498.00 -49.65161709  12.78312270
2500.00 -49.73277099  12.81274486
2502.00 -49.81397580  12.84241022
2504.00 -49.89523150  12.87211879
2506.00 -49.97653805  12.90187060
2508.00 -50.05789544  12.93166568
2510.00 -50.13930362  12.96150403
2512.00 -50.22076257  12.99138568
2514.00 -50.30227226  13.02131067
2516.00 -50.38383266  13.05127899
2518.00 -50.46544373  13.08129069
2520.00 -50.54710545  13.11134578
2522.00 -50.62881779  13.14144429
2524.00 -50.71058072  13.17158622
2526.00 -50.79239420  13.20177162
2528.00 -50.87425821  13.23200049
2530.00 -50.95617271  13.26227286
2532.00 -51.03813769  13.29258875
2534.00 -51.12015310  13.32294819
2536.00 -51.20221891  13.35335118
2538.00 -51.28433510  13.38379777
2540.00 -51.36650164  13.41428796
2542.00 -51.44871849  13.44482179
2544.00 -51.53098563  13.47539926
2546.00 -51.61330302  13.50602041
2548.00 -51.69567064  13.53668525
2550.00 -51.77808845  13.56739380
2552.00 -51.86055642  13.59814609
2554.00 -51.94307453  13.62894214
2556.00 -52.02564275  13.65978197
2558.00 -52.10826103  13.69066560
2560.00 -52.19092936  13.72159305
2562.00 -52.27364770  13.75256434
2564.00 -52.35641603  13.78357950
2566.00 -52.43923430  13.81463854
2568.00 -52.52210250  13.84574149
2570.00 -52.60502059  13.87688837
2572.00 -52.68798854  13.90807920
2574.00 -52.77100632  13.93931399
2576.00 -52.85407390  13.97059278
2578.00 -52.93719125  14.00191558
2580.00 -53.02035834  14.03328241
2582.00 -53.10357514  14.06469330
2584.00 -53.18684161  14.09614826
2586.00 -53.27015773  14.12764732
2588.00 -53.35352348  14.15919050
2590.00 -53.43693880  14.19077781
2592.00 -53.52040369  14.22240929
2594.00 -53.60391810  14.25408494
2596.00 -53.68748200  14.28580479
2598.00 -53.77109537  14.31756887
2600.00 -53.85475818  14.34937719
2602.00 -53.93847039  14.38122977
2604.00 -54.02223197  14.41312663
2606.00 -54.10604289  14.44506780
2608.00 -54.18990313  14.47705329
2610.00 -54.27381265  14.50908313
2612.00 -54.35777142  14.54115734
2614.00 -54.44177941  14.57327593
2616.00 -54.52583659  14.60543893
2618.00 -54.60994293  14.63764636
2620.00 -54.69409840  14.66989824
2622.00 -54.77830297  14.70219458
2624.00 -54.86255660  14.73453542
2626.00 -54.94685927  14.76692076
2628.00 -55.03121095  14.79935064
2630.00 -55.11561160  14.83182507
2632.00 -55.20006120  14.86434406
2634.00 -55.28455971  14.89690765
2636.00 -55.36910711  14.92951586
2638.00 -55.45370336  14.96216869
2640.00 -55.53834843  14.99486617
2642.00 -55.62304229  15.02760833
2644.00 -55.70778491  15.06039518
2646.00 -55.79257626  15.09322675
2648.00 -55.87741631  15.12610305
2650.00 -55.96230503  15.15902410
2652.00 -56.04724239  15.19198992
2654.00 -56.13222836  15.22500054
2656.00 -56.21726290  15.25805597
2658.00 -56.30234598  15.29115624
2660.00 -56.38747758  15.32430136
2662.00 -56.47265767  15.35749135
2664.00 -56.55788621  15.39072623
2666.00 -56.64316317  15.42400603
2668.00 -56.72848852  15.45733077
2670.00 -56.81386223  15.49070045
2672.00 -56.89928427  15.52411511
2674.00 -56.98475461  15.55757476
2676.00 -57.07027322  15.59107943
2678.00 -57.15584007  15.62462913
2680.00 -57.24145512  15.65822388
2682.00 -57.32711834  15.69186370
2684.00 -57.41282971  15.72554861
2686.00 -57.49858920  15.75927864
2688.00 -57.58439677  15.79305379
2690.00 -57.67025239  15.82687410
2692.00 -57.75615603  15.86073958
2694.00 -57.84210766  15.89465024
2696.00 -57.92810724  15.92860612
2698.00 -58.01415476  15.96260723
2700.00 -58.10025017  15.99665358
2702.00 -58.18639345  16.03074520
2704.00 -58.27258457  16.06488211
2706.00 -58.35882349  16.09906432
2708.00 -58.44511018  16.13329186
2710.00 -58.53144461  16.16756475
2712.00 -58.61782676  16.20188300
2714.00 -58.70425658  16.23624664
2716.00 -58.79073406  16.27065568
2718.00 -58.87725915  16.30511014
2720.00 -58.96383183  16.33961004
2722.00 -59.05045206  16.37415541
2724.00 -59.13711982  16.40874625
2726.00 -59.22383507  16.44338259
2728.00 -59.31059779  16.47806446
2730.00 -59.39740794  16.51279186
2732.00 -59.48426549  16.54756481
2734.00 -59.57117040  16.58238335
2736.00 -59.65812266  16.61724747
2738.00 -59.74512222  16.65215721
2740.00 -59.83216906  16.68711259
2742.00 -59.91926314  16.72211361
2744.00 -60.00640444  16.75716031
2746.00 -60.09359292  16.79225270
2748.00 -60.18082855  16.82739079
2750.00 -60.26811131  16.86257461
2752.00 -60.35544115  16.89780418
2754.00 -60.44281805  16.93307951
2756.00 -60.53024197  16.96840063
2758.00 -60.61771289  17.00376755
2760.00 -60.70523078  17.03918029
2762.00 -60.79279560  17.07463887
2764.00 -60.88040732  17.11014330
2766.00 -60.96806591  17.14569362
2768.00 -61.05577134  17.18128983
2770.00 -61.14352358  17.21693195
2772.00 -61.23132260  17.25262001
2774.00 -61.31916836  17.28835402
2776.00 -61.40706084  17.32413400
2778.00 -61.49500000  17.35995997
2780.00 -61.58298582  17.39583194
2782.00 -61.67101825  17.43174994
2784.00 -61.75909727  17.46771399
2786.00 -61.84722285  17.50372409
2788.00 -61.93539496  17.53978028
2790.00 -62.02361357  17.57588256
2792.00 -62.11187863  17.61203096
2794.00 -62.20019013  17.64822550
2796.00 -62.28854804  17.68446619
2798.00 -62.37695231  17.72075305
2800.00 -62.46540292  17.75708611
2802.00 -62.55389984  17.79346537
2804.00 -62.64244304  17.82989085
2806.00 -62.73103248  17.86636258
2808.00 -62.81966813  17.90288058
2810.00 -62.90834997  17.93944485
2812.00 -62.99707795  17.97605543
2814.00 -63.08585206  18.01271232
2816.00 -63.17467226  18.04941554
2818.00 -63.26353851  18.08616512
2820.00 -63.35245078  18.12296107
2822.00 -63.44140905  18.15980340
2824.00 -63.53041328  18.19669215
2826.00 -63.61946345  18.23362731
2828.00 -63.70855951  18.27060892
2830.00 -63.79770144  18.30763699
2832.00 -63.88688920  18.34471154
2834.00 -63.97612278  18.38183258
2836.00 -64.06540212  18.41900014
2838.00 -64.15472721  18.45621422
2840.00 -64.24409801  18.49347486
2842.00 -64.33351448  18.53078206
2844.00 -64.42297661  18.56813584
2846.00 -64.51248435  18.60553623
2848.00 -64.60203768  18.64298324
2850.00 -64.69163655  18.68047688
2852.00 -64.78128095  18.71801718
2854.00 -64.87097085  18.75560414
2856.00 -64.96070619  18.79323780
2858.00 -65.05048697  18.83091817
2860.00 -65.14031314  18.86864525
2862.00 -65.23018468  18.90641908
2864.00 -65.32010155  18.94423967
2866.00 -65.41006372  18.98210704
2868.00 -65.50007115  19.02002119
2870.00 -65.59012383  19.05798216
2872.00 -65.68022171  19.09598996
2874.00 -65.77036477  19.13404460
2876.00 -65.86055297  19.17214611
2878.00 -65.95078628  19.21029449
2880.00 -66.04106467  19.24848977
2882.00 -66.13138811  19.28673197
2884.00 -66.22175656  19.32502109
2886.00 -66.31217000  19.36335717
2888.00 -66.40262840  19.40174021
2890.00 -66.49313171  19.44017023
2892.00 -66.58367992  19.47864725
2894.00 -66.67427298  19.51717129
2896.00 -66.76491087  19.55574236
2898.00 -66.85559356  19.59436048
2900.00 -66.94632101  19.63302567
2902.00 -67.03709319  19.67173794
2904.00 -67.12791007  19.71049731
2906.00 -67.21877162  19.74930380
2908.00 -67.30967780  19.78815743
2910.00 -67.40062859  19.82705820
2912.00 -67.49162396  19.86600615
2914.00 -67.58266386  19.90500128
2916.00 -67.67374828  19.94404361
2918.00 -67.76487717  19.98313315
2920.00 -67.85605051  20.02226994
2922.00 -67.94726827  20.06145397
2924.00 -68.03853041  20.10068528
2926.00 -68.12983690  20.13996386
2928.00 -68.22118770  20.17928975
2930.00 -68.31258280  20.21866296
2932.00 -68.40402215  20.25808350
2934.00 -68.49550573  20.29755139
2936.00 -68.58703350  20.33706665
2938.00 -68.67860543  20.37662929
2940.00 -68.77022149  20.41623933
2942.00 -68.86188164  20.45589679
2944.00 -68.95358587  20.49560168
2946.00 -69.04533412  20.53535402
2948.00 -69.13712638  20.57515382
2950.00 -69.22896261  20.61500111
2952.00 -69.32084277  20.65489589
2954.00 -69.41276684  20.69483819
2956.00 -69.50473479  20.73482801
2958.00 -69.59674658  20.77486539
2960.00 -69.68880218  20.81495032
2962.00 -69.78090156  20.85508284
2964.00 -69.87304468  20.89526295
2966.00 -69.96523153  20.93549067
2968.00 -70.05746205  20.97576601
2970.00 -70.14973623  21.01608900
2972.00 -70.24205403  21.05645965
2974.00 -70.33441541  21.09687797
2976.00 -70.42682035  21.13734399
2978.00 -70.51926882  21.17785770
2980.00 -70.61176078  21.21841915
2982.00 -70.70429619  21.25902833
2984.00 -70.79687504  21.29968526
2986.00 -70.88949729  21.34038996
2988.00 -70.98216290  21.38114245
2990.00 -71.07487184  21.42194274
2992.00 -71.16762408  21.46279085
2994.00 -71.26041959  21.50368679
2996.00 -71.35325834  21.54463058
2998.00 -71.44614030  21.58562223
3000.00 -71.53906543  21.62666177
3002.00 -71.63203370  21.66774919
3004.00 -71.72504507  21.70888453
3006.00 -71.81809953  21.75006780
3008.00 -71.91119703  21.79129900
3010.00 -72.00433755  21.83257817
3012.00 -72.09752105  21.87390531
3014.00 -72.19074750  21.91528043
3016.00 -72.28401686  21.95670356
3018.00 -72.37732912  21.99817471
3020.00 -72.47068422  22.03969389
3022.00 -72.56408215  22.08126112
3024.00 -72.65752287  22.12287642
3026.00 -72.75100634  22.16453980
3028.00 -72.84453255  22.20625128
3030.00 -72.93810144  22.24801086
3032.00 -73.03171300  22.28981857
3034.00 -73.12536719  22.33167442
3036.00 -73.21906397  22.37357843
3038.00 -73.31280333  22.41553061
3040.00 -73.40658521  22.45753098
3042.00 -73.50040960  22.49957955
3044.00 -73.59427646  22.54167634
3046.00 -73.68818576  22.58382135
3048.00 -73.78213746  22.62601462
3050.00 -73.87613154  22.66825614
3052.00 -73.97016796  22.71054595
3054.00 -74.06424668  22.75288404
3056.00 -74.15836769  22.79527044
3058.00 -74.25253094  22.83770517
3060.00 -74.34673641  22.88018823
3062.00 -74.44098406  22.92271964
3064.00 -74.53527385  22.96529941
3066.00 -74.62960577  23.00792757
3068.00 -74.72397977  23.05060413
3070.00 -74.81839582  23.09332909
3072.00 -74.91285390  23.13610248
3074.00 -75.00735396  23.17892431
3076.00 -75.10189599  23.22179459
3078.00 -75.19647993  23.26471334
3080.00 -75.29110577  23.30768057
3082.00 -75.38577348  23.35069631
3084.00 -75.48048301  23.39376055
3086.00 -75.57523433  23.43687332
3088.00 -75.67002742  23.48003464
3090.00 -75.76486225  23.52324451
3092.00 -75.85973877  23.56650295
3094.00 -75.95465697  23.60980997
3096.00 -76.04961680  23.65316560
3098.00 -76.14461823  23.69656984
3100.00 -76.23966124  23.74002270
3102.00 -76.33474578  23.78352421
3104.00 -76.42987184  23.82707438
3106.00 -76.52503936  23.87067321
3108.00 -76.62024834  23.91432073
3110.00 -76.71549872  23.95801695
3112.00 -76.81079048  24.00176189
3114.00 -76.90612359  24.04555555
3116.00 -77.00149802  24.08939795
3118.00 -77.09691373  24.13328911
3120.00 -77.19237069  24.17722904
3122.00 -77.28786886  24.22121776
3124.00 -77.38340823  24.26525527
3126.00 -77.47898875  24.30934159
3128.00 -77.57461039  24.35347674
3130.00 -77.67027311  24.39766073
3132.00 -77.76597690  24.44189357
3134.00 -77.86172171  24.48617529
3136.00 -77.95750752  24.53050588
3138.00 -78.05333429  24.57488537
3140.00 -78.14920198  24.61931377
3142.00 -78.24511058  24.66379109
3144.00 -78.34106003  24.70831735
3146.00 -78.43705032  24.75289256
3148.00 -78.53308141  24.79751673
3150.00 -78.62915327  24.84218988
3152.00 -78.72526587  24.88691203
3154.00 -78.82141916  24.93168317
3156.00 -78.91761313  24.97650334
3158.00 -79.01384774  25.02137254
3160.00 -79.11012296  25.06629079
3162.00 -79.20643875  25.11125810
3164.00 -79.30279508  25.15627448
3166.00 -79.39919192  25.20133995
3168.00 -79.49562924  25.24645452
3170.00 -79.59210701  25.29161820
3172.00 -79.68862519  25.33683101
3174.00 -79.78518375  25.38209296
3176.00 -79.88178266  25.42740406
3178.00 -79.97842189  25.47276433
3180.00 -80.07510140  25.51817378
3182.00 -80.17182116  25.56363243
3184.00 -80.26858115  25.60914028
3186.00 -80.36538132  25.65469735
3188.00 -80.46222165  25.70030366
3190.00 -80.55910210  25.74595922
3192.00 -80.65602265  25.79166403
3194.00 -80.75298325  25.83741812
3196.00 -80.84998388  25.88322149
3198.00 -80.94702450  25.92907416
3200.00 -81.04410509  25.97497615
3202.00 -81.14122560  26.02092746
3204.00 -81.23838602  26.06692811
3206.00 -81.33558629  26.11297811
3208.00 -81.43282641  26.15907747
3210.00 -81.53010632  26.20522621
3212.00 -81.62742600  26.25142435
3214.00 -81.72478542  26.29767188
3216.00 -81.82218454  26.34396884
3218.00 -81.91962333  26.39031522
3220.00 -82.01710176  26.43671104
3222.00 -82.11461980  26.48315632
3224.00 -82.21217742  26.52965106
3226.00 -82.30977458  26.57619528
3228.00 -82.40741124  26.62278900
3230.00 -82.50508739  26.66943222
3232.00 -82.60280298  26.71612496
3234.00 -82.70055798  26.76286724
3236.00 -82.79835237  26.80965905
3238.00 -82.89618610  26.85650042
3240.00 -82.99405916  26.90339136
3242.00 -83.09197149  26.95033188
3244.00 -83.18992308  26.99732199
3246.00 -83.28791388  27.04436171
3248.00 -83.38594388  27.09145105
3250.00 -83.48401303  27.13859002
3252.00 -83.58212130  27.18577863
3254.00 -83.68026866  27.23301690
3256.00 -83.77845508  27.28030483
3258.00 -83.87668053  27.32764245
3260.00 -83.97494497  27.37502976
3262.00 -84.07324837  27.42246677
3264.00 -84.17159070  27.46995350
3266.00 -84.26997192  27.51748996
3268.00 -84.36839201  27.56507616
3270.00 -84.46685093  27.61271212
3272.00 -84.56534865  27.66039784
3274.00 -84.66388514  27.70813334
3276.00 -84.76246036  27.75591863
3278.00 -84.86107429  27.80375372
3280.00 -84.95972689  27.85163863
3282.00 -85.05841812  27.89957336
3284.00 -85.15714796  27.94755793
3286.00 -85.25591637  27.99559235
3288.00 -85.35472332  28.04367664
3290.00 -85.45356878  28.09181080
3292.00 -85.55245272  28.13999484
3294.00 -85.65137510  28.18822878
3296.00 -85.75033589  28.23651263
3298.00 -85.84933507  28.28484641
3300.00 -85.94837258  28.33323012
3302.00 -86.04744842  28.38166377
3304.00 -86.14656253  28.43014738
3306.00 -86.24571490  28.47868096
3308.00 -86.34490548  28.52726452
3310.00 -86.44413424  28.57589807
3312.00 -86.54340116  28.62458162
3314.00 -86.64270620  28.67331519
3316.00 -86.74204933  28.72209879
3318.00 -86.84143051  28.77093243
3320.00 -86.94084972  28.81981611
3322.00 -87.04030692  28.86874986
3324.00 -87.13980207  28.91773368
3326.00 -87.23933515  28.96676759
3328.00 -87.33890613  29.01585159
3330.00 -87.43851497  29.06498570
3332.00 -87.53816163  29.11416993
3334.00 -87.63784610  29.16340429
3336.00 -87.73756832  29.21268879
3338.00 -87.83732828  29.26202345
3340.00 -87.93712594  29.31140826
3342.00 -88.03696127  29.36084326
3344.00 -88.13683423  29.41032844
3346.00 -88.23674479  29.45986382
3348.00 -88.33669293  29.50944941
3350.00 -88.43667860  29.55908522
3352.00 -88.53670177  29.60877126
3354.00 -88.63676242  29.65850754
3356.00 -88.73686051  29.70829408
3358.00 -88.83699601  29.75813088
3360.00 -88.93716889  29.80801796
3362.00 -89.03737911  29.85795532
3364.00 -89.13762664  29.90794299
3366.00 -89.23791145  29.95798096
3368.00 -89.33823350  30.00806925
3370.00 -89.43859277  30.05820787
3372.00 -89.53898922  30.10839684
3374.00 -89.63942282  30.15863616
3376.00 -89.73989354  30.20892584
3378.00 -89.84040134  30.25926590
3380.00 -89.94094619  30.30965634
3382.00 -90.04152807  30.36009717
3384.00 -90.14214693  30.41058842
3386.00 -90.24280275  30.46113008
3388.00 -90.34349549  30.51172217
3390.00 -90.44422512  30.56236470
3392.00 -90.54499160  30.61305768
3394.00 -90.64579492  30.66380112
3396.00 -90.74663502  30.71459502
3398.00 -90.84751189  30.76543941
3400.00 -90.94842549  30.81633430
3402.00 -91.04937578  30.86727968
3404.00 -91.15036273  30.91827558
3406.00 -91.25138632  30.96932200
3408.00 -91.35244651  31.02041896
3410.00 -91.45354326  31.07156646
3412.00 -91.55467655  31.12276451
3414.00 -91.65584634  31.17401313
3416.00 -91.75705260  31.22531232
3418.00 -91.85829529  31.27666211
3420.00 -91.95957439  31.32806248
3422.00 -92.06088986  31.37951347
3424.00 -92.16224168  31.43101507
3426.00 -92.26362980  31.48256729
3428.00 -92.36505419  31.53417016
3430.00 -92.46651483  31.58582367
3432.00 -92.56801168  31.63752784
3434.00 -92.66954471  31.68928267
3436.00 -92.77111388  31.74108819
3438.00 -92.87271917  31.79294439
3440.00 -92.97436054  31.84485129
3442.00 -93.07603795  31.89680890
3444.00 -93.17775138  31.94881722
3446.00 -93.27950080  32.00087628
3448.00 -93.38128617  32.05298607
3450.00 -93.48310746  32.10514661
3452.00 -93.58496463  32.15735791
3454.00 -93.68685766  32.20961997
3456.00 -93.78878651  32.26193282
3458.00 -93.89075115  32.31429645
3460.00 -93.99275155  32.36671087
3462.00 -94.09478767  32.41917611
3464.00 -94.19685949  32.47169216
3466.00 -94.29896696  32.52425904
3468.00 -94.40111006  32.57687675
3470.00 -94.50328876  32.62954531
3472.00 -94.60550303  32.68226472
3474.00 -94.70775282  32.73503500
3476.00 -94.81003811  32.78785616
3478.00 -94.91235887  32.84072820
3480.00 -95.01471506  32.89365113
3482.00 -95.11710665  32.94662497
3484.00 -95.21953361  32.99964972
3486.00 -95.32199591  33.05272540
3488.00 -95.42449351  33.10585200
3490.00 -95.52702639  33.15902955
3492.00 -95.62959450  33.21225805
3494.00 -95.73219783  33.26553750
3496.00 -95.83483632  33.31886793
3498.00 -95.93750996  33.37224934
3500.00 -96.04021871  33.42568173
3502.00 -96.14296254  33.47916513
3504.00 -96.24574141  33.53269953
3506.00 -96.34855530  33.58628494
3508.00 -96.45140416  33.63992139
3510.00 -96.55428798  33.69360886
3512.00 -96.65720671  33.74734738
3514.00 -96.76016032  33.80113696
3516.00 -96.86314879  33.85497759
3518.00 -96.96617208  33.90886930
3520.00 -97.06923015  33.96281209
3522.00 -97.17232297  34.01680597
3524.00 -97.27545052  34.07085094
3526.00 -97.37861276  34.12494703
3528.00 -97.48180966  34.17909422
3530.00 -97.58504118  34.23329255
3532.00 -97.68830729  34.28754201
3534.00 -97.79160797  34.34184261
3536.00 -97.89494317  34.39619437
3538.00 -97.99831287  34.45059728
3540.00 -98.10171703  34.50505137
3542.00 -98.20515562  34.55955663
3544.00 -98.30862861  34.61411309
3546.00 -98.41213597  34.66872073
3548.00 -98.51567767  34.72337959
3550.00 -98.61925366  34.77808966
3552.00 -98.72286392  34.83285095
3554.00 -98.82650842  34.88766347
3556.00 -98.93018713  34.94252723
3558.00 -99.03390001  34.99744224
3560.00 -99.13764703  35.05240850
3562.00 -99.24142815  35.10742604
3564.00 -99.34524336  35.16249484
3566.00 -99.44909260  35.21761493
3568.00 -99.55297586  35.27278631
3570.00 -99.65689309  35.32800899
3572.00 -99.76084428  35.38328298
3574.00 -99.86482937  35.43860828
3576.00 -99.96884835  35.49398491
3578.00 -100.07290118  35.54941287
3580.00 -100.17698782  35.60489218
3582.00 -100.28110825  35.66042283
3584.00 -100.38526244  35.71600484
3586.00 -100.48945034  35.77163822
3588.00 -100.59367193  35.82732298
3590.00 -100.69792718  35.88305912
3592.00 -100.80221605  35.93884664
3594.00 -100.90653851  35.99468557
3596.00 -101.01089453  36.05057591
3598.00 -101.11528408  36.10651766
3600.00 -101.21970712  36.16251084
3602.00 -101.32416363  36.21855544
3604.00 -101.42865356  36.27465149
3606.00 -101.53317689  36.33079899
3608.00 -101.63773359  36.38699794
3610.00 -101.74232362  36.44324836
3612.00 -101.84694695  36.49955025
3614.00 -101.95160355  36.55590362
3616.00 -102.05629339  36.61230847
3618.00 -102.16101643  36.66876483
3620.00 -102.26577264  36.72527269
3622.00 -102.37056199  36.78183205
3624.00 -102.47538445  36.83844294
3626.00 -102.58023999  36.89510536
3628.00 -102.68512856  36.95181931
3630.00 -102.79005015  37.00858480
3632.00 -102.89500472  37.06540185
3634.00 -102.99999223  37.12227045
3636.00 -103.10501266  37.17919062
3638.00 -103.21006597  37.23616236
3640.00 -103.31515212  37.29318569
3642.00 -103.42027110  37.35026060
3644.00 -103.52542286  37.40738711
3646.00 -103.63060737  37.46456523
3648.00 -103.73582460  37.52179495
3650.00 -103.84107453  37.57907630
3652.00 -103.94635710  37.63640927
3654.00 -104.05167230  37.69379387
3656.00 -104.15702010  37.75123012
3658.00 -104.26240045  37.80871802
3660.00 -104.36781333  37.86625757
3662.00 -104.47325871  37.92384879
3664.00 -104.57873654  37.98149168
3666.00 -104.68424681  38.03918624
3668.00 -104.78978948  38.09693250
3670.00 -104.89536451  38.15473044
3672.00 -105.00097188  38.21258009
3674.00 -105.10661155  38.27048144
3676.00 -105.21228349  38.32843451
3678.00 -105.31798767  38.38643930
3680.00 -105.42372405  38.44449582
3682.00 -105.52949261  38.50260408
3684.00 -105.63529331  38.56076408
3686.00 -105.74112611  38.61897583
3688.00 -105.84699099  38.67723934
3690.00 -105.95288792  38.73555461
3692.00 -106.05881686  38.79392166
3694.00 -106.16477778  38.85234048
3696.00 -106.27077065  38.91081109
3698.00 -106.37679543  38.96933349
3700.00 -106.48285210  39.02790770
3702.00 -106.58894062  39.08653370
3704.00 -106.69506096  39.14521153
3706.00 -106.80121309  39.20394117
3708.00 -106.90739697  39.26272264
3710.00 -107.01361258  39.32155594
3712.00 -107.11985987  39.38044109
3714.00 -107.22613883  39.43937808
3716.00 -107.33244941  39.49836692
3718.00 -107.43879158  39.55740763
3720.00 -107.54516532  39.61650020
3722.00 -107.65157059  39.67564465
3724.00 -107.75800736  39.73484098
3726.00 -107.86447559  39.79408920
3728.00 -107.97097526  39.85338931
3730.00 -108.07750633  39.91274132
3732.00 -108.18406877  39.97214524
3734.00 -108.29066255  40.03160108
3736.00 -108.39728763  40.09110883
3738.00 -108.50394399  40.15066851
3740.00 -108.61063159  40.21028013
3742.00 -108.71735040  40.26994368
3744.00 -108.82410038  40.32965918
3746.00 -108.93088151  40.38942664
3748.00 -109.03769376  40.44924605
3750.00 -109.14453708  40.50911743
3752.00 -109.25141146  40.56904078
3754.00 -109.35831685  40.62901610
3756.00 -109.46525323  40.68904341
3758.00 -109.57222056  40.74912272
3760.00 -109.67921881  40.80925402
3762.00 -109.78624794  40.86943732
3764.00 -109.89330794  40.92967263
3766.00 -110.00039876  40.98995995
3768.00 -110.10752038  41.05029930
3770.00 -110.21467275  41.11069068
3772.00 -110.32185585  41.17113409
3774.00 -110.42906965  41.23162954
3776.00 -110.53631412  41.29217703
3778.00 -110.64358921  41.35277658
3780.00 -110.75089491  41.41342818
3782.00 -110.85823118  41.47413185
3784.00 -110.96559798  41.53488758
3786.00 -111.07299529  41.59569540
3788.00 -111.18042307  41.65655529
3790.00 -111.28788129  41.71746727
3792.00 -111.39536992  41.77843135
3794.00 -111.50288892  41.83944752
3796.00 -111.61043828  41.90051580
3798.00 -111.71801794  41.96163619
3800.00 -111.82562788  42.02280870
3802.00 -111.93326808  42.08403333
3804.00 -112.04093849  42.14531009
3806.00 -112.14863908  42.20663898
3808.00 -112.25636983  42.26802001
3810.00 -112.36413070  42.32945318
3812.00 -112.47192165  42.39093851
3814.00 -112.57974267  42.45247599
3816.00 -112.68759371  42.51406563
3818.00 -112.79547474  42.57570745
3820.00 -112.90338573  42.63740143
3822.00 -113.01132666  42.69914759
3824.00 -113.11929748  42.76094594
3826.00 -113.22729816  42.82279648
3828.00 -113.33532868  42.88469921
3830.00 -113.44338900  42.94665414
3832.00 -113.55147909  43.00866128
3834.00 -113.65959892  43.07072062
3836.00 -113.76774846  43.13283219
3838.00 -113.87592766  43.19499597
3840.00 -113.98413652  43.25721199
3842.00 -114.09237498  43.31948023
3844.00 -114.20064302  43.38180072
3846.00 -114.30894060  43.44417344
3848.00 -114.41726770  43.50659842
3850.00 -114.52562428  43.56907565
3852.00 -114.63401032  43.63160513
3854.00 -114.74242577  43.69418688
3856.00 -114.85087061  43.75682090
3858.00 -114.95934481  43.81950720
3860.00 -115.06784832  43.88224577
3862.00 -115.17638113  43.94503662
3864.00 -115.28494320  44.00787977
3866.00 -115.39353450  44.07077521
3868.00 -115.50215500  44.13372294
3870.00 -115.61080466  44.19672299
3872.00 -115.71948345  44.25977534
3874.00 -115.82819134  44.32288000
3876.00 -115.93692830  44.38603699
3878.00 -116.04569430  44.44924629
3880.00 -116.15448930  44.51250793
3882.00 -116.26331327  44.57582190
3884.00 -116.37216619  44.63918821
3886.00 -116.48104802  44.70260686
3888.00 -116.58995873  44.76607786
3890.00 -116.69889828  44.82960121
3892.00 -116.80786664  44.89317691
3894.00 -116.91686379  44.95680498
3896.00 -117.02588969  45.02048542
3898.00 -117.13494431  45.08421823
3900.00 -117.24402762  45.14800341
3902.00 -117.35313958  45.21184098
3904.00 -117.46228017  45.27573093
3906.00 -117.57144935  45.33967327
3908.00 -117.68064709  45.40366800
3910.00 -117.78987336  45.46771513
3912.00 -117.89912812  45.53181467
3914.00 -118.00841135  45.59596661
3916.00 -118.11772302  45.66017096
3918.00 -118.22706308  45.72442774
3920.00 -118.33643152  45.78873693
3922.00 -118.44582829  45.85309855
3924.00 -118.55525337  45.91751259
3926.00 -118.66470673  45.98197908
3928.00 -118.77418833  46.04649800
3930.00 -118.88369814  46.11106936
3932.00 -118.99323614  46.17569317
3934.00 -119.10280228  46.24036943
3936.00 -119.21239653  46.30509815
3938.00 -119.32201888  46.36987932
3940.00 -119.43166927  46.43471296
3942.00 -119.54134769  46.49959907
3944.00 -119.65105410  46.56453765
3946.00 -119.76078846  46.62952871
3948.00 -119.87055076  46.69457224
3950.00 -119.98034095  46.75966826
3952.00 -120.09015900  46.82481677
3954.00 -120.20000488  46.89001778
3956.00 -120.30987857  46.95527127
3958.00 -120.41978002  47.02057727
3960.00 -120.52970921  47.08593578
3962.00 -120.63966611  47.15134679
3964.00 -120.74965068  47.21681031
3966.00 -120.85966289  47.28232635
3968.00 -120.96970271  47.34789492
3970.00 -121.07977012  47.41351600
3972.00 -121.18986507  47.47918961
3974.00 -121.29998753  47.54491576
3976.00 -121.41013748  47.61069444
3978.00 -121.52031489  47.67652565
3980.00 -121.63051971  47.74240942
3982.00 -121.74075193  47.80834572
3984.00 -121.85101150  47.87433458
3986.00 -121.96129840  47.94037599
3988.00 -122.07161260  48.00646996
3990.00 -122.18195406  48.07261650
3992.00 -122.29232275  48.13881559
3994.00 -122.40271865  48.20506726
3996.00 -122.51314171  48.27137149
3998.00 -122.62359191  48.33772830
4000.00 -122.73406922  48.40413770
4002.00 -122.84457360  48.47059967
4004.00 -122.95510502  48.53711423
4006.00 -123.06566346  48.60368138
4008.00 -123.17624888  48.67030112
4010.00 -123.28686124  48.73697346
4012.00 -123.39750053  48.80369840
4014.00 -123.50816670  48.87047594
4016.00 -123.61885972  48.93730609
4018.00 -123.72957957  49.00418885
4020.00 -123.84032621  49.07112422
4022.00 -123.95109961  49.13811221
4024.00 -124.06189973  49.20515281
4026.00 -124.17272656  49.27224604
4028.00 -124.28358005  49.33939190
4030.00 -124.39446018  49.40659038
4032.00 -124.50536691  49.47384150
4034.00 -124.61630021  49.54114526
4036.00 -124.72726005  49.60850165
4038.00 -124.83824640  49.67591068
4040.00 -124.94925923  49.74337236
4042.00 -125.06029851  49.81088669
4044.00 -125.17136420  49.87845367
4046.00 -125.28245627  49.94607330
4048.00 -125.39357470  50.01374559
4050.00 -125.50471944  50.08147054
4052.00 -125.61589048  50.14924815
4054.00 -125.72708778  50.21707843
4056.00 -125.83831130  50.28496138
4058.00 -125.94956102  50.35289700
4060.00 -126.06083690  50.42088529
4062.00 -126.17213891  50.48892626
4064.00 -126.28346703  50.55701991
4066.00 -126.39482122  50.62516625
4068.00 -126.50620144  50.69336527
4070.00 -126.61760768  50.76161698
4072.00 -126.72903989  50.82992138
4074.00 -126.84049804  50.89827848
4076.00 -126.95198211  50.96668827
4078.00 -127.06349206  51.03515076
4080.00 -127.17502787  51.10366595
4082.00 -127.28658949  51.17223385
4084.00 -127.39817691  51.24085446
4086.00 -127.50979008  51.30952777
4088.00 -127.62142898  51.37825380
4090.00 -127.73309357  51.44703254
4092.00 -127.84478383  51.51586401
4094.00 -127.95649972  51.58474819
4096.00 -128.06824121  51.65368509
4098.00 -128.18000827  51.72267472
4100.00 -128.29180087  51.79171708
4102.00 -128.40361898  51.86081216
4104.00 -128.51546257  51.92995998
4106.00 -128.62733160  51.99916054
4108.00 -128.73922605  52.06841383
4110.00 -128.85114588  52.13771986
4112.00 -128.96309106  52.20707863
4114.00 -129.07506157  52.27649014
4116.00 -129.18705736  52.34595441
4118.00 -129.29907842  52.41547142
4120.00 -129.41112470  52.48504118
4122.00 -129.52319618  52.55466369
4124.00 -129.63529282  52.62433896
4126.00 -129.74741460  52.69406699
4128.00 -129.85956148  52.76384778
4130.00 -129.97173344  52.83368133
4132.00 -130.08393043  52.90356764
4134.00 -130.19615244  52.97350672
4136.00 -130.30839942  53.04349856
4138.00 -130.42067136  53.11354318
4140.00 -130.53296821  53.18364057
4142.00 -130.64528994  53.25379073
4144.00 -130.75763653  53.32399366
4146.00 -130.87000795  53.39424938
4148.00 -130.98240415  53.46455788
4150.00 -131.09482512  53.53491915
4152.00 -131.20727082  53.60533321
4154.00 -131.31974122  53.67580006
4156.00 -131.43223629  53.74631969
4158.00 -131.54475600  53.81689211
4160.00 -131.65730031  53.88751733
4162.00 -131.76986920  53.95819533
4164.00 -131.88246264  54.02892614
4166.00 -131.99508058  54.09970973
4168.00 -132.10772302  54.17054613
4170.00 -132.22038990  54.24143532
4172.00 -132.33308120  54.31237732
4174.00 -132.44579690  54.38337212
4176.00 -132.55853695  54.45441972
4178.00 -132.67130133  54.52552013
4180.00 -132.78409001  54.59667335
4182.00 -132.89690296  54.66787938
4184.00 -133.00974014  54.73913822
4186.00 -133.12260152  54.81044987
4188.00 -133.23548708  54.88181433
4190.00 -133.34839679  54.95323161
4192.00 -133.46133060  55.02470171
4194.00 -133.57428850  55.09622463
4196.00 -133.68727044  55.16780036
4198.00 -133.80027641  55.23942892
4200.00 -133.91330636  55.31111030
4202.00 -134.02636027  55.38284451
4204.00 -134.13943811  55.45463154
4206.00 -134.25253985  55.52647139
4208.00 -134.36566545  55.59836408
4210.00 -134.47881488  55.67030959
4212.00 -134.59198812  55.74230794
4214.00 -134.70518513  55.81435911
4216.00 -134.81840588  55.88646312
4218.00 -134.93165035  55.95861997
4220.00 -135.04491849  56.03082965
4222.00 -135.15821029  56.10309217
4224.00 -135.27152570  56.17540752
4226.00 -135.38486470  56.24777571
4228.00 -135.49822726  56.32019675
4230.00 -135.61161335  56.39267062
4232.00 -135.72502293  56.46519734
4234.00 -135.83845598  56.53777690
4236.00 -135.95191246  56.61040931
4238.00 -136.06539235  56.68309456
4240.00 -136.17889561  56.75583265
4242.00 -136.29242221  56.82862359
4244.00 -136.40597212  56.90146739
4246.00 -136.51954532  56.97436403
4248.00 -136.63314177  57.04731352
4250.00 -136.74676143  57.12031586
4252.00 -136.86040429  57.19337105
4254.00 -136.97407030  57.26647910
4256.00 -137.08775944  57.33964000
4258.00 -137.20147168  57.41285375
4260.00 -137.31520699  57.48612036
4262.00 -137.42896533  57.55943983
4264.00 -137.54274667  57.63281215
4266.00 -137.65655100  57.70623732
4268.00 -137.77037826  57.77971536
4270.00 -137.88422844  57.85324625
4272.00 -137.99810151  57.92683001
4274.00 -138.11199742  58.00046662
4276.00 -138.22591616  58.07415610
4278.00 -138.33985769  58.14789843
4280.00 -138.45382198  58.22169363
4282.00 -138.56780900  58.29554169
4284.00 -138.68181872  58.36944261
4286.00 -138.79585111  58.44339639
4288.00 -138.90990614  58.51740304
4290.00 -139.02398378  58.59146255
4292.00 -139.13808399  58.66557493
4294.00 -139.25220675  58.73974017
4296.00 -139.36635203  58.81395828
4298.00 -139.48051980  58.88822926
4300.00 -139.59471002  58.96255310
4302.00 -139.70892266  59.03692980
4304.00 -139.82315771  59.11135938
4306.00 -139.93741511  59.18584182
4308.00 -140.05169485  59.26037713
4310.00 -140.16599690  59.33496530
4312.00 -140.28032121  59.40960635
4314.00 -140.39466777  59.48430026
4316.00 -140.50903655  59.55904704
4318.00 -140.62342750  59.63384669
4320.00 -140.73784061  59.70869921
4322.00 -140.85227583  59.78360460
4324.00 -140.96673315  59.85856286
4326.00 -141.08121253  59.93357399
4328.00 -141.19571394  60.00863798
4330.00 -141.31023735  60.08375485
4332.00 -141.42478273  60.15892458
4334.00 -141.53935005  60.23414719
4336.00 -141.65393928  60.30942266
4338.00 -141.76855038  60.38475101
4340.00 -141.88318334  60.46013222
4342.00 -141.99783811  60.53556631
4344.00 -142.11251467  60.61105326
4346.00 -142.22721298  60.68659308
4348.00 -142.34193303  60.76218577
4350.00 -142.45667477  60.83783133
4352.00 -142.57143818  60.91352976
4354.00 -142.68622322  60.98928106
4356.00 -142.80102987  61.06508523
4358.00 -142.91585810  61.14094227
4360.00 -143.03070787  61.21685217
4362.00 -143.14557916  61.29281494
4364.00 -143.26047193  61.36883058
4366.00 -143.37538616  61.44489909
4368.00 -143.49032181  61.52102047
4370.00 -143.60527886  61.59719471
4372.00 -143.72025727  61.67342182
4374.00 -143.83525702  61.74970179
4376.00 -143.95027807  61.82603463
4378.00 -144.06532040  61.90242034
4380.00 -144.18038397  61.97885891
4382.00 -144.29546875  62.05535034
4384.00 -144.41057472  62.13189464
4386.00 -144.52570184  62.20849180
4388.00 -144.64085008  62.28514183
4390.00 -144.75601942  62.36184472
4392.00 -144.87120982  62.43860047
4394.00 -144.98642125  62.51540908
4396.00 -145.10165369  62.59227055
4398.00 -145.21690710  62.66918489
4400.00 -145.33218145  62.74615208
4402.00 -145.44747672  62.82317213
4404.00 -145.56279287  62.90024504
4406.00 -145.67812987  62.97737081
4408.00 -145.79348770  63.05454944
4410.00 -145.90886631  63.13178092
4412.00 -146.02426570  63.20906526
4414.00 -146.13968581  63.28640245
4416.00 -146.25512663  63.36379250
4418.00 -146.37058812  63.44123540
4420.00 -146.48607025  63.51873115
4422.00 -146.60157300  63.59627976
4424.00 -146.71709633  63.67388121
4426.00 -146.83264021  63.75153552
4428.00 -146.94820461  63.82924268
4430.00 -147.06378951  63.90700268
4432.00 -147.17939488  63.98481553
4434.00 -147.29502067  64.06268123
4436.00 -147.41066687  64.14059977
4438.00 -147.52633345  64.21857116
4440.00 -147.64202036  64.29659539
4442.00 -147.75772760  64.37467246
4444.00 -147.87345511  64.45280238
4446.00 -147.98920288  64.53098513
4448.00 -148.10497088  64.60922073
4450.00 -148.22075906  64.68750916
4452.00 -148.33656742  64.76585043
4454.00 -148.45239591  64.84424453
4456.00 -148.56824450  64.92269147
4458.00 -148.68411317  65.00119125
4460.00 -148.80000189  65.07974386
4462.00 -148.91591062  65.15834929
4464.00 -149.03183933  65.23700756
4466.00 -149.14778801  65.31571866
4468.00 -149.26375661  65.39448258
4470.00 -149.37974510  65.47329934
4472.00 -149.49575347  65.55216891
4474.00 -149.61178167  65.63109131
4476.00 -149.72782968  65.71006653
4478.00 -149.84389746  65.78909458
4480.00 -149.95998500  65.86817544
4482.00 -150.07609225  65.94730912
4484.00 -150.19221919  66.02649562
4486.00 -150.30836580  66.10573493
4488.00 -150.42453203  66.18502706
4490.00 -150.54071786  66.26437200
4492.00 -150.65692326  66.34376975
4494.00 -150.77314820  66.42322031
4496.00 -150.88939265  66.50272368
4498.00 -151.00565659  66.58227985
4500.00 -151.12193997  66.66188883
4502.00 -151.23824278  66.74155061
4504.00 -151.35456498  66.82126520
4506.00 -151.47090654  66.90103258
4508.00 -151.58726744  66.98085277
4510.00 -151.70364764  67.06072575
4512.00 -151.82004712  67.14065152
4514.00 -151.93646584  67.22063009
4516.00 -152.05290377  67.30066145
4518.00 -152.16936089  67.38074560
4520.00 -152.28583717  67.46088254
4522.00 -152.40233257  67.54107226
4524.00 -152.51884708  67.62131477
4526.00 -152.63538064  67.70161006
4528.00 -152.75193325  67.78195814
4530.00 -152.86850487  67.86235899
4532.00 -152.98509546  67.94281262
4534.00 -153.10170501  68.02331902
4536.00 -153.21833347  68.10387820
4538.00 -153.33498083  68.18449015
4540.00 -153.45164705  68.26515487
4542.00 -153.56833210  68.34587236
4544.00 -153.68503595  68.42664261
4546.00 -153.80175858  68.50746563
4548.00 -153.91849995  68.58834141
4550.00 -154.03526003  68.66926995
4552.00 -154.15203880  68.75025125
4554.00 -154.26883623  68.83128530
4556.00 -154.38565228  68.91237211
4558.00 -154.50248693  68.99351166
4560.00 -154.61934015  69.07470397
4562.00 -154.73621191  69.15594903
4564.00 -154.85310218  69.23724683
4566.00 -154.97001092  69.31859737
4568.00 -155.08693812  69.40000065
4570.00 -155.20388374  69.48145667
4572.00 -155.32084775  69.56296543
4574.00 -155.43783012  69.64452692
4576.00 -155.55483083  69.72614115
4578.00 -155.67184984  69.80780810
4580.00 -155.78888713  69.88952778
4582.00 -155.90594266  69.97130019
4584.00 -156.02301641  70.05312532
4586.00 -156.14010835  70.13500317
4588.00 -156.25721844  70.21693373
4590.00 -156.37434667  70.29891702
4592.00 -156.49149299  70.38095301
4594.00 -156.60865739  70.46304172
4596.00 -156.72583983  70.54518313
4598.00 -156.84304028  70.62737725
4600.00 -156.96025871  70.70962407
4602.00 -157.07749510  70.79192360
4604.00 -157.19474941  70.87427582
4606.00 -157.31202162  70.95668074
4608.00 -157.42931170  71.03913835
4610.00 -157.54661961  71.12164865
4612.00 -157.66394534  71.20421164
4614.00 -157.78128884  71.28682732
4616.00 -157.89865009  71.36949568
4618.00 -158.01602907  71.45221672
4620.00 -158.13342574  71.53499043
4622.00 -158.25084007  71.61781682
4624.00 -158.36827204  71.70069589
4626.00 -158.48572161  71.78362762
4628.00 -158.60318876  71.86661202
4630.00 -158.72067346  71.94964908
4632.00 -158.83817567  72.03273881
4634.00 -158.95569538  72.11588119
4636.00 -159.07323254  72.19907623
4638.00 -159.19078714  72.28232392
4640.00 -159.30835914  72.36562426
4642.00 -159.42594852  72.44897725
4644.00 -159.54355524  72.53238288
4646.00 -159.66117928  72.61584116
4648.00 -159.77882060  72.69935207
4650.00 -159.89647918  72.78291562
4652.00 -160.01415500  72.86653180
4654.00 -160.13184801  72.95020061
4656.00 -160.24955819  73.03392205
4658.00 -160.36728552  73.11769611
4660.00 -160.48502996  73.20152279
4662.00 -160.60279149  73.28540209
4664.00 -160.72057007  73.36933400
4666.00 -160.83836568  73.45331853
4668.00 -160.95617830  73.53735566
4670.00 -161.07400788  73.62144540
4672.00 -161.19185440  73.70558774
4674.00 -161.30971783  73.78978269
4676.00 -161.42759815  73.87403022
4678.00 -161.54549532  73.95833035
4680.00 -161.66340933  74.04268307
4682.00 -161.78134012  74.12708838
4684.00 -161.89928769  74.21154627
4686.00 -162.01725200  74.29605674
4688.00 -162.13523302  74.38061978
4690.00 -162.25323072  74.46523540
4692.00 -162.37124507  74.54990359
4694.00 -162.48927605  74.63462435
4696.00 -162.60732363  74.71939767
4698.00 -162.72538778  74.80422355
4700.00 -162.84346847  74.88910198
4702.00 -162.96156566  74.97403297
4704.00 -163.07967934  75.05901651
4706.00 -163.19780948  75.14405260
4708.00 -163.31595604  75.22914123
4710.00 -163.43411899  75.31428240
4712.00 -163.55229832  75.39947611
4714.00 -163.67049398  75.48472234
4716.00 -163.78870596  75.57002111
4718.00 -163.90693421  75.65537241
4720.00 -164.02517872  75.74077622
4722.00 -164.14343946  75.82623256
4724.00 -164.26171639  75.91174141
4726.00 -164.38000950  75.99730277
4728.00 -164.49831874  76.08291664
4730.00 -164.61664409  76.16858302
4732.00 -164.73498553  76.25430189
4734.00 -164.85334302  76.34007326
4736.00 -164.97171654  76.42589713
4738.00 -165.09010605  76.51177349
4740.00 -165.20851154  76.59770233
4742.00 -165.32693296  76.68368365
4744.00 -165.44537030  76.76971745
4746.00 -165.56382352  76.85580373
4748.00 -165.68229260  76.94194248
4750.00 -165.80077750  77.02813370
4752.00 -165.91927821  77.11437738
4754.00 -166.03779468  77.20067352
4756.00 -166.15632690  77.28702211
4758.00 -166.27487483  77.37342316
4760.00 -166.39343845  77.45987665
4762.00 -166.51201772  77.54638259
4764.00 -166.63061262  77.63294097
4766.00 -166.74922313  77.71955179
4768.00 -166.86784921  77.80621504
4770.00 -166.98649083  77.89293072
4772.00 -167.10514796  77.97969882
4774.00 -167.22382059  78.06651934
4776.00 -167.34250867  78.15339228
4778.00 -167.46121219  78.24031763
4780.00 -167.57993111  78.32729539
4782.00 -167.69866540  78.41432556
4784.00 -167.81741504  78.50140812
4786.00 -167.93618000  78.58854308
4788.00 -168.05496025  78.67573044
4790.00 -168.17375576  78.76297018
4792.00 -168.29256651  78.85026230
4794.00 -168.41139246  78.93760681
4796.00 -168.53023359  79.02500369
4798.00 -168.64908987  79.11245294
4800.00 -168.76796127  79.19995456
4802.00 -168.88684777  79.28750854
4804.00 -169.00574933  79.37511489
4806.00 -169.12466593  79.46277358
4808.00 -169.24359753  79.55048463
4810.00 -169.36254412  79.63824802
4812.00 -169.48150566  79.72606375
4814.00 -169.60048213  79.81393183
4816.00 -169.71947350  79.90185223
4818.00 -169.83847973  79.98982496
4820.00 -169.95750080  80.07785002
4822.00 -170.07653669  80.16592740
4824.00 -170.19558737  80.25405709
4826.00 -170.31465280  80.34223910
4828.00 -170.43373296  80.43047341
4830.00 -170.55282782  80.51876002
4832.00 -170.67193736  80.60709893
4834.00 -170.79106154  80.69549013
4836.00 -170.91020034  80.78393363
4838.00 -171.02935372  80.87242940
4840.00 -171.14852167  80.96097746
4842.00 -171.26770416  81.04957779
4844.00 -171.38690115  81.13823039
4846.00 -171.50611262  81.22693526
4848.00 -171.62533854  81.31569239
4850.00 -171.74457888  81.40450178
4852.00 -171.86383362  81.49336342
4854.00 -171.98310272  81.58227731
4856.00 -172.10238617  81.67124344
4858.00 -172.22168392  81.76026180
4860.00 -172.34099596  81.84933240
4862.00 -172.46032226  81.93845524
4864.00 -172.57966278  82.02763029
4866.00 -172.69901750  82.11685756
4868.00 -172.81838640  82.20613705
4870.00 -172.93776944  82.29546875
4872.00 -173.05716660  82.38485265
4874.00 -173.17657785  82.47428876
4876.00 -173.29600316  82.56377706
4878.00 -173.41544251  82.65331755
4880.00 -173.53489586  82.74291022
4882.00 -173.65436319  82.83255508
4884.00 -173.77384447  82.92225211
4886.00 -173.89333967  83.01200131
4888.00 -174.01284878  83.10180268
4890.00 -174.13237175  83.19165621
4892.00 -174.25190856  83.28156190
4894.00 -174.37145918  83.37151974
4896.00 -174.49102359  83.46152972
4898.00 -174.61060176  83.55159185
4900.00 -174.73019366  83.64170611
4902.00 -174.84979926  83.73187250
4904.00 -174.96941854  83.82209102
4906.00 -175.08905146  83.91236166
4908.00 -175.20869801  84.00268442
4910.00 -175.32835815  84.09305929
4912.00 -175.44803185  84.18348626
4914.00 -175.56771910  84.27396534
4916.00 -175.68741985  84.36449651
4918.00 -175.80713409  84.45507977
4920.00 -175.92686178  84.54571512
4922.00 -176.04660290  84.63640255
4924.00 -176.16635742  84.72714205
4926.00 -176.28612532  84.81793362
4928.00 -176.40590656  84.90877725
4930.00 -176.52570112  84.99967295
4932.00 -176.64550897  85.09062070
4934.00 -176.76533009  85.18162050
4936.00 -176.88516444  85.27267234
4938.00 -177.00501200  85.36377622
4940.00 -177.12487274  85.45493213
4942.00 -177.24474664  85.54614007
4944.00 -177.36463367  85.63740003
4946.00 -177.48453379  85.72871201
4948.00 -177.60444699  85.82007600
4950.00 -177.72437324  85.91149200
4952.00 -177.84431250  86.00296000
4954.00 -177.96426475  86.09447999
4956.00 -178.08422997  86.18605197
4958.00 -178.20420813  86.27767594
4960.00 -178.32419919  86.36935188
4962.00 -178.44420314  86.46107980
4964.00 -178.56421994  86.55285968
4966.00 -178.68424957  86.64469153
4968.00 -178.80429200  86.73657534
4970.00 -178.92434720  86.82851109
4972.00 -179.04441515  86.92049879
4974.00 -179.16449582  87.01253843
4976.00 -179.28458918  87.10463001
4978.00 -179.40469520  87.19677351
4980.00 -179.52481387  87.28896894
4982.00 -179.64494514  87.38121628
4984.00 -179.76508900  87.47351554
4986.00 -179.88524542  87.56586670
4988.00 -180.00541436  87.65826977
4990.00 -180.12559581  87.75072472
4992.00 -180.24578973  87.84323157
4994.00 -180.36599611  87.93579030
4996.00 -180.48621490  88.02840091
4998.00 -180.60644609  88.12106339
5000.00 -180.72668964  88.21377773
