wavelength(nm)         real         imag
100.00   3.82700036   0.00069758
102.00   3.82405146   0.00074027
104.00   3.82104418   0.00078467
106.00   3.81797853   0.00083082
108.00   3.81485452   0.00087873
110.00   3.81167213   0.00092846
112.00   3.80843138   0.00098002
114.00   3.80513227   0.00103346
116.00   3.80177479   0.00108881
118.00   3.79835895   0.00114610
120.00   3.79488474   0.00120537
122.00   3.79135218   0.00126664
124.00   3.78776127   0.00132995
126.00   3.78411199   0.00139534
128.00   3.78040436   0.00146284
130.00   3.77663838   0.00153248
132.00   3.77281405   0.00160430
134.00   3.76893137   0.00167832
136.00   3.76499034   0.00175459
138.00   3.76099097   0.00183313
140.00   3.75693325   0.00191399
142.00   3.75281719   0.00199718
144.00   3.74864279   0.00208275
146.00   3.74441005   0.00217073
148.00   3.74011897   0.00226116
150.00   3.73576956   0.00235406
152.00   3.73136181   0.00244947
154.00   3.72689574   0.00254742
156.00   3.72237133   0.00264795
158.00   3.71778860   0.00275109
160.00   3.71314754   0.00285687
162.00   3.70844816   0.00296533
164.00   3.70369046   0.00307650
166.00   3.69887444   0.00319042
168.00   3.69400010   0.00330711
170.00   3.68906745   0.00342661
172.00   3.68407648   0.00354895
174.00   3.67902721   0.00367418
176.00   3.67391962   0.00380231
178.00   3.66875373   0.00393339
180.00   3.66352954   0.00406744
182.00   3.65824704   0.00420451
184.00   3.65290625   0.00434462
186.00   3.64750716   0.00448780
188.00   3.64204977   0.00463410
190.00   3.63653409   0.00478355
192.00   3.63096013   0.00493617
194.00   3.62532787   0.00509200
196.00   3.61963733   0.00525107
198.00   3.61388851   0.00541343
200.00   3.60808141   0.00557909
202.00   3.60221603   0.00574810
204.00   3.59629238   0.00592049
206.00   3.59031046   0.00609629
208.00   3.58427026   0.00627554
210.00   3.57817180   0.00645826
212.00   3.57201508   0.00664449
214.00   3.56580009   0.00683427
216.00   3.55952684   0.00702762
218.00   3.55319534   0.00722459
220.00   3.54680559   0.00742520
222.00   3.54035759   0.00762950
224.00   3.53385133   0.00783750
226.00   3.52728684   0.00804924
228.00   3.52066410   0.00826477
230.00   3.51398312   0.00848411
232.00   3.50724391   0.00870729
234.00   3.50044646   0.00893435
236.00   3.49359079   0.00916532
238.00   3.48667688   0.00940023
240.00   3.47970476   0.00963913
242.00   3.47267441   0.00988203
244.00   3.46558584   0.01012898
246.00   3.45843906   0.01038001
248.00   3.45123407   0.01063515
250.00   3.44397087   0.01089443
252.00   3.43664946   0.01115789
254.00   3.42926985   0.01142556
256.00   3.42183205   0.01169748
258.00   3.41433604   0.01197368
260.00   3.40678185   0.01225418
262.00   3.39916946   0.01253903
264.00   3.39149889   0.01282826
266.00   3.38377014   0.01312190
268.00   3.37598321   0.01341998
270.00   3.36813810   0.01372254
272.00   3.36023482   0.01402961
274.00   3.35227337   0.01434123
276.00   3.34425376   0.01465742
278.00   3.33617599   0.01497822
280.00   3.32804005   0.01530367
282.00   3.31984596   0.01563379
284.00   3.31159373   0.01596863
286.00   3.30328334   0.01630820
288.00   3.29491481   0.01665256
290.00   3.28648814   0.01700172
292.00   3.27800333   0.01735573
294.00   3.26946039   0.01771461
296.00   3.26085933   0.01807840
298.00   3.25220013   0.01844714
300.00   3.24348282   0.01882085
302.00   3.23470739   0.01919957
304.00   3.22587384   0.01958334
306.00   3.21698218   0.01997218
308.00   3.20803242   0.02036612
310.00   3.19902456   0.02076521
312.00   3.18995859   0.02116948
314.00   3.18083454   0.02157895
316.00   3.17165239   0.02199367
318.00   3.16241216   0.02241366
320.00   3.15311384   0.02283896
322.00   3.14375745   0.02326960
324.00   3.13434298   0.02370561
326.00   3.12487044   0.02414704
328.00   3.11533984   0.02459390
330.00   3.10575117   0.02504624
332.00   3.09610445   0.02550408
334.00   3.08639968   0.02596746
336.00   3.07663685   0.02643642
338.00   3.06681598   0.02691098
340.00   3.05693707   0.02739119
342.00   3.04700013   0.02787706
344.00   3.03700515   0.02836864
346.00   3.02695214   0.02886597
348.00   3.01684111   0.02936906
350.00   3.00667207   0.02987796
352.00   2.99644501   0.03039269
354.00   2.98615994   0.03091330
356.00   2.97581686   0.03143981
358.00   2.96541579   0.03197226
360.00   2.95495671   0.03251069
362.00   2.94443965   0.03305511
364.00   2.93386460   0.03360557
366.00   2.92323156   0.03416211
368.00   2.91254055   0.03472474
370.00   2.90179157   0.03529351
372.00   2.89098462   0.03586845
374.00   2.88011970   0.03644960
376.00   2.86919683   0.03703698
378.00   2.85821600   0.03763062
380.00   2.84717722   0.03823057
382.00   2.83608050   0.03883686
384.00   2.82492584   0.03944951
386.00   2.81371324   0.04006856
388.00   2.80244271   0.04069404
390.00   2.79111426   0.04132600
392.00   2.77972789   0.04196445
394.00   2.76828360   0.04260943
396.00   2.75678140   0.04326098
398.00   2.74522130   0.04391913
400.00   2.73360330   0.04458392
402.00   2.72192740   0.04525536
404.00   2.71019362   0.04593351
406.00   2.69840194   0.04661838
408.00   2.68655239   0.04731002
410.00   2.67464497   0.04800845
412.00   2.66267967   0.04871372
414.00   2.65065652   0.04942585
416.00   2.63857550   0.05014487
418.00   2.62643663   0.05087082
420.00   2.61423991   0.05160374
422.00   2.60198535   0.05234365
424.00   2.58967295   0.05309058
426.00   2.57730272   0.05384458
428.00   2.56487466   0.05460567
430.00   2.55238878   0.05537389
432.00   2.53984508   0.05614926
434.00   2.52724358   0.05693183
436.00   2.51458427   0.05772162
438.00   2.50186716   0.05851867
440.00   2.48909226   0.05932302
442.00   2.47625956   0.06013468
444.00   2.46336909   0.06095371
446.00   2.45042084   0.06178012
448.00   2.43741481   0.06261395
450.00   2.42435103   0.06345524
452.00   2.41122948   0.06430402
454.00   2.39805017   0.06516032
456.00   2.38481312   0.06602417
458.00   2.37151833   0.06689561
460.00   2.35816580   0.06777467
462.00   2.34475553   0.06866139
464.00   2.33128755   0.06955579
466.00   2.31776184   0.07045790
468.00   2.30417842   0.07136777
470.00   2.29053729   0.07228542
472.00   2.27683846   0.07321089
474.00   2.26308193   0.07414421
476.00   2.24926772   0.07508541
478.00   2.23539582   0.07603452
480.00   2.22146624   0.07699158
482.00   2.20747899   0.07795663
484.00   2.19343408   0.07892968
486.00   2.17933150   0.07991079
488.00   2.16517128   0.08089997
490.00   2.15095340   0.08189726
492.00   2.13667789   0.08290270
494.00   2.12234474   0.08391632
496.00   2.10795396   0.08493815
498.00   2.09350556   0.08596821
500.00   2.07899954   0.08700656
502.00   2.06443591   0.08805321
504.00   2.04981469   0.08910821
506.00   2.03513586   0.09017157
508.00   2.02039944   0.09124335
510.00   2.00560544   0.09232356
512.00   1.99075386   0.09341225
514.00   1.97584471   0.09450944
516.00   1.96087800   0.09561516
518.00   1.94585373   0.09672946
520.00   1.93077190   0.09785236
522.00   1.91563253   0.09898389
524.00   1.90043563   0.10012410
526.00   1.88518119   0.10127300
528.00   1.86986922   0.10243064
530.00   1.85449974   0.10359704
532.00   1.83907274   0.10477224
534.00   1.82358824   0.10595627
536.00   1.80804624   0.10714917
538.00   1.79244675   0.10835096
540.00   1.77678978   0.10956168
542.00   1.76107532   0.11078136
544.00   1.74530340   0.11201004
546.00   1.72947401   0.11324775
548.00   1.71358716   0.11449451
550.00   1.69764286   0.11575037
552.00   1.68164112   0.11701535
554.00   1.66558194   0.11828948
556.00   1.64946533   0.11957281
558.00   1.63329130   0.12086536
560.00   1.61705986   0.12216716
562.00   1.60077100   0.12347825
564.00   1.58442475   0.12479866
566.00   1.56802109   0.12612843
568.00   1.55156006   0.12746758
570.00   1.53504164   0.12881614
572.00   1.51846585   0.13017416
574.00   1.50183269   0.13154166
576.00   1.48514217   0.13291867
578.00   1.46839430   0.13430523
580.00   1.45158909   0.13570137
582.00   1.43472654   0.13710712
584.00   1.41780667   0.13852252
586.00   1.40082947   0.13994760
588.00   1.38379495   0.14138238
590.00   1.36670313   0.14282691
592.00   1.34955401   0.14428121
594.00   1.33234759   0.14574532
596.00   1.31508389   0.14721927
598.00   1.29776291   0.14870309
600.00   1.28038467   0.15019681
602.00   1.26294916   0.15170047
604.00   1.24545639   0.15321410
606.00   1.22790638   0.15473773
608.00   1.21029913   0.15627140
610.00   1.19263465   0.15781513
612.00   1.17491294   0.15936896
614.00   1.15713401   0.16093292
616.00   1.13929788   0.16250705
618.00   1.12140455   0.16409137
620.00   1.10345402   0.16568591
622.00   1.08544630   0.16729072
624.00   1.06738141   0.16890582
626.00   1.04925935   0.17053125
628.00   1.03108013   0.17216703
630.00   1.01284375   0.17381321
632.00   0.99455022   0.17546980
634.00   0.97619956   0.17713685
636.00   0.95779176   0.17881439
638.00   0.93932685   0.18050244
640.00   0.92080482   0.18220105
642.00   0.90222568   0.18391023
644.00   0.88358944   0.18563004
646.00   0.86489612   0.18736049
648.00   0.84614571   0.18910162
650.00   0.82733823   0.19085346
652.00   0.80847368   0.19261605
654.00   0.78955207   0.19438942
656.00   0.77057341   0.19617359
658.00   0.75153772   0.19796860
660.00   0.73244499   0.19977449
662.00   0.71329523   0.20159129
664.00   0.69408846   0.20341902
666.00   0.67482468   0.20525772
668.00   0.65550390   0.20710742
670.00   0.63612613   0.20896815
672.00   0.61669137   0.21083996
674.00   0.59719964   0.21272286
676.00   0.57765094   0.21461689
678.00   0.55804529   0.21652208
680.00   0.53838269   0.21843847
682.00   0.51866314   0.22036608
684.00   0.49888666   0.22230495
686.00   0.47905326   0.22425512
688.00   0.45916295   0.22621660
690.00   0.43921573   0.22818945
692.00   0.41921161   0.23017367
694.00   0.39915060   0.23216932
696.00   0.37903271   0.23417642
698.00   0.35885794   0.23619500
700.00   0.33862632   0.23822510
702.00   0.31833784   0.24026674
704.00   0.29799251   0.24231997
706.00   0.27759035   0.24438480
708.00   0.25713136   0.24646128
710.00   0.23661555   0.24854943
712.00   0.21604293   0.25064930
714.00   0.19541351   0.25276089
716.00   0.17472729   0.25488427
718.00   0.15398430   0.25701944
720.00   0.13318452   0.25916645
722.00   0.11232799   0.26132532
724.00   0.09141469   0.26349610
726.00   0.07044465   0.26567880
728.00   0.04941787   0.26787347
730.00   0.02833436   0.27008013
732.00   0.00719413   0.27229882
734.00  -0.01400281   0.27452957
736.00  -0.03525646   0.27677241
738.00  -0.05656679   0.27902736
740.00  -0.07793381   0.28129448
742.00  -0.09935751   0.28357378
744.00  -0.12083787   0.28586529
746.00  -0.14237488   0.28816906
748.00  -0.16396855   0.29048511
750.00  -0.18561885   0.29281347
752.00  -0.20732577   0.29515417
754.00  -0.22908932   0.29750725
756.00  -0.25090947   0.29987274
758.00  -0.27278623   0.30225067
760.00  -0.29471957   0.30464107
762.00  -0.31670950   0.30704398
764.00  -0.33875600   0.30945942
766.00  -0.36085906   0.31188743
768.00  -0.38301867   0.31432804
770.00  -0.40523483   0.31678128
772.00  -0.42750751   0.31924718
774.00  -0.44983673   0.32172577
776.00  -0.47222245   0.32421709
778.00  -0.49466468   0.32672117
780.00  -0.51716340   0.32923804
782.00  -0.53971861   0.33176772
784.00  -0.56233030   0.33431026
786.00  -0.58499845   0.33686569
788.00  -0.60772306   0.33943403
790.00  -0.63050411   0.34201531
792.00  -0.65334159   0.34460958
794.00  -0.67623551   0.34721686
796.00  -0.69918584   0.34983718
798.00  -0.72219258   0.35247057
800.00  -0.74525571   0.35511707
802.00  -0.76837523   0.35777670
804.00  -0.79155113   0.36044951
806.00  -0.81478339   0.36313551
808.00  -0.83807201   0.36583475
810.00  -0.86141698   0.36854724
812.00  -0.88481828   0.37127304
814.00  -0.90827591   0.37401216
816.00  -0.93178986   0.37676463
818.00  -0.95536011   0.37953050
820.00  -0.97898666   0.38230979
822.00  -1.00266950   0.38510253
824.00  -1.02640861   0.38790875
826.00  -1.05020399   0.39072849
828.00  -1.07405562   0.39356177
830.00  -1.09796349   0.39640863
832.00  -1.12192761   0.39926911
834.00  -1.14594794   0.40214322
836.00  -1.17002449   0.40503100
838.00  -1.19415725   0.40793249
840.00  -1.21834620   0.41084772
842.00  -1.24259133   0.41377671
844.00  -1.26689263   0.41671949
846.00  -1.29125010   0.41967611
848.00  -1.31566372   0.42264659
850.00  -1.34013348   0.42563096
852.00  -1.36465937   0.42862925
854.00  -1.38924138   0.43164150
856.00  -1.41387950   0.43466773
858.00  -1.43857372   0.43770798
860.00  -1.46332402   0.44076228
862.00  -1.48813041   0.44383066
864.00  -1.51299286   0.44691315
866.00  -1.53791137   0.45000978
868.00  -1.56288592   0.45312058
870.00  -1.58791651   0.45624559
872.00  -1.61300313   0.45938484
874.00  -1.63814575   0.46253835
876.00  -1.66334438   0.46570616
878.00  -1.68859901   0.46888830
880.00  -1.71390961   0.47208480
882.00  -1.73927618   0.47529570
884.00  -1.76469872   0.47852101
886.00  -1.79017720   0.48176079
888.00  -1.81571162   0.48501504
890.00  -1.84130196   0.48828382
892.00  -1.86694822   0.49156714
894.00  -1.89265039   0.49486504
896.00  -1.91840845   0.49817755
898.00  -1.94422239   0.50150470
900.00  -1.97009220   0.50484652
902.00  -1.99601787   0.50820304
904.00  -2.02199940   0.51157431
906.00  -2.04803676   0.51496033
908.00  -2.07412994   0.51836115
910.00  -2.10027895   0.52177680
912.00  -2.12648375   0.52520731
914.00  -2.15274436   0.52865271
916.00  -2.17906074   0.53211303
918.00  -2.20543289   0.53558829
920.00  -2.23186081   0.53907855
922.00  -2.25834447   0.54258381
924.00  -2.28488387   0.54610412
926.00  -2.31147899   0.54963951
928.00  -2.33812983   0.55319000
930.00  -2.36483637   0.55675563
932.00  -2.39159860   0.56033642
934.00  -2.41841651   0.56393242
936.00  -2.44529009   0.56754364
938.00  -2.47221933   0.57117013
940.00  -2.49920421   0.57481191
942.00  -2.52624473   0.57846901
944.00  -2.55334086   0.58214146
946.00  -2.58049261   0.58582930
948.00  -2.60769996   0.58953255
950.00  -2.63496289   0.59325125
952.00  -2.66228141   0.59698543
954.00  -2.68965548   0.60073511
956.00  -2.71708511   0.60450034
958.00  -2.74457027   0.60828113
960.00  -2.77211097   0.61207752
962.00  -2.79970718   0.61588954
964.00  -2.82735890   0.61971722
966.00  -2.85506611   0.62356060
968.00  -2.88282881   0.62741969
970.00  -2.91064697   0.63129455
972.00  -2.93852059   0.63518518
974.00  -2.96644966   0.63909163
976.00  -2.99443416   0.64301393
978.00  -3.02247408   0.64695210
980.00  -3.05056941   0.65090618
982.00  -3.07872015   0.65487620
984.00  -3.10692626   0.65886218
986.00  -3.13518775   0.66286416
988.00  -3.16350461   0.66688218
990.00  -3.19187681   0.67091625
992.00  -3.22030435   0.67496641
994.00  -3.24878722   0.67903270
996.00  -3.27732540   0.68311514
998.00  -3.30591888   0.68721376
1000.00  -3.33456765   0.69132859
1002.00  -3.36327170   0.69545966
1004.00  -3.39203101   0.69960701
1006.00  -3.42084557   0.70377067
1008.00  -3.44971538   0.70795065
1010.00  -3.47864041   0.71214701
1012.00  -3.50762066   0.71635976
1014.00  -3.53665611   0.72058893
1016.00  -3.56574675   0.72483457
1018.00  -3.59489257   0.72909669
1020.00  -3.62409356   0.73337532
1022.00  -3.65334970   0.73767051
1024.00  -3.68266098   0.74198227
1026.00  -3.71202738   0.74631065
1028.00  -3.74144891   0.75065566
1030.00  -3.77092554   0.75501734
1032.00  -3.80045726   0.75939572
1034.00  -3.83004406   0.76379083
1036.00  -3.85968592   0.76820271
1038.00  -3.88938284   0.77263137
1040.00  -3.91913479   0.77707685
1042.00  -3.94894178   0.78153919
1044.00  -3.97880378   0.78601841
1046.00  -4.00872078   0.79051454
1048.00  -4.03869277   0.79502761
1050.00  -4.06871974   0.79955766
1052.00  -4.09880168   0.80410470
1054.00  -4.12893856   0.80866878
1056.00  -4.15913039   0.81324993
1058.00  -4.18937714   0.81784817
1060.00  -4.21967880   0.82246353
1062.00  -4.25003536   0.82709604
1064.00  -4.28044681   0.83174574
1066.00  -4.31091314   0.83641266
1068.00  -4.34143432   0.84109681
1070.00  -4.37201035   0.84579825
1072.00  -4.40264122   0.85051698
1074.00  -4.43332691   0.85525306
1076.00  -4.46406741   0.86000649
1078.00  -4.49486271   0.86477732
1080.00  -4.52571279   0.86956558
1082.00  -4.55661764   0.87437129
1084.00  -4.58757725   0.87919449
1086.00  -4.61859160   0.88403520
1088.00  -4.64966068   0.88889345
1090.00  -4.68078448   0.89376929
1092.00  -4.71196298   0.89866272
1094.00  -4.74319617   0.90357379
1096.00  -4.77448405   0.90850253
1098.00  -4.80582658   0.91344896
1100.00  -4.83722377   0.91841312
1102.00  -4.86867559   0.92339503
1104.00  -4.90018204   0.92839472
1106.00  -4.93174310   0.93341223
1108.00  -4.96335876   0.93844759
1110.00  -4.99502901   0.94350082
1112.00  -5.02675382   0.94857195
1114.00  -5.05853319   0.95366102
1116.00  -5.09036711   0.95876805
1118.00  -5.12225555   0.96389308
1120.00  -5.15419852   0.96903613
1122.00  -5.18619598   0.97419723
1124.00  -5.21824794   0.97937642
1126.00  -5.25035437   0.98457372
1128.00  -5.28251527   0.98978916
1130.00  -5.31473061   0.99502277
1132.00  -5.34700040   1.00027459
1134.00  -5.37932460   1.00554464
1136.00  -5.41170321   1.01083295
1138.00  -5.44413621   1.01613955
1140.00  -5.47662360   1.02146448
1142.00  -5.50916535   1.02680775
1144.00  -5.54176146   1.03216941
1146.00  -5.57441191   1.03754947
1148.00  -5.60711668   1.04294798
1150.00  -5.63987576   1.04836495
1152.00  -5.67268914   1.05380042
1154.00  -5.70555681   1.05925443
1156.00  -5.73847875   1.06472699
1158.00  -5.77145494   1.07021813
1160.00  -5.80448537   1.07572790
1162.00  -5.83757004   1.08125631
1164.00  -5.87070891   1.08680340
1166.00  -5.90390199   1.09236920
1168.00  -5.93714926   1.09795373
1170.00  -5.97045069   1.10355702
1172.00  -6.00380629   1.10917911
1174.00  -6.03721603   1.11482003
1176.00  -6.07067990   1.12047979
1178.00  -6.10419789   1.12615844
1180.00  -6.13776997   1.13185601
1182.00  -6.17139615   1.13757251
1184.00  -6.20507640   1.14330799
1186.00  -6.23881071   1.14906246
1188.00  -6.27259906   1.15483597
1190.00  -6.30644145   1.16062853
1192.00  -6.34033785   1.16644019
1194.00  -6.37428825   1.17227096
1196.00  -6.40829264   1.17812088
1198.00  -6.44235101   1.18398997
1200.00  -6.47646333   1.18987828
1202.00  -6.51062960   1.19578581
1204.00  -6.54484980   1.20171261
1206.00  -6.57912392   1.20765871
1208.00  -6.61345194   1.21362413
1210.00  -6.64783384   1.21960890
1212.00  -6.68226962   1.22561305
1214.00  -6.71675925   1.23163661
1216.00  -6.75130273   1.23767961
1218.00  -6.78590004   1.24374208
1220.00  -6.82055117   1.24982405
1222.00  -6.85525609   1.25592555
1224.00  -6.89001480   1.26204660
1226.00  -6.92482728   1.26818724
1228.00  -6.95969351   1.27434749
1230.00  -6.99461349   1.28052739
1232.00  -7.02958720   1.28672696
1234.00  -7.06461461   1.29294623
1236.00  -7.09969573   1.29918524
1238.00  -7.13483052   1.30544400
1240.00  -7.17001899   1.31172255
1242.00  -7.20526110   1.31802092
1244.00  -7.24055686   1.32433914
1246.00  -7.27590624   1.33067723
1248.00  -7.31130922   1.33703523
1250.00  -7.34676580   1.34341316
1252.00  -7.38227596   1.34981106
1254.00  -7.41783969   1.35622894
1256.00  -7.45345696   1.36266685
1258.00  -7.48912777   1.36912481
1260.00  -7.52485209   1.37560284
1262.00  -7.56062992   1.38210099
1264.00  -7.59646124   1.38861927
1266.00  -7.63234603   1.39515771
1268.00  -7.66828429   1.40171635
1270.00  -7.70427598   1.40829522
1272.00  -7.74032111   1.41489433
1274.00  -7.77641964   1.42151372
1276.00  -7.81257158   1.42815343
1278.00  -7.84877690   1.43481347
1280.00  -7.88503559   1.44149388
1282.00  -7.92134763   1.44819468
1284.00  -7.95771301   1.45491591
1286.00  -7.99413171   1.46165759
1288.00  -8.03060372   1.46841975
1290.00  -8.06712902   1.47520242
1292.00  -8.10370759   1.48200564
1294.00  -8.14033943   1.48882941
1296.00  -8.17702452   1.49567379
1298.00  -8.21376283   1.50253879
1300.00  -8.25055436   1.50942444
1302.00  -8.28739909   1.51633078
1304.00  -8.32429701   1.52325783
1306.00  -8.36124809   1.53020561
1308.00  -8.39825233   1.53717417
1310.00  -8.43530970   1.54416352
1312.00  -8.47242020   1.55117369
1314.00  -8.50958380   1.55820472
1316.00  -8.54680050   1.56525663
1318.00  -8.58407027   1.57232945
1320.00  -8.62139311   1.57942321
1322.00  -8.65876898   1.58653793
1324.00  -8.69619789   1.59367366
1326.00  -8.73367981   1.60083040
1328.00  -8.77121473   1.60800820
1330.00  -8.80880263   1.61520708
1332.00  -8.84644350   1.62242707
1334.00  -8.88413731   1.62966820
1336.00  -8.92188407   1.63693049
1338.00  -8.95968374   1.64421398
1340.00  -8.99753631   1.65151868
1342.00  -9.03544178   1.65884464
1344.00  -9.07340011   1.66619188
1346.00  -9.11141130   1.67356043
1348.00  -9.14947533   1.68095031
1350.00  -9.18759219   1.68836156
1352.00  -9.22576185   1.69579420
1354.00  -9.26398431   1.70324826
1356.00  -9.30225954   1.71072377
1358.00  -9.34058753   1.71822075
1360.00  -9.37896827   1.72573924
1362.00  -9.41740174   1.73327927
1364.00  -9.45588792   1.74084085
1366.00  -9.49442679   1.74842403
1368.00  -9.53301835   1.75602882
1370.00  -9.57166257   1.76365526
1372.00  -9.61035944   1.77130337
1374.00  -9.64910894   1.77897318
1376.00  -9.68791106   1.78666473
1378.00  -9.72676577   1.79437803
1380.00  -9.76567308   1.80211311
1382.00  -9.80463294   1.80987002
1384.00  -9.84364536   1.81764876
1386.00  -9.88271032   1.82544937
1388.00  -9.92182779   1.83327188
1390.00  -9.96099777   1.84111632
1392.00 -10.00022023   1.84898271
1394.00 -10.03949517   1.85687108
1396.00 -10.07882255   1.86478147
1398.00 -10.11820238   1.87271389
1400.00 -10.15763462   1.88066837
1402.00 -10.19711927   1.88864495
1404.00 -10.23665631   1.89664365
1406.00 -10.27624572   1.90466450
1408.00 -10.31588749   1.91270752
1410.00 -10.35558159   1.92077275
1412.00 -10.39532802   1.92886022
1414.00 -10.43512675   1.93696994
1416.00 -10.47497777   1.94510195
1418.00 -10.51488107   1.95325628
1420.00 -10.55483662   1.96143294
1422.00 -10.59484441   1.96963198
1424.00 -10.63490443   1.97785342
1426.00 -10.67501665   1.98609729
1428.00 -10.71518106   1.99436361
1430.00 -10.75539764   2.00265241
1432.00 -10.79566638   2.01096372
1434.00 -10.83598726   2.01929757
1436.00 -10.87636026   2.02765398
1438.00 -10.91678537   2.03603299
1440.00 -10.95726257   2.04443461
1442.00 -10.99779185   2.05285888
1444.00 -11.03837317   2.06130583
1446.00 -11.07900654   2.06977548
1448.00 -11.11969193   2.07826786
1450.00 -11.16042933   2.08678299
1452.00 -11.20121871   2.09532091
1454.00 -11.24206007   2.10388165
1456.00 -11.28295338   2.11246522
1458.00 -11.32389863   2.12107166
1460.00 -11.36489580   2.12970099
1462.00 -11.40594488   2.13835325
1464.00 -11.44704584   2.14702846
1466.00 -11.48819867   2.15572664
1468.00 -11.52940336   2.16444783
1470.00 -11.57065988   2.17319205
1472.00 -11.61196822   2.18195932
1474.00 -11.65332837   2.19074969
1476.00 -11.69474030   2.19956316
1478.00 -11.73620399   2.20839978
1480.00 -11.77771944   2.21725957
1482.00 -11.81928662   2.22614255
1484.00 -11.86090552   2.23504875
1486.00 -11.90257611   2.24397820
1488.00 -11.94429839   2.25293093
1490.00 -11.98607234   2.26190697
1492.00 -12.02789793   2.27090633
1494.00 -12.06977515   2.27992905
1496.00 -12.11170399   2.28897516
1498.00 -12.15368442   2.29804468
1500.00 -12.19571643   2.30713764
1502.00 -12.23780000   2.31625407
1504.00 -12.27993511   2.32539399
1506.00 -12.32212175   2.33455743
1508.00 -12.36435990   2.34374442
1510.00 -12.40664954   2.35295499
1512.00 -12.44899066   2.36218915
1514.00 -12.49138323   2.37144695
1516.00 -12.53382724   2.38072840
1518.00 -12.57632268   2.39003353
1520.00 -12.61886952   2.39936238
1522.00 -12.66146774   2.40871496
1524.00 -12.70411734   2.41809130
1526.00 -12.74681829   2.42749144
1528.00 -12.78957057   2.43691539
1530.00 -12.83237416   2.44636318
1532.00 -12.87522906   2.45583485
1534.00 -12.91813524   2.46533042
1536.00 -12.96109268   2.47484991
1538.00 -13.00410137   2.48439335
1540.00 -13.04716129   2.49396077
1542.00 -13.09027242   2.50355219
1544.00 -13.13343474   2.51316765
1546.00 -13.17664823   2.52280716
1548.00 -13.21991289   2.53247077
1550.00 -13.26322868   2.54215848
1552.00 -13.30659560   2.55187033
1554.00 -13.35001362   2.56160635
1556.00 -13.39348272   2.57136655
1558.00 -13.43700290   2.58115098
1560.00 -13.48057413   2.59095965
1562.00 -13.52419639   2.60079260
1564.00 -13.56786966   2.61064984
1566.00 -13.61159393   2.62053141
1568.00 -13.65536918   2.63043733
1570.00 -13.69919539   2.64036763
1572.00 -13.74307255   2.65032233
1574.00 -13.78700063   2.66030146
1576.00 -13.83097962   2.67030505
1578.00 -13.87500949   2.68033313
1580.00 -13.91909024   2.69038571
1582.00 -13.96322184   2.70046284
1584.00 -14.00740428   2.71056452
1586.00 -14.05163753   2.72069080
1588.00 -14.09592159   2.73084169
1590.00 -14.14025642   2.74101722
1592.00 -14.18464201   2.75121743
1594.00 -14.22907836   2.76144232
1596.00 -14.27356542   2.77169194
1598.00 -14.31810320   2.78196631
1600.00 -14.36269166   2.79226545
1602.00 -14.40733080   2.80258940
1604.00 -14.45202059   2.81293817
1606.00 -14.49676102   2.82331179
1608.00 -14.54155206   2.83371029
1610.00 -14.58639370   2.84413370
1612.00 -14.63128592   2.85458203
1614.00 -14.67622871   2.86505533
1616.00 -14.72122203   2.87555361
1618.00 -14.76626589   2.88607690
1620.00 -14.81136025   2.89662523
1622.00 -14.85650509   2.90719861
1624.00 -14.90170041   2.91779709
1626.00 -14.94694618   2.92842068
1628.00 -14.99224238   2.93906941
1630.00 -15.03758900   2.94974331
1632.00 -15.08298602   2.96044240
1634.00 -15.12843341   2.97116671
1636.00 -15.17393116   2.98191627
1638.00 -15.21947925   2.99269109
1640.00 -15.26507767   3.00349121
1642.00 -15.31072638   3.01431665
1644.00 -15.35642538   3.02516745
1646.00 -15.40217465   3.03604361
1648.00 -15.44797417   3.04694518
1650.00 -15.49382392   3.05787217
1652.00 -15.53972387   3.06882461
1654.00 -15.58567402   3.07980253
1656.00 -15.63167434   3.09080596
1658.00 -15.67772482   3.10183491
1660.00 -15.72382543   3.11288942
1662.00 -15.76997615   3.12396951
1664.00 -15.81617698   3.13507521
1666.00 -15.86242789   3.14620654
1668.00 -15.90872885   3.15736352
1670.00 -15.95507986   3.16854619
1672.00 -16.00148089   3.17975457
1674.00 -16.04793192   3.19098869
1676.00 -16.09443294   3.20224857
1678.00 -16.14098393   3.21353423
1680.00 -16.18758486   3.22484570
1682.00 -16.23423572   3.23618301
1684.00 -16.28093649   3.24754619
1686.00 -16.32768716   3.25893525
1688.00 -16.37448769   3.27035023
1690.00 -16.42133808   3.28179115
1692.00 -16.46823830   3.29325803
1694.00 -16.51518833   3.30475091
1696.00 -16.56218816   3.31626980
1698.00 -16.60923777   3.32781473
1700.00 -16.65633713   3.33938573
1702.00 -16.70348624   3.35098282
1704.00 -16.75068506   3.36260603
1706.00 -16.79793358   3.37425538
1708.00 -16.84523178   3.38593091
1710.00 -16.89257965   3.39763262
1712.00 -16.93997716   3.40936056
1714.00 -16.98742429   3.42111474
1716.00 -17.03492103   3.43289519
1718.00 -17.08246735   3.44470194
1720.00 -17.13006324   3.45653500
1722.00 -17.17770867   3.46839442
1724.00 -17.22540363   3.48028020
1726.00 -17.27314810   3.49219238
1728.00 -17.32094206   3.50413098
1730.00 -17.36878549   3.51609603
1732.00 -17.41667837   3.52808755
1734.00 -17.46462068   3.54010557
1736.00 -17.51261240   3.55215011
1738.00 -17.56065351   3.56422120
1740.00 -17.60874400   3.57631886
1742.00 -17.65688383   3.58844311
1744.00 -17.70507301   3.60059399
1746.00 -17.75331150   3.61277152
1748.00 -17.80159928   3.62497572
1750.00 -17.84993634   3.63720662
1752.00 -17.89832265   3.64946424
1754.00 -17.94675820   3.66174861
1756.00 -17.99524297   3.67405975
1758.00 -18.04377694   3.68639768
1760.00 -18.09236008   3.69876244
1762.00 -18.14099238   3.71115405
1764.00 -18.18967382   3.72357253
1766.00 -18.23840438   3.73601791
1768.00 -18.28718404   3.74849020
1770.00 -18.33601278   3.76098945
1772.00 -18.38489058   3.77351567
1774.00 -18.43381742   3.78606888
1776.00 -18.48279328   3.79864911
1778.00 -18.53181814   3.81125639
1780.00 -18.58089199   3.82389074
1782.00 -18.63001479   3.83655219
1784.00 -18.67918654   3.84924075
1786.00 -18.72840721   3.86195647
1788.00 -18.77767678   3.87469935
1790.00 -18.82699523   3.88746942
1792.00 -18.87636255   3.90026671
1794.00 -18.92577871   3.91309125
1796.00 -18.97524370   3.92594305
1798.00 -19.02475749   3.93882215
1800.00 -19.07432006   3.95172856
1802.00 -19.12393139   3.96466232
1804.00 -19.17359147   3.97762344
1806.00 -19.22330027   3.99061195
1808.00 -19.27305778   4.00362788
1810.00 -19.32286397   4.01667124
1812.00 -19.37271882   4.02974207
1814.00 -19.42262232   4.04284039
1816.00 -19.47257444   4.05596622
1818.00 -19.52257516   4.06911959
1820.00 -19.57262447   4.08230052
1822.00 -19.62272235   4.09550904
1824.00 -19.67286876   4.10874517
1826.00 -19.72306370   4.12200893
1828.00 -19.77330715   4.13530035
1830.00 -19.82359908   4.14861945
1832.00 -19.87393947   4.16196627
1834.00 -19.92432830   4.17534081
1836.00 -19.97476556   4.18874311
1838.00 -20.02525122   4.20217319
1840.00 -20.07578526   4.21563107
1842.00 -20.12636767   4.22911679
1844.00 -20.17699842   4.24263035
1846.00 -20.22767749   4.25617180
1848.00 -20.27840486   4.26974114
1850.00 -20.32918051   4.28333841
1852.00 -20.38000443   4.29696363
1854.00 -20.43087658   4.31061682
1856.00 -20.48179696   4.32429801
1858.00 -20.53276554   4.33800722
1860.00 -20.58378229   4.35174448
1862.00 -20.63484721   4.36550981
1864.00 -20.68596027   4.37930323
1866.00 -20.73712144   4.39312477
1868.00 -20.78833071   4.40697444
1870.00 -20.83958807   4.42085229
1872.00 -20.89089348   4.43475832
1874.00 -20.94224692   4.44869257
1876.00 -20.99364839   4.46265505
1878.00 -21.04509785   4.47664580
1880.00 -21.09659528   4.49066483
1882.00 -21.14814067   4.50471217
1884.00 -21.19973400   4.51878784
1886.00 -21.25137524   4.53289187
1888.00 -21.30306438   4.54702427
1890.00 -21.35480138   4.56118508
1892.00 -21.40658624   4.57537432
1894.00 -21.45841894   4.58959201
1896.00 -21.51029944   4.60383817
1898.00 -21.56222773   4.61811284
1900.00 -21.61420380   4.63241602
1902.00 -21.66622761   4.64674775
1904.00 -21.71829916   4.66110805
1906.00 -21.77041841   4.67549694
1908.00 -21.82258535   4.68991445
1910.00 -21.87479995   4.70436060
1912.00 -21.92706221   4.71883542
1914.00 -21.97937208   4.73333892
1916.00 -22.03172956   4.74787113
1918.00 -22.08413463   4.76243207
1920.00 -22.13658726   4.77702178
1922.00 -22.18908743   4.79164026
1924.00 -22.24163512   4.80628755
1926.00 -22.29423032   4.82096367
1928.00 -22.34687299   4.83566863
1930.00 -22.39956312   4.85040248
1932.00 -22.45230069   4.86516522
1934.00 -22.50508568   4.87995688
1936.00 -22.55791806   4.89477749
1938.00 -22.61079782   4.90962706
1940.00 -22.66372493   4.92450563
1942.00 -22.71669938   4.93941321
1944.00 -22.76972114   4.95434983
1946.00 -22.82279019   4.96931551
1948.00 -22.87590651   4.98431027
1950.00 -22.92907008   4.99933415
1952.00 -22.98228088   5.01438715
1954.00 -23.03553889   5.02946930
1956.00 -23.08884408   5.04458064
1958.00 -23.14219644   5.05972117
1960.00 -23.19559595   5.07489093
1962.00 -23.24904257   5.09008993
1964.00 -23.30253630   5.10531820
1966.00 -23.35607711   5.12057577
1968.00 -23.40966498   5.13586265
1970.00 -23.46329989   5.15117886
1972.00 -23.51698182   5.16652444
1974.00 -23.57071074   5.18189941
1976.00 -23.62448664   5.19730378
1978.00 -23.67830949   5.21273758
1980.00 -23.73217928   5.22820083
1982.00 -23.78609598   5.24369356
1984.00 -23.84005956   5.25921579
1986.00 -23.89407002   5.27476754
1988.00 -23.94812733   5.29034884
1990.00 -24.00223146   5.30595970
1992.00 -24.05638240   5.32160015
1994.00 -24.11058012   5.33727022
1996.00 -24.16482460   5.35296992
1998.00 -24.21911583   5.36869928
2000.00 -24.27345377   5.38445832
2002.00 -24.32783842   5.40024707
2004.00 -24.38226974   5.41606554
2006.00 -24.43674772   5.43191376
2008.00 -24.49127233   5.44779175
2010.00 -24.54584356   5.46369954
2012.00 -24.60046137   5.47963714
2014.00 -24.65512576   5.49560459
2016.00 -24.70983670   5.51160189
2018.00 -24.76459416   5.52762908
2020.00 -24.81939813   5.54368618
2022.00 -24.87424859   5.55977321
2024.00 -24.92914550   5.57589019
2026.00 -24.98408886   5.59203714
2028.00 -25.03907864   5.60821409
2030.00 -25.09411482   5.62442106
2032.00 -25.14919737   5.64065808
2034.00 -25.20432628   5.65692516
2036.00 -25.25950152   5.67322232
2038.00 -25.31472307   5.68954960
2040.00 -25.36999092   5.70590700
2042.00 -25.42530503   5.72229456
2044.00 -25.48066539   5.73871230
2046.00 -25.53607197   5.75516023
2048.00 -25.59152476   5.77163838
2050.00 -25.64702373   5.78814678
2052.00 -25.70256887   5.80468545
2054.00 -25.75816014   5.82125440
2056.00 -25.81379752   5.83785366
2058.00 -25.86948100   5.85448325
2060.00 -25.92521056   5.87114319
2062.00 -25.98098617   5.88783351
2064.00 -26.03680780   5.90455423
2066.00 -26.09267545   5.92130537
2068.00 -26.14858908   5.93808695
2070.00 -26.20454867   5.95489900
2072.00 -26.26055421   5.97174153
2074.00 -26.31660567   5.98861457
2076.00 -26.37270303   6.00551815
2078.00 -26.42884626   6.02245227
2080.00 -26.48503535   6.03941697
2082.00 -26.54127028   6.05641226
2084.00 -26.59755101   6.07343817
2086.00 -26.65387754   6.09049473
2088.00 -26.71024983   6.10758194
2090.00 -26.76666787   6.12469984
2092.00 -26.82313163   6.14184844
2094.00 -26.87964109   6.15902777
2096.00 -26.93619623   6.17623785
2098.00 -26.99279703   6.19347871
2100.00 -27.04944347   6.21075035
2102.00 -27.10613552   6.22805281
2104.00 -27.16287316   6.24538610
2106.00 -27.21965637   6.26275026
2108.00 -27.27648512   6.28014529
2110.00 -27.33335941   6.29757122
2112.00 -27.39027919   6.31502808
2114.00 -27.44724446   6.33251588
2116.00 -27.50425519   6.35003465
2118.00 -27.56131135   6.36758440
2120.00 -27.61841293   6.38516517
2122.00 -27.67555990   6.40277696
2124.00 -27.73275225   6.42041981
2126.00 -27.78998994   6.43809373
2128.00 -27.84727295   6.45579875
2130.00 -27.90460127   6.47353488
2132.00 -27.96197487   6.49130215
2134.00 -28.01939374   6.50910059
2136.00 -28.07685784   6.52693020
2138.00 -28.13436715   6.54479102
2140.00 -28.19192166   6.56268306
2142.00 -28.24952134   6.58060634
2144.00 -28.30716616   6.59856089
2146.00 -28.36485611   6.61654673
2148.00 -28.42259117   6.63456388
2150.00 -28.48037131   6.65261236
2152.00 -28.53819650   6.67069219
2154.00 -28.59606673   6.68880339
2156.00 -28.65398198   6.70694599
2158.00 -28.71194222   6.72512000
2160.00 -28.76994743   6.74332545
2162.00 -28.82799758   6.76156236
2164.00 -28.88609266   6.77983075
2166.00 -28.94423264   6.79813063
2168.00 -29.00241751   6.81646204
2170.00 -29.06064723   6.83482499
2172.00 -29.11892178   6.85321950
2174.00 -29.17724115   6.87164560
2176.00 -29.23560531   6.89010330
2178.00 -29.29401423   6.90859263
2180.00 -29.35246790   6.92711361
2182.00 -29.41096629   6.94566625
2184.00 -29.46950938   6.96425058
2186.00 -29.52809715   6.98286663
2188.00 -29.58672958   7.00151440
2190.00 -29.64540664   7.02019393
2192.00 -29.70412830   7.03890523
2194.00 -29.76289456   7.05764832
2196.00 -29.82170537   7.07642323
2198.00 -29.88056074   7.09522997
2200.00 -29.93946061   7.11406857
2202.00 -29.99840499   7.13293904
2204.00 -30.05739384   7.15184141
2206.00 -30.11642714   7.17077570
2208.00 -30.17550487   7.18974193
2210.00 -30.23462701   7.20874012
2212.00 -30.29379353   7.22777029
2214.00 -30.35300441   7.24683246
2216.00 -30.41225963   7.26592665
2218.00 -30.47155917   7.28505288
2220.00 -30.53090299   7.30421118
2222.00 -30.59029109   7.32340156
2224.00 -30.64972343   7.34262404
2226.00 -30.70920000   7.36187865
2228.00 -30.76872077   7.38116540
2230.00 -30.82828571   7.40048432
2232.00 -30.88789482   7.41983542
2234.00 -30.94754805   7.43921873
2236.00 -31.00724540   7.45863427
2238.00 -31.06698683   7.47808205
2240.00 -31.12677233   7.49756210
2242.00 -31.18660187   7.51707444
2244.00 -31.24647543   7.53661909
2246.00 -31.30639299   7.55619606
2248.00 -31.36635451   7.57580539
2250.00 -31.42635999   7.59544708
2252.00 -31.48640939   7.61512116
2254.00 -31.54650270   7.63482765
2256.00 -31.60663989   7.65456658
2258.00 -31.66682094   7.67433795
2260.00 -31.72704583   7.69414179
2262.00 -31.78731452   7.71397812
2264.00 -31.84762701   7.73384697
2266.00 -31.90798326   7.75374834
2268.00 -31.96838325   7.77368226
2270.00 -32.02882697   7.79364876
2272.00 -32.08931438   7.81364784
2274.00 -32.14984547   7.83367954
2276.00 -32.21042021   7.85374387
2278.00 -32.27103857   7.87384085
2280.00 -32.33170054   7.89397050
2282.00 -32.39240610   7.91413284
2284.00 -32.45315521   7.93432789
2286.00 -32.51394786   7.95455567
2288.00 -32.57478402   7.97481621
2290.00 -32.63566367   7.99510951
2292.00 -32.69658678   8.01543561
2294.00 -32.75755334   8.03579451
2296.00 -32.81856332   8.05618625
2298.00 -32.87961670   8.07661083
2300.00 -32.94071345   8.09706829
2302.00 -33.00185355   8.11755863
2304.00 -33.06303698   8.13808188
2306.00 -33.12426371   8.15863807
2308.00 -33.18553373   8.17922720
2310.00 -33.24684700   8.19984930
2312.00 -33.30820350   8.22050439
2314.00 -33.36960322   8.24119248
2316.00 -33.43104612   8.26191360
2318.00 -33.49253219   8.28266777
2320.00 -33.55406140   8.30345501
2322.00 -33.61563373   8.32427533
2324.00 -33.67724915   8.34512876
2326.00 -33.73890765   8.36601531
2328.00 -33.80060919   8.38693501
2330.00 -33.86235376   8.40788787
2332.00 -33.92414133   8.42887392
2334.00 -33.98597187   8.44989316
2336.00 -34.04784537   8.47094564
2338.00 -34.10976180   8.49203135
2340.00 -34.17172114   8.51315032
2342.00 -34.23372337   8.53430258
2344.00 -34.29576845   8.55548813
2346.00 -34.35785638   8.57670700
2348.00 -34.41998711   8.59795922
2350.00 -34.48216064   8.61924479
2352.00 -34.54437694   8.64056373
2354.00 -34.60663598   8.66191608
2356.00 -34.66893774   8.68330184
2358.00 -34.73128219   8.70472103
2360.00 -34.79366932   8.72617368
2362.00 -34.85609910   8.74765980
2364.00 -34.91857151   8.76917941
2366.00 -34.98108651   8.79073254
2368.00 -35.04364410   8.81231919
2370.00 -35.10624424   8.83393940
2372.00 -35.16888692   8.85559317
2374.00 -35.23157210   8.87728053
2376.00 -35.29429977   8.89900150
2378.00 -35.35706990   8.92075610
2380.00 -35.41988247   8.94254433
2382.00 -35.48273745   8.96436624
2384.00 -35.54563483   8.98622182
2386.00 -35.60857457   9.00811111
2388.00 -35.67155665   9.03003411
2390.00 -35.73458105   9.05199086
2392.00 -35.79764775   9.07398136
2394.00 -35.86075672   9.09600564
2396.00 -35.92390794   9.11806372
2398.00 -35.98710139   9.14015561
2400.00 -36.05033703   9.16228134
2402.00 -36.11361486   9.18444091
2404.00 -36.17693484   9.20663436
2406.00 -36.24029694   9.22886170
2408.00 -36.30370116   9.25112294
2410.00 -36.36714746   9.27341811
2412.00 -36.43063581   9.29574723
2414.00 -36.49416620   9.31811031
2416.00 -36.55773861   9.34050738
2418.00 -36.62135300   9.36293845
2420.00 -36.68500935   9.38540353
2422.00 -36.74870765   9.40790266
2424.00 -36.81244786   9.43043584
2426.00 -36.87622996   9.45300310
2428.00 -36.94005393   9.47560445
2430.00 -37.00391975   9.49823991
2432.00 -37.06782738   9.52090951
2434.00 -37.13177682   9.54361325
2436.00 -37.19576803   9.56635116
2438.00 -37.25980098   9.58912326
2440.00 -37.32387567   9.61192957
2442.00 -37.38799205   9.63477009
2444.00 -37.45215011   9.65764486
2446.00 -37.51634983   9.68055389
2448.00 -37.58059117   9.70349719
2450.00 -37.64487412   9.72647479
2452.00 -37.70919866   9.74948671
2454.00 -37.77356475   9.77253296
2456.00 -37.83797237   9.79561356
2458.00 -37.90242151   9.81872852
2460.00 -37.96691213   9.84187788
2462.00 -38.03144421   9.86506164
2464.00 -38.09601773   9.88827982
2466.00 -38.16063267   9.91153245
2468.00 -38.22528899   9.93481953
2470.00 -38.28998668   9.95814109
2472.00 -38.35472572   9.98149715
2474.00 -38.41950607  10.00488772
2476.00 -38.48432771  10.02831283
2478.00 -38.54919063  10.05177248
2480.00 -38.61409479  10.07526670
2482.00 -38.67904017  10.09879551
2484.00 -38.74402675  10.12235892
2486.00 -38.80905451  10.14595695
2488.00 -38.87412341  10.16958962
2490.00 -38.93923344  10.19325695
2492.00 -39.00438457  10.21695895
2494.00 -39.06957678  10.24069565
2496.00 -39.13481004  10.26446705
2498.00 -39.20008433  10.28827319
2500.00 -39.26539962  10.31211407
2502.00 -39.33075590  10.33598972
2504.00 -39.39615313  10.35990014
2506.00 -39.46159129  10.38384537
2508.00 -39.52707036  10.40782541
2510.00 -39.59259032  10.43184029
2512.00 -39.65815113  10.45589002
2514.00 -39.72375278  10.47997462
2516.00 -39.78939525  10.50409410
2518.00 -39.85507849  10.52824849
2520.00 -39.92080251  10.55243781
2522.00 -39.98656725  10.57666206
2524.00 -40.05237272  10.60092127
2526.00 -40.11821887  10.62521546
2528.00 -40.18410569  10.64954464
2530.00 -40.25003315  10.67390883
2532.00 -40.31600123  10.69830805
2534.00 -40.38200990  10.72274231
2536.00 -40.44805914  10.74721163
2538.00 -40.51414892  10.77171604
2540.00 -40.58027922  10.79625554
2542.00 -40.64645002  10.82083015
2544.00 -40.71266129  10.84543990
2546.00 -40.77891301  10.87008479
2548.00 -40.84520515  10.89476485
2550.00 -40.91153768  10.91948010
2552.00 -40.97791060  10.94423054
2554.00 -41.04432386  10.96901620
2556.00 -41.11077744  10.99383710
2558.00 -41.17727133  11.01869325
2560.00 -41.24380549  11.04358467
2562.00 -41.31037990  11.06851137
2564.00 -41.37699454  11.09347338
2566.00 -41.44364939  11.11847071
2568.00 -41.51034441  11.14350338
2570.00 -41.57707959  11.16857140
2572.00 -41.64385489  11.19367479
2574.00 -41.71067030  11.21881357
2576.00 -41.77752579  11.24398776
2578.00 -41.84442134  11.26919737
2580.00 -41.91135692  11.29444241
2582.00 -41.97833251  11.31972292
2584.00 -42.04534808  11.34503890
2586.00 -42.11240361  11.37039036
2588.00 -42.17949907  11.39577734
2590.00 -42.24663444  11.42119984
2592.00 -42.31380969  11.44665788
2594.00 -42.38102481  11.47215147
2596.00 -42.44827976  11.49768064
2598.00 -42.51557452  11.52324541
2600.00 -42.58290907  11.54884577
2602.00 -42.65028338  11.57448177
2604.00 -42.71769743  11.60015340
2606.00 -42.78515119  11.62586069
2608.00 -42.85264464  11.65160366
2610.00 -42.92017775  11.67738232
2612.00 -42.98775050  11.70319668
2614.00 -43.05536286  11.72904677
2616.00 -43.12301482  11.75493260
2618.00 -43.19070634  11.78085419
2620.00 -43.25843740  11.80681155
2622.00 -43.32620797  11.83280470
2624.00 -43.39401804  11.85883366
2626.00 -43.46186757  11.88489844
2628.00 -43.52975655  11.91099905
2630.00 -43.59768494  11.93713553
2632.00 -43.66565273  11.96330788
2634.00 -43.73365988  11.98951612
2636.00 -43.80170637  12.01576026
2638.00 -43.86979219  12.04204032
2640.00 -43.93791730  12.06835632
2642.00 -44.00608167  12.09470828
2644.00 -44.07428529  12.12109620
2646.00 -44.14252813  12.14752011
2648.00 -44.21081017  12.17398003
2650.00 -44.27913137  12.20047596
2652.00 -44.34749172  12.22700793
2654.00 -44.41589119  12.25357595
2656.00 -44.48432976  12.28018004
2658.00 -44.55280739  12.30682021
2660.00 -44.62132408  12.33349648
2662.00 -44.68987978  12.36020886
2664.00 -44.75847448  12.38695738
2666.00 -44.82710816  12.41374205
2668.00 -44.89578078  12.44056288
2670.00 -44.96449232  12.46741989
2672.00 -45.03324276  12.49431309
2674.00 -45.10203207  12.52124251
2676.00 -45.17086023  12.54820815
2678.00 -45.23972721  12.57521004
2680.00 -45.30863299  12.60224819
2682.00 -45.37757754  12.62932261
2684.00 -45.44656084  12.65643333
2686.00 -45.51558287  12.68358035
2688.00 -45.58464359  12.71076369
2690.00 -45.65374299  12.73798338
2692.00 -45.72288103  12.76523942
2694.00 -45.79205770  12.79253182
2696.00 -45.86127297  12.81986062
2698.00 -45.93052681  12.84722581
2700.00 -45.99981920  12.87462743
2702.00 -46.06915012  12.90206547
2704.00 -46.13851953  12.92953997
2706.00 -46.20792742  12.95705093
2708.00 -46.27737376  12.98459837
2710.00 -46.34685852  13.01218230
2712.00 -46.41638168  13.03980275
2714.00 -46.48594322  13.06745972
2716.00 -46.55554310  13.09515323
2718.00 -46.62518131  13.12288331
2720.00 -46.69485782  13.15064995
2722.00 -46.76457261  13.17845318
2724.00 -46.83432564  13.20629302
2726.00 -46.90411690  13.23416948
2728.00 -46.97394636  13.26208257
2730.00 -47.04381399  13.29003231
2732.00 -47.11371977  13.31801872
2734.00 -47.18366367  13.34604181
2736.00 -47.25364568  13.37410159
2738.00 -47.32366576  13.40219809
2740.00 -47.39372389  13.43033131
2742.00 -47.46382004  13.45850127
2744.00 -47.53395419  13.48670800
2746.00 -47.60412632  13.51495149
2748.00 -47.67433640  13.54323177
2750.00 -47.74458440  13.57154886
2752.00 -47.81487029  13.59990276
2754.00 -47.88519407  13.62829350
2756.00 -47.95555569  13.65672108
2758.00 -48.02595513  13.68518553
2760.00 -48.09639238  13.71368685
2762.00 -48.16686739  13.74222507
2764.00 -48.23738016  13.77080020
2766.00 -48.30793064  13.79941225
2768.00 -48.37851883  13.82806124
2770.00 -48.44914469  13.85674718
2772.00 -48.51980820  13.88547009
2774.00 -48.59050932  13.91422998
2776.00 -48.66124805  13.94302688
2778.00 -48.73202435  13.97186078
2780.00 -48.80283820  14.00073171
2782.00 -48.87368956  14.02963969
2784.00 -48.94457843  14.05858472
2786.00 -49.01550476  14.08756682
2788.00 -49.08646855  14.11658602
2790.00 -49.15746975  14.14564231
2792.00 -49.22850835  14.17473572
2794.00 -49.29958432  14.20386626
2796.00 -49.37069764  14.23303395
2798.00 -49.44184827  14.26223880
2800.00 -49.51303620  14.29148082
2802.00 -49.58426140  14.32076003
2804.00 -49.65552385  14.35007645
2806.00 -49.72682351  14.37943009
2808.00 -49.79816037  14.40882096
2810.00 -49.86953440  14.43824908
2812.00 -49.94094557  14.46771446
2814.00 -50.01239386  14.49721711
2816.00 -50.08387925  14.52675706
2818.00 -50.15540170  14.55633432
2820.00 -50.22696119  14.58594890
2822.00 -50.29855770  14.61560081
2824.00 -50.37019120  14.64529007
2826.00 -50.44186167  14.67501669
2828.00 -50.51356908  14.70478070
2830.00 -50.58531341  14.73458209
2832.00 -50.65709463  14.76442089
2834.00 -50.72891271  14.79429712
2836.00 -50.80076763  14.82421077
2838.00 -50.87265937  14.85416188
2840.00 -50.94458790  14.88415045
2842.00 -51.01655319  14.91417650
2844.00 -51.08855522  14.94424005
2846.00 -51.16059396  14.97434110
2848.00 -51.23266939  15.00447966
2850.00 -51.30478148  15.03465577
2852.00 -51.37693022  15.06486942
2854.00 -51.44911556  15.09512064
2856.00 -51.52133749  15.12540943
2858.00 -51.59359598  15.15573581
2860.00 -51.66589101  15.18609980
2862.00 -51.73822254  15.21650141
2864.00 -51.81059056  15.24694065
2866.00 -51.88299505  15.27741753
2868.00 -51.95543596  15.30793208
2870.00 -52.02791329  15.33848431
2872.00 -52.10042699  15.36907422
2874.00 -52.17297706  15.39970183
2876.00 -52.24556346  15.43036716
2878.00 -52.31818616  15.46107022
2880.00 -52.39084515  15.49181103
2882.00 -52.46354039  15.52258959
2884.00 -52.53627187  15.55340593
2886.00 -52.60903955  15.58426005
2888.00 -52.68184341  15.61515197
2890.00 -52.75468342  15.64608170
2892.00 -52.82755956  15.67704926
2894.00 -52.90047181  15.70805466
2896.00 -52.97342013  15.73909791
2898.00 -53.04640451  15.77017903
2900.00 -53.11942491  15.80129803
2902.00 -53.19248132  15.83245493
2904.00 -53.26557370  15.86364973
2906.00 -53.33870203  15.89488246
2908.00 -53.41186629  15.92615312
2910.00 -53.48506644  15.95746173
2912.00 -53.55830248  15.98880831
2914.00 -53.63157435  16.02019286
2916.00 -53.70488206  16.05161539
2918.00 -53.77822556  16.08307593
2920.00 -53.85160483  16.11457449
2922.00 -53.92501985  16.14611108
2924.00 -53.99847058  16.17768571
2926.00 -54.07195702  16.20929839
2928.00 -54.14547912  16.24094915
2930.00 -54.21903687  16.27263799
2932.00 -54.29263024  16.30436492
2934.00 -54.36625920  16.33612996
2936.00 -54.43992373  16.36793313
2938.00 -54.51362379  16.39977443
2940.00 -54.58735938  16.43165388
2942.00 -54.66113046  16.46357149
2944.00 -54.73493700  16.49552728
2946.00 -54.80877898  16.52752126
2948.00 -54.88265638  16.55955343
2950.00 -54.95656916  16.59162383
2952.00 -55.03051731  16.62373245
2954.00 -55.10450079  16.65587931
2956.00 -55.17851959  16.68806442
2958.00 -55.25257367  16.72028780
2960.00 -55.32666302  16.75254946
2962.00 -55.40078759  16.78484942
2964.00 -55.47494738  16.81718768
2966.00 -55.54914235  16.84956426
2968.00 -55.62337248  16.88197917
2970.00 -55.69763774  16.91443242
2972.00 -55.77193811  16.94692403
2974.00 -55.84627356  16.97945401
2976.00 -55.92064406  17.01202238
2978.00 -55.99504960  17.04462914
2980.00 -56.06949013  17.07727430
2982.00 -56.14396565  17.10995789
2984.00 -56.21847612  17.14267992
2986.00 -56.29302152  17.17544039
2988.00 -56.36760182  17.20823932
2990.00 -56.44221699  17.24107672
2992.00 -56.51686701  17.27395261
2994.00 -56.59155186  17.30686699
2996.00 -56.66627151  17.33981988
2998.00 -56.74102593  17.37281130
3000.00 -56.81581510  17.40584125
3002.00 -56.89063899  17.43890975
3004.00 -56.96549757  17.47201681
3006.00 -57.04039083  17.50516244
3008.00 -57.11531873  17.53834666
3010.00 -57.19028125  17.57156947
3012.00 -57.26527836  17.60483090
3014.00 -57.34031004  17.63813095
3016.00 -57.41537626  17.67146963
3018.00 -57.49047700  17.70484696
3020.00 -57.56561222  17.73826295
3022.00 -57.64078192  17.77171761
3024.00 -57.71598605  17.80521096
3026.00 -57.79122459  17.83874300
3028.00 -57.86649752  17.87231375
3030.00 -57.94180482  17.90592322
3032.00 -58.01714644  17.93957143
3034.00 -58.09252238  17.97325838
3036.00 -58.16793261  18.00698409
3038.00 -58.24337709  18.04074857
3040.00 -58.31885580  18.07455184
3042.00 -58.39436872  18.10839389
3044.00 -58.46991583  18.14227476
3046.00 -58.54549709  18.17619444
3048.00 -58.62111247  18.21015295
3050.00 -58.69676197  18.24415031
3052.00 -58.77244554  18.27818652
3054.00 -58.84816316  18.31226159
3056.00 -58.92391481  18.34637555
3058.00 -58.99970046  18.38052840
3060.00 -59.07552008  18.41472014
3062.00 -59.15137366  18.44895081
3064.00 -59.22726115  18.48322040
3066.00 -59.30318255  18.51752893
3068.00 -59.37913782  18.55187641
3070.00 -59.45512693  18.58626285
3072.00 -59.53114986  18.62068826
3074.00 -59.60720659  18.65515266
3076.00 -59.68329709  18.68965606
3078.00 -59.75942133  18.72419847
3080.00 -59.83557928  18.75877990
3082.00 -59.91177093  18.79340036
3084.00 -59.98799624  18.82805987
3086.00 -60.06425519  18.86275843
3088.00 -60.14054776  18.89749606
3090.00 -60.21687391  18.93227277
3092.00 -60.29323363  18.96708857
3094.00 -60.36962688  19.00194347
3096.00 -60.44605364  19.03683749
3098.00 -60.52251389  19.07177063
3100.00 -60.59900759  19.10674291
3102.00 -60.67553473  19.14175434
3104.00 -60.75209527  19.17680493
3106.00 -60.82868920  19.21189470
3108.00 -60.90531648  19.24702364
3110.00 -60.98197708  19.28219178
3112.00 -61.05867100  19.31739913
3114.00 -61.13539819  19.35264569
3116.00 -61.21215863  19.38793149
3118.00 -61.28895230  19.42325652
3120.00 -61.36577916  19.45862081
3122.00 -61.44263920  19.49402435
3124.00 -61.51953239  19.52946718
3126.00 -61.59645871  19.56494928
3128.00 -61.67341811  19.60047069
3130.00 -61.75041059  19.63603140
3132.00 -61.82743611  19.67163143
3134.00 -61.90449466  19.70727080
3136.00 -61.98158619  19.74294950
3138.00 -62.05871069  19.77866756
3140.00 -62.13586813  19.81442498
3142.00 -62.21305849  19.85022178
3144.00 -62.29028174  19.88605796
3146.00 -62.36753785  19.92193354
3148.00 -62.44482679  19.95784852
3150.00 -62.52214855  19.99380293
3152.00 -62.59950309  20.02979677
3154.00 -62.67689040  20.06583005
3156.00 -62.75431043  20.10190278
3158.00 -62.83176318  20.13801497
3160.00 -62.90924861  20.17416664
3162.00 -62.98676669  20.21035779
3164.00 -63.06431740  20.24658844
3166.00 -63.14190072  20.28285859
3168.00 -63.21951661  20.31916827
3170.00 -63.29716506  20.35551747
3172.00 -63.37484603  20.39190621
3174.00 -63.45255950  20.42833450
3176.00 -63.53030545  20.46480235
3178.00 -63.60808384  20.50130977
3180.00 -63.68589466  20.53785678
3182.00 -63.76373788  20.57444337
3184.00 -63.84161346  20.61106957
3186.00 -63.91952139  20.64773539
3188.00 -63.99746164  20.68444083
3190.00 -64.07543418  20.72118591
3192.00 -64.15343899  20.75797063
3194.00 -64.23147604  20.79479501
3196.00 -64.30954530  20.83165905
3198.00 -64.38764675  20.86856277
3200.00 -64.46578037  20.90550619
3202.00 -64.54394612  20.94248930
3204.00 -64.62214398  20.97951212
3206.00 -64.70037393  21.01657465
3208.00 -64.77863594  21.05367692
3210.00 -64.85692998  21.09081893
3212.00 -64.93525602  21.12800069
3214.00 -65.01361405  21.16522222
3216.00 -65.09200403  21.20248351
3218.00 -65.17042594  21.23978459
3220.00 -65.24887976  21.27712545
3222.00 -65.32736545  21.31450612
3224.00 -65.40588300  21.35192661
3226.00 -65.48443236  21.38938691
3228.00 -65.56301353  21.42688705
3230.00 -65.64162647  21.46442704
3232.00 -65.72027116  21.50200688
3234.00 -65.79894757  21.53962658
3236.00 -65.87765567  21.57728615
3238.00 -65.95639545  21.61498561
3240.00 -66.03516686  21.65272496
3242.00 -66.11396990  21.69050422
3244.00 -66.19280452  21.72832339
3246.00 -66.27167071  21.76618249
3248.00 -66.35056844  21.80408152
3250.00 -66.42949769  21.84202050
3252.00 -66.50845842  21.87999943
3254.00 -66.58745061  21.91801833
3256.00 -66.66647424  21.95607719
3258.00 -66.74552927  21.99417605
3260.00 -66.82461569  22.03231490
3262.00 -66.90373347  22.07049375
3264.00 -66.98288257  22.10871262
3266.00 -67.06206299  22.14697151
3268.00 -67.14127468  22.18527043
3270.00 -67.22051762  22.22360940
3272.00 -67.29979179  22.26198842
3274.00 -67.37909717  22.30040750
3276.00 -67.45843371  22.33886666
3278.00 -67.53780141  22.37736590
3280.00 -67.61720023  22.41590523
3282.00 -67.69663015  22.45448466
3284.00 -67.77609113  22.49310421
3286.00 -67.85558317  22.53176387
3288.00 -67.93510622  22.57046367
3290.00 -68.01466026  22.60920361
3292.00 -68.09424527  22.64798369
3294.00 -68.17386122  22.68680394
3296.00 -68.25350809  22.72566435
3298.00 -68.33318585  22.76456495
3300.00 -68.41289446  22.80350573
3302.00 -68.49263392  22.84248671
3304.00 -68.57240418  22.88150790
3306.00 -68.65220523  22.92056930
3308.00 -68.73203704  22.95967093
3310.00 -68.81189958  22.99881280
3312.00 -68.89179283  23.03799491
3314.00 -68.97171676  23.07721727
3316.00 -69.05167134  23.11647990
3318.00 -69.13165655  23.15578280
3320.00 -69.21167236  23.19512598
3322.00 -69.29171875  23.23450945
3324.00 -69.37179569  23.27393323
3326.00 -69.45190316  23.31339731
3328.00 -69.53204112  23.35290171
3330.00 -69.61220955  23.39244644
3332.00 -69.69240843  23.43203151
3334.00 -69.77263773  23.47165693
3336.00 -69.85289743  23.51132270
3338.00 -69.93318749  23.55102883
3340.00 -70.01350789  23.59077534
3342.00 -70.09385861  23.63056223
3344.00 -70.17423962  23.67038952
3346.00 -70.25465089  23.71025720
3348.00 -70.33509240  23.75016530
3350.00 -70.41556413  23.79011381
3352.00 -70.49606604  23.83010275
3354.00 -70.57659810  23.87013213
3356.00 -70.65716030  23.91020196
3358.00 -70.73775261  23.95031224
3360.00 -70.81837500  23.99046298
3362.00 -70.89902745  24.03065420
3364.00 -70.97970992  24.07088590
3366.00 -71.06042240  24.11115809
3368.00 -71.14116486  24.15147078
3370.00 -71.22193726  24.19182397
3372.00 -71.30273959  24.23221769
3374.00 -71.38357182  24.27265192
3376.00 -71.46443393  24.31312670
3378.00 -71.54532588  24.35364201
3380.00 -71.62624765  24.39419788
3382.00 -71.70719921  24.43479431
3384.00 -71.78818055  24.47543130
3386.00 -71.86919162  24.51610888
3388.00 -71.95023242  24.55682704
3390.00 -72.03130290  24.59758579
3392.00 -72.11240305  24.63838515
3394.00 -72.19353284  24.67922512
3396.00 -72.27469224  24.72010571
3398.00 -72.35588122  24.76102693
3400.00 -72.43709977  24.80198879
3402.00 -72.51834785  24.84299130
3404.00 -72.59962544  24.88403445
3406.00 -72.68093251  24.92511827
3408.00 -72.76226904  24.96624277
3410.00 -72.84363500  25.00740794
3412.00 -72.92503036  25.04861380
3414.00 -73.00645510  25.08986036
3416.00 -73.08790919  25.13114762
3418.00 -73.16939260  25.17247559
3420.00 -73.25090532  25.21384429
3422.00 -73.33244731  25.25525372
3424.00 -73.41401855  25.29670388
3426.00 -73.49561901  25.33819479
3428.00 -73.57724866  25.37972645
3430.00 -73.65890748  25.42129888
3432.00 -73.74059545  25.46291208
3434.00 -73.82231254  25.50456606
3436.00 -73.90405871  25.54626082
3438.00 -73.98583395  25.58799638
3440.00 -74.06763823  25.62977274
3442.00 -74.14947153  25.67158992
3444.00 -74.23133381  25.71344791
3446.00 -74.31322505  25.75534673
3448.00 -74.39514523  25.79728639
3450.00 -74.47709431  25.83926689
3452.00 -74.55907228  25.88128824
3454.00 -74.64107911  25.92335045
3456.00 -74.72311476  25.96545353
3458.00 -74.80517923  26.00759748
3460.00 -74.88727247  26.04978232
3462.00 -74.96939446  26.09200805
3464.00 -75.05154518  26.13427467
3466.00 -75.13372460  26.17658221
3468.00 -75.21593269  26.21893066
3470.00 -75.29816943  26.26132003
3472.00 -75.38043480  26.30375033
3474.00 -75.46272876  26.34622157
3476.00 -75.54505129  26.38873375
3478.00 -75.62740237  26.43128689
3480.00 -75.70978196  26.47388099
3482.00 -75.79219005  26.51651606
3484.00 -75.87462660  26.55919210
3486.00 -75.95709159  26.60190913
3488.00 -76.03958500  26.64466715
3490.00 -76.12210679  26.68746617
3492.00 -76.20465695  26.73030620
3494.00 -76.28723544  26.77318724
3496.00 -76.36984225  26.81610931
3498.00 -76.45247733  26.85907240
3500.00 -76.53514068  26.90207653
3502.00 -76.61783225  26.94512171
3504.00 -76.70055203  26.98820794
3506.00 -76.78329999  27.03133522
3508.00 -76.86607611  27.07450358
3510.00 -76.94888035  27.11771301
3512.00 -77.03171270  27.16096352
3514.00 -77.11457312  27.20425512
3516.00 -77.19746159  27.24758781
3518.00 -77.28037808  27.29096161
3520.00 -77.36332257  27.33437652
3522.00 -77.44629503  27.37783255
3524.00 -77.52929544  27.42132971
3526.00 -77.61232377  27.46486800
3528.00 -77.69537999  27.50844743
3530.00 -77.77846408  27.55206800
3532.00 -77.86157601  27.59572973
3534.00 -77.94471575  27.63943262
3536.00 -78.02788328  27.68317669
3538.00 -78.11107858  27.72696192
3540.00 -78.19430162  27.77078834
3542.00 -78.27755236  27.81465596
3544.00 -78.36083079  27.85856476
3546.00 -78.44413688  27.90251478
3548.00 -78.52747061  27.94650600
3550.00 -78.61083194  27.99053844
3552.00 -78.69422085  28.03461211
3554.00 -78.77763732  28.07872701
3556.00 -78.86108132  28.12288315
3558.00 -78.94455282  28.16708054
3560.00 -79.02805179  28.21131918
3562.00 -79.11157822  28.25559908
3564.00 -79.19513208  28.29992025
3566.00 -79.27871333  28.34428269
3568.00 -79.36232195  28.38868641
3570.00 -79.44595793  28.43313142
3572.00 -79.52962122  28.47761773
3574.00 -79.61331181  28.52214533
3576.00 -79.69702967  28.56671424
3578.00 -79.78077477  28.61132447
3580.00 -79.86454709  28.65597602
3582.00 -79.94834660  28.70066890
3584.00 -80.03217328  28.74540311
3586.00 -80.11602710  28.79017867
3588.00 -80.19990802  28.83499557
3590.00 -80.28381604  28.87985383
3592.00 -80.36775112  28.92475345
3594.00 -80.45171323  28.96969443
3596.00 -80.53570235  29.01467679
3598.00 -80.61971846  29.05970054
3600.00 -80.70376152  29.10476567
3602.00 -80.78783152  29.14987219
3604.00 -80.87192841  29.19502012
3606.00 -80.95605219  29.24020945
3608.00 -81.04020283  29.28544020
3610.00 -81.12438029  29.33071236
3612.00 -81.20858455  29.37602595
3614.00 -81.29281559  29.42138098
3616.00 -81.37707338  29.46677745
3618.00 -81.46135789  29.51221536
3620.00 -81.54566910  29.55769472
3622.00 -81.63000698  29.60321554
3624.00 -81.71437150  29.64877783
3626.00 -81.79876265  29.69438158
3628.00 -81.88318039  29.74002682
3630.00 -81.96762470  29.78571353
3632.00 -82.05209555  29.83144174
3634.00 -82.13659292  29.87721144
3636.00 -82.22111678  29.92302265
3638.00 -82.30566710  29.96887536
3640.00 -82.39024386  30.01476959
3642.00 -82.47484703  30.06070533
3644.00 -82.55947659  30.10668261
3646.00 -82.64413251  30.15270142
3648.00 -82.72881476  30.19876176
3650.00 -82.81352332  30.24486365
3652.00 -82.89825817  30.29100709
3654.00 -82.98301927  30.33719209
3656.00 -83.06780660  30.38341865
3658.00 -83.15262014  30.42968678
3660.00 -83.23745986  30.47599649
3662.00 -83.32232573  30.52234778
3664.00 -83.40721772  30.56874065
3666.00 -83.49213582  30.61517511
3668.00 -83.57708000  30.66165118
3670.00 -83.66205022  30.70816885
3672.00 -83.74704647  30.75472812
3674.00 -83.83206871  30.80132902
3676.00 -83.91711693  30.84797153
3678.00 -84.00219109  30.89465568
3680.00 -84.08729117  30.94138145
3682.00 -84.17241715  30.98814887
3684.00 -84.25756899  31.03495793
3686.00 -84.34274668  31.08180864
3688.00 -84.42795018  31.12870101
3690.00 -84.51317947  31.17563504
3692.00 -84.59843453  31.22261074
3694.00 -84.68371533  31.26962811
3696.00 -84.76902184  31.31668716
3698.00 -84.85435404  31.36378789
3700.00 -84.93971190  31.41093032
3702.00 -85.02509539  31.45811444
3704.00 -85.11050449  31.50534026
3706.00 -85.19593918  31.55260779
3708.00 -85.28139942  31.59991702
3710.00 -85.36688520  31.64726798
3712.00 -85.45239648  31.69466066
3714.00 -85.53793324  31.74209507
3716.00 -85.62349546  31.78957121
3718.00 -85.70908310  31.83708910
3720.00 -85.79469615  31.88464872
3722.00 -85.88033457  31.93225010
3724.00 -85.96599835  31.97989323
3726.00 -86.05168745  32.02757813
3728.00 -86.13740185  32.07530479
3730.00 -86.22314152  32.12307322
3732.00 -86.30890644  32.17088343
3734.00 -86.39469658  32.21873542
3736.00 -86.48051192  32.26662920
3738.00 -86.56635243  32.31456476
3740.00 -86.65221808  32.36254213
3742.00 -86.73810885  32.41056130
3744.00 -86.82402471  32.45862228
3746.00 -86.90996564  32.50672507
3748.00 -86.99593161  32.55486968
3750.00 -87.08192260  32.60305612
3752.00 -87.16793857  32.65128438
3754.00 -87.25397951  32.69955447
3756.00 -87.34004539  32.74786641
3758.00 -87.42613617  32.79622018
3760.00 -87.51225185  32.84461581
3762.00 -87.59839238  32.89305329
3764.00 -87.68455775  32.94153263
3766.00 -87.77074793  32.99005383
3768.00 -87.85696289  33.03861690
3770.00 -87.94320261  33.08722185
3772.00 -88.02946706  33.13586867
3774.00 -88.11575621  33.18455738
3776.00 -88.20207005  33.23328797
3778.00 -88.28840854  33.28206046
3780.00 -88.37477166  33.33087484
3782.00 -88.46115938  33.37973113
3784.00 -88.54757167  33.42862932
3786.00 -88.63400852  33.47756943
3788.00 -88.72046990  33.52655145
3790.00 -88.80695577  33.57557540
3792.00 -88.89346612  33.62464127
3794.00 -88.98000091  33.67374908
3796.00 -89.06656013  33.72289881
3798.00 -89.15314374  33.77209049
3800.00 -89.23975173  33.82132412
3802.00 -89.32638406  33.87059969
3804.00 -89.41304071  33.91991722
3806.00 -89.49972165  33.96927671
3808.00 -89.58642687  34.01867816
3810.00 -89.67315632  34.06812158
3812.00 -89.75990999  34.11760697
3814.00 -89.84668785  34.16713434
3816.00 -89.93348988  34.21670369
3818.00 -90.02031604  34.26631502
3820.00 -90.10716632  34.31596835
3822.00 -90.19404069  34.36566367
3824.00 -90.28093912  34.41540099
3826.00 -90.36786159  34.46518032
3828.00 -90.45480807  34.51500165
3830.00 -90.54177853  34.56486499
3832.00 -90.62877295  34.61477036
3834.00 -90.71579131  34.66471774
3836.00 -90.80283358  34.71470715
3838.00 -90.88989972  34.76473859
3840.00 -90.97698973  34.81481206
3842.00 -91.06410356  34.86492757
3844.00 -91.15124121  34.91508512
3846.00 -91.23840263  34.96528472
3848.00 -91.32558780  35.01552637
3850.00 -91.41279671  35.06581008
3852.00 -91.50002932  35.11613585
3854.00 -91.58728560  35.16650368
3856.00 -91.67456554  35.21691357
3858.00 -91.76186910  35.26736554
3860.00 -91.84919626  35.31785959
3862.00 -91.93654700  35.36839571
3864.00 -92.02392129  35.41897392
3866.00 -92.11131910  35.46959421
3868.00 -92.19874041  35.52025660
3870.00 -92.28618519  35.57096109
3872.00 -92.37365342  35.62170767
3874.00 -92.46114507  35.67249636
3876.00 -92.54866011  35.72332716
3878.00 -92.63619853  35.77420006
3880.00 -92.72376028  35.82511509
3882.00 -92.81134536  35.87607223
3884.00 -92.89895373  35.92707150
3886.00 -92.98658537  35.97811289
3888.00 -93.07424025  36.02919642
3890.00 -93.16191835  36.08032208
3892.00 -93.24961964  36.13148988
3894.00 -93.33734409  36.18269982
3896.00 -93.42509168  36.23395190
3898.00 -93.51286239  36.28524614
3900.00 -93.60065619  36.33658253
3902.00 -93.68847304  36.38796108
3904.00 -93.77631294  36.43938179
3906.00 -93.86417585  36.49084467
3908.00 -93.95206174  36.54234971
3910.00 -94.03997060  36.59389693
3912.00 -94.12790239  36.64548632
3914.00 -94.21585709  36.69711789
3916.00 -94.30383468  36.74879165
3918.00 -94.39183512  36.80050759
3920.00 -94.47985840  36.85226572
3922.00 -94.56790448  36.90406605
3924.00 -94.65597335  36.95590857
3926.00 -94.74406497  37.00779329
3928.00 -94.83217933  37.05972022
3930.00 -94.92031639  37.11168935
3932.00 -95.00847613  37.16370070
3934.00 -95.09665853  37.21575426
3936.00 -95.18486355  37.26785003
3938.00 -95.27309118  37.31998803
3940.00 -95.36134139  37.37216826
3942.00 -95.44961415  37.42439071
3944.00 -95.53790943  37.47665539
3946.00 -95.62622722  37.52896231
3948.00 -95.71456749  37.58131146
3950.00 -95.80293021  37.63370286
3952.00 -95.89131535  37.68613650
3954.00 -95.97972289  37.73861239
3956.00 -96.06815281  37.79113053
3958.00 -96.15660508  37.84369092
3960.00 -96.24507967  37.89629357
3962.00 -96.33357655  37.94893849
3964.00 -96.42209572  38.00162566
3966.00 -96.51063713  38.05435510
3968.00 -96.59920076  38.10712681
3970.00 -96.68778658  38.15994080
3972.00 -96.77639458  38.21279706
3974.00 -96.86502473  38.26569560
3976.00 -96.95367699  38.31863642
3978.00 -97.04235136  38.37161953
3980.00 -97.13104779  38.42464492
3982.00 -97.21976626  38.47771261
3984.00 -97.30850675  38.53082259
3986.00 -97.39726924  38.58397487
3988.00 -97.48605370  38.63716945
3990.00 -97.57486010  38.69040633
3992.00 -97.66368841  38.74368552
3994.00 -97.75253862  38.79700701
3996.00 -97.84141069  38.85037082
3998.00 -97.93030461  38.90377694
4000.00 -98.01922034  38.95722538
4002.00 -98.10815786  39.01071614
4004.00 -98.19711715  39.06424922
4006.00 -98.28609818  39.11782463
4008.00 -98.37510092  39.17144237
4010.00 -98.46412536  39.22510244
4012.00 -98.55317145  39.27880484
4014.00 -98.64223919  39.33254958
4016.00 -98.73132854  39.38633666
4018.00 -98.82043947  39.44016608
4020.00 -98.90957197  39.49403784
4022.00 -98.99872601  39.54795195
4024.00 -99.08790156  39.60190842
4026.00 -99.17709859  39.65590723
4028.00 -99.26631709  39.70994840
4030.00 -99.35555703  39.76403193
4032.00 -99.44481837  39.81815782
4034.00 -99.53410110  39.87232607
4036.00 -99.62340520  39.92653669
4038.00 -99.71273062  39.98078967
4040.00 -99.80207736  40.03508503
4042.00 -99.89144538  40.08942275
4044.00 -99.98083467  40.14380286
4046.00 -100.07024518  40.19822534
4048.00 -100.15967691  40.25269020
4050.00 -100.24912982  40.30719744
4052.00 -100.33860389  40.36174707
4054.00 -100.42809909  40.41633909
4056.00 -100.51761540  40.47097349
4058.00 -100.60715279  40.52565029
4060.00 -100.69671124  40.58036948
4062.00 -100.78629073  40.63513107
4064.00 -100.87589122  40.68993506
4066.00 -100.96551269  40.74478145
4068.00 -101.05515512  40.79967024
4070.00 -101.14481849  40.85460143
4072.00 -101.23450276  40.90957504
4074.00 -101.32420791  40.96459105
4076.00 -101.41393392  41.01964948
4078.00 -101.50368076  41.07475032
4080.00 -101.59344840  41.12989358
4082.00 -101.68323683  41.18507926
4084.00 -101.77304601  41.24030735
4086.00 -101.86287592  41.29557787
4088.00 -101.95272654  41.35089082
4090.00 -102.04259784  41.40624619
4092.00 -102.13248979  41.46164399
4094.00 -102.22240238  41.51708422
4096.00 -102.31233557  41.57256688
4098.00 -102.40228934  41.62809198
4100.00 -102.49226366  41.68365952
4102.00 -102.58225851  41.73926949
4104.00 -102.67227387  41.79492191
4106.00 -102.76230971  41.85061676
4108.00 -102.85236601  41.90635407
4110.00 -102.94244273  41.96213382
4112.00 -103.03253985  42.01795601
4114.00 -103.12265736  42.07382066
4116.00 -103.21279522  42.12972776
4118.00 -103.30295341  42.18567731
4120.00 -103.39313191  42.24166932
4122.00 -103.48333068  42.29770379
4124.00 -103.57354971  42.35378071
4126.00 -103.66378896  42.40990010
4128.00 -103.75404842  42.46606195
4130.00 -103.84432806  42.52226626
4132.00 -103.93462786  42.57851304
4134.00 -104.02494778  42.63480228
4136.00 -104.11528781  42.69113400
4138.00 -104.20564791  42.74750818
4140.00 -104.29602807  42.80392484
4142.00 -104.38642826  42.86038398
4144.00 -104.47684845  42.91688559
4146.00 -104.56728862  42.97342967
4148.00 -104.65774875  43.03001624
4150.00 -104.74822881  43.08664528
4152.00 -104.83872876  43.14331681
4154.00 -104.92924860  43.20003082
4156.00 -105.01978830  43.25678732
4158.00 -105.11034782  43.31358630
4160.00 -105.20092714  43.37042777
4162.00 -105.29152625  43.42731173
4164.00 -105.38214511  43.48423818
4166.00 -105.47278370  43.54120712
4168.00 -105.56344199  43.59821856
4170.00 -105.65411997  43.65527249
4172.00 -105.74481760  43.71236892
4174.00 -105.83553486  43.76950784
4176.00 -105.92627172  43.82668927
4178.00 -106.01702817  43.88391319
4180.00 -106.10780417  43.94117962
4182.00 -106.19859970  43.99848854
4184.00 -106.28941473  44.05583998
4186.00 -106.38024925  44.11323392
4188.00 -106.47110322  44.17067036
4190.00 -106.56197662  44.22814931
4192.00 -106.65286943  44.28567077
4194.00 -106.74378162  44.34323474
4196.00 -106.83471317  44.40084123
4198.00 -106.92566405  44.45849022
4200.00 -107.01663423  44.51618173
4202.00 -107.10762370  44.57391575
4204.00 -107.19863243  44.63169229
4206.00 -107.28966038  44.68951134
4208.00 -107.38070755  44.74737292
4210.00 -107.47177390  44.80527701
4212.00 -107.56285940  44.86322362
4214.00 -107.65396404  44.92121275
4216.00 -107.74508779  44.97924441
4218.00 -107.83623062  45.03731858
4220.00 -107.92739251  45.09543528
4222.00 -108.01857343  45.15359451
4224.00 -108.10977336  45.21179626
4226.00 -108.20099228  45.27004054
4228.00 -108.29223016  45.32832734
4230.00 -108.38348697  45.38665667
4232.00 -108.47476269  45.44502854
4234.00 -108.56605730  45.50344293
4236.00 -108.65737077  45.56189985
4238.00 -108.74870308  45.62039931
4240.00 -108.84005420  45.67894129
4242.00 -108.93142410  45.73752582
4244.00 -109.02281277  45.79615287
4246.00 -109.11422017  45.85482246
4248.00 -109.20564629  45.91353458
4250.00 -109.29709109  45.97228924
4252.00 -109.38855456  46.03108644
4254.00 -109.48003667  46.08992618
4256.00 -109.57153739  46.14880845
4258.00 -109.66305670  46.20773326
4260.00 -109.75459458  46.26670061
4262.00 -109.84615099  46.32571050
4264.00 -109.93772592  46.38476293
4266.00 -110.02931935  46.44385791
4268.00 -110.12093123  46.50299542
4270.00 -110.21256156  46.56217548
4272.00 -110.30421031  46.62139808
4274.00 -110.39587745  46.68066322
4276.00 -110.48756296  46.73997091
4278.00 -110.57926681  46.79932114
4280.00 -110.67098898  46.85871392
4282.00 -110.76272944  46.91814924
4284.00 -110.85448818  46.97762710
4286.00 -110.94626516  47.03714752
4288.00 -111.03806036  47.09671048
4290.00 -111.12987375  47.15631598
4292.00 -111.22170532  47.21596404
4294.00 -111.31355503  47.27565464
4296.00 -111.40542287  47.33538779
4298.00 -111.49730880  47.39516348
4300.00 -111.58921280  47.45498173
4302.00 -111.68113486  47.51484252
4304.00 -111.77307494  47.57474587
4306.00 -111.86503302  47.63469176
4308.00 -111.95700907  47.69468020
4310.00 -112.04900308  47.75471119
4312.00 -112.14101501  47.81478474
4314.00 -112.23304484  47.87490083
4316.00 -112.32509255  47.93505947
4318.00 -112.41715812  47.99526066
4320.00 -112.50924151  48.05550441
4322.00 -112.60134270  48.11579070
4324.00 -112.69346168  48.17611955
4326.00 -112.78559841  48.23649094
4328.00 -112.87775287  48.29690489
4330.00 -112.96992504  48.35736139
4332.00 -113.06211489  48.41786044
4334.00 -113.15432239  48.47840204
4336.00 -113.24654753  48.53898619
4338.00 -113.33879028  48.59961290
4340.00 -113.43105061  48.66028215
4342.00 -113.52332850  48.72099396
4344.00 -113.61562393  48.78174831
4346.00 -113.70793687  48.84254522
4348.00 -113.80026730  48.90338468
4350.00 -113.89261518  48.96426669
4352.00 -113.98498051  49.02519125
4354.00 -114.07736325  49.08615836
4356.00 -114.16976338  49.14716802
4358.00 -114.26218087  49.20822023
4360.00 -114.35461571  49.26931499
4362.00 -114.44706786  49.33045230
4364.00 -114.53953730  49.39163217
4366.00 -114.63202401  49.45285458
4368.00 -114.72452797  49.51411954
4370.00 -114.81704914  49.57542704
4372.00 -114.90958751  49.63677710
4374.00 -115.00214305  49.69816971
4376.00 -115.09471573  49.75960486
4378.00 -115.18730554  49.82108256
4380.00 -115.27991244  49.88260281
4382.00 -115.37253642  49.94416561
4384.00 -115.46517745  50.00577095
4386.00 -115.55783551  50.06741884
4388.00 -115.65051056  50.12910928
4390.00 -115.74320259  50.19084226
4392.00 -115.83591157  50.25261779
4394.00 -115.92863749  50.31443586
4396.00 -116.02138030  50.37629647
4398.00 -116.11414000  50.43819963
4400.00 -116.20691655  50.50014533
4402.00 -116.29970993  50.56213358
4404.00 -116.39252012  50.62416437
4406.00 -116.48534709  50.68623769
4408.00 -116.57819083  50.74835356
4410.00 -116.67105129  50.81051197
4412.00 -116.76392847  50.87271293
4414.00 -116.85682234  50.93495642
4416.00 -116.94973286  50.99724244
4418.00 -117.04266003  51.05957101
4420.00 -117.13560381  51.12194211
4422.00 -117.22856418  51.18435576
4424.00 -117.32154111  51.24681193
4426.00 -117.41453459  51.30931065
4428.00 -117.50754458  51.37185189
4430.00 -117.60057107  51.43443568
4432.00 -117.69361403  51.49706199
4434.00 -117.78667343  51.55973084
4436.00 -117.87974926  51.62244222
4438.00 -117.97284148  51.68519613
4440.00 -118.06595008  51.74799257
4442.00 -118.15907503  51.81083154
4444.00 -118.25221630  51.87371303
4446.00 -118.34537387  51.93663706
4448.00 -118.43854772  51.99960361
4450.00 -118.53173782  52.06261269
4452.00 -118.62494415  52.12566430
4454.00 -118.71816669  52.18875842
4456.00 -118.81140541  52.25189507
4458.00 -118.90466029  52.31507425
4460.00 -118.99793130  52.37829594
4462.00 -119.09121842  52.44156016
4464.00 -119.18452162  52.50486689
4466.00 -119.27784089  52.56821614
4468.00 -119.37117619  52.63160791
4470.00 -119.46452751  52.69504220
4472.00 -119.55789481  52.75851900
4474.00 -119.65127809  52.82203832
4476.00 -119.74467730  52.88560015
4478.00 -119.83809243  52.94920449
4480.00 -119.93152346  53.01285134
4482.00 -120.02497036  53.07654070
4484.00 -120.11843310  53.14027257
4486.00 -120.21191166  53.20404695
4488.00 -120.30540603  53.26786384
4490.00 -120.39891616  53.33172323
4492.00 -120.49244205  53.39562512
4494.00 -120.58598367  53.45956952
4496.00 -120.67954099  53.52355642
4498.00 -120.77311399  53.58758581
4500.00 -120.86670264  53.65165771
4502.00 -120.96030692  53.71577211
4504.00 -121.05392682  53.77992900
4506.00 -121.14756229  53.84412839
4508.00 -121.24121333  53.90837027
4510.00 -121.33487990  53.97265464
4512.00 -121.42856199  54.03698151
4514.00 -121.52225956  54.10135086
4516.00 -121.61597260  54.16576270
4518.00 -121.70970109  54.23021703
4520.00 -121.80344498  54.29471385
4522.00 -121.89720428  54.35925315
4524.00 -121.99097894  54.42383493
4526.00 -122.08476895  54.48845920
4528.00 -122.17857428  54.55312594
4530.00 -122.27239491  54.61783516
4532.00 -122.36623082  54.68258686
4534.00 -122.46008197  54.74738104
4536.00 -122.55394836  54.81221769
4538.00 -122.64782995  54.87709681
4540.00 -122.74172672  54.94201840
4542.00 -122.83563864  55.00698246
4544.00 -122.92956570  55.07198899
4546.00 -123.02350787  55.13703799
4548.00 -123.11746512  55.20212945
4550.00 -123.21143744  55.26726337
4552.00 -123.30542480  55.33243975
4554.00 -123.39942717  55.39765859
4556.00 -123.49344453  55.46291990
4558.00 -123.58747686  55.52822365
4560.00 -123.68152413  55.59356986
4562.00 -123.77558632  55.65895853
4564.00 -123.86966341  55.72438964
4566.00 -123.96375538  55.78986321
4568.00 -124.05786219  55.85537922
4570.00 -124.15198383  55.92093768
4572.00 -124.24612027  55.98653858
4574.00 -124.34027150  56.05218192
4576.00 -124.43443747  56.11786771
4578.00 -124.52861818  56.18359593
4580.00 -124.62281360  56.24936659
4582.00 -124.71702370  56.31517968
4584.00 -124.81124847  56.38103521
4586.00 -124.90548787  56.44693316
4588.00 -124.99974188  56.51287355
4590.00 -125.09401049  56.57885636
4592.00 -125.18829367  56.64488160
4594.00 -125.28259139  56.71094927
4596.00 -125.37690363  56.77705935
4598.00 -125.47123036  56.84321185
4600.00 -125.56557157  56.90940677
4602.00 -125.65992723  56.97564411
4604.00 -125.75429732  57.04192386
4606.00 -125.84868181  57.10824602
4608.00 -125.94308068  57.17461059
4610.00 -126.03749391  57.24101756
4612.00 -126.13192147  57.30746694
4614.00 -126.22636334  57.37395873
4616.00 -126.32081950  57.44049291
4618.00 -126.41528992  57.50706950
4620.00 -126.50977458  57.57368848
4622.00 -126.60427345  57.64034985
4624.00 -126.69878652  57.70705362
4626.00 -126.79331376  57.77379978
4628.00 -126.88785515  57.84058832
4630.00 -126.98241066  57.90741926
4632.00 -127.07698026  57.97429257
4634.00 -127.17156395  58.04120827
4636.00 -127.26616168  58.10816634
4638.00 -127.36077345  58.17516679
4640.00 -127.45539922  58.24220962
4642.00 -127.55003898  58.30929482
4644.00 -127.64469270  58.37642238
4646.00 -127.73936035  58.44359232
4648.00 -127.83404192  58.51080462
4650.00 -127.92873737  58.57805928
4652.00 -128.02344670  58.64535631
4654.00 -128.11816986  58.71269569
4656.00 -128.21290685  58.78007743
4658.00 -128.30765764  58.84750152
4660.00 -128.40242219  58.91496796
4662.00 -128.49720050  58.98247675
4664.00 -128.59199254  59.05002789
4666.00 -128.68679828  59.11762137
4668.00 -128.78161771  59.18525719
4670.00 -128.87645079  59.25293535
4672.00 -128.97129750  59.32065584
4674.00 -129.06615783  59.38841867
4676.00 -129.16103175  59.45622383
4678.00 -129.25591923  59.52407132
4680.00 -129.35082026  59.59196113
4682.00 -129.44573480  59.65989327
4684.00 -129.54066284  59.72786773
4686.00 -129.63560435  59.79588450
4688.00 -129.73055932  59.86394359
4690.00 -129.82552771  59.93204500
4692.00 -129.92050950  60.00018871
4694.00 -130.01550468  60.06837473
4696.00 -130.11051321  60.13660306
4698.00 -130.20553508  60.20487369
4700.00 -130.30057026  60.27318662
4702.00 -130.39561873  60.34154184
4704.00 -130.49068046  60.40993936
4706.00 -130.58575544  60.47837917
4708.00 -130.68084363  60.54686127
4710.00 -130.77594503  60.61538566
4712.00 -130.87105959  60.68395232
4714.00 -130.96618731  60.75256127
4716.00 -131.06132815  60.82121250
4718.00 -131.15648210  60.88990600
4720.00 -131.25164913  60.95864177
4722.00 -131.34682922  61.02741981
4724.00 -131.44202235  61.09624011
4726.00 -131.53722849  61.16510268
4728.00 -131.63244762  61.23400751
4730.00 -131.72767971  61.30295460
4732.00 -131.82292475  61.37194394
4734.00 -131.91818271  61.44097553
4736.00 -132.01345357  61.51004937
4738.00 -132.10873731  61.57916546
4740.00 -132.20403389  61.64832378
4742.00 -132.29934331  61.71752435
4744.00 -132.39466554  61.78676716
4746.00 -132.49000054  61.85605220
4748.00 -132.58534831  61.92537946
4750.00 -132.68070882  61.99474896
4752.00 -132.77608204  62.06416068
4754.00 -132.87146796  62.13361462
4756.00 -132.96686655  62.20311078
4758.00 -133.06227778  62.27264916
4760.00 -133.15770164  62.34222974
4762.00 -133.25313810  62.41185254
4764.00 -133.34858714  62.48151754
4766.00 -133.44404873  62.55122474
4768.00 -133.53952286  62.62097415
4770.00 -133.63500949  62.69076575
4772.00 -133.73050862  62.76059954
4774.00 -133.82602021  62.83047552
4776.00 -133.92154424  62.90039369
4778.00 -134.01708070  62.97035404
4780.00 -134.11262955  63.04035657
4782.00 -134.20819077  63.11040128
4784.00 -134.30376435  63.18048816
4786.00 -134.39935025  63.25061722
4788.00 -134.49494846  63.32078844
4790.00 -134.59055896  63.39100182
4792.00 -134.68618171  63.46125736
4794.00 -134.78181670  63.53155506
4796.00 -134.87746391  63.60189492
4798.00 -134.97312332  63.67227692
4800.00 -135.06879489  63.74270107
4802.00 -135.16447861  63.81316737
4804.00 -135.26017446  63.88367580
4806.00 -135.35588240  63.95422638
4808.00 -135.45160243  64.02481908
4810.00 -135.54733452  64.09545392
4812.00 -135.64307864  64.16613088
4814.00 -135.73883477  64.23684996
4816.00 -135.83460289  64.30761116
4818.00 -135.93038298  64.37841448
4820.00 -136.02617502  64.44925991
4822.00 -136.12197898  64.52014745
4824.00 -136.21779483  64.59107710
4826.00 -136.31362257  64.66204884
4828.00 -136.40946216  64.73306269
4830.00 -136.50531358  64.80411863
4832.00 -136.60117681  64.87521666
4834.00 -136.69705183  64.94635678
4836.00 -136.79293861  65.01753898
4838.00 -136.88883713  65.08876326
4840.00 -136.98474738  65.16002962
4842.00 -137.08066932  65.23133805
4844.00 -137.17660294  65.30268855
4846.00 -137.27254821  65.37408111
4848.00 -137.36850511  65.44551574
4850.00 -137.46447362  65.51699243
4852.00 -137.56045371  65.58851117
4854.00 -137.65644537  65.66007196
4856.00 -137.75244857  65.73167479
4858.00 -137.84846328  65.80331967
4860.00 -137.94448950  65.87500659
4862.00 -138.04052718  65.94673554
4864.00 -138.13657632  66.01850653
4866.00 -138.23263688  66.09031954
4868.00 -138.32870886  66.16217458
4870.00 -138.42479221  66.23407164
4872.00 -138.52088693  66.30601072
4874.00 -138.61699299  66.37799180
4876.00 -138.71311037  66.45001490
4878.00 -138.80923904  66.52208000
4880.00 -138.90537899  66.59418710
4882.00 -139.00153018  66.66633620
4884.00 -139.09769261  66.73852729
4886.00 -139.19386624  66.81076037
4888.00 -139.29005105  66.88303543
4890.00 -139.38624703  66.95535248
4892.00 -139.48245414  67.02771150
4894.00 -139.57867238  67.10011250
4896.00 -139.67490171  67.17255546
4898.00 -139.77114211  67.24504039
4900.00 -139.86739356  67.31756728
4902.00 -139.96365604  67.39013613
4904.00 -140.05992953  67.46274693
4906.00 -140.15621400  67.53539968
4908.00 -140.25250944  67.60809438
4910.00 -140.34881581  67.68083101
4912.00 -140.44513310  67.75360958
4914.00 -140.54146129  67.82643009
4916.00 -140.63780035  67.89929252
4918.00 -140.73415027  67.97219688
4920.00 -140.83051101  68.04514315
4922.00 -140.92688256  68.11813135
4924.00 -141.02326490  68.19116145
4926.00 -141.11965800  68.26423346
4928.00 -141.21606184  68.33734738
4930.00 -141.31247640  68.41050319
4932.00 -141.40890166  68.48370090
4934.00 -141.50533759  68.55694050
4936.00 -141.60178418  68.63022199
4938.00 -141.69824140  68.70354535
4940.00 -141.79470923  68.77691060
4942.00 -141.89118764  68.85031772
4944.00 -141.98767662  68.92376670
4946.00 -142.08417614  68.99725756
4948.00 -142.18068619  69.07079027
4950.00 -142.27720673  69.14436484
4952.00 -142.37373776  69.21798126
4954.00 -142.47027923  69.29163953
4956.00 -142.56683115  69.36533964
4958.00 -142.66339347  69.43908159
4960.00 -142.75996618  69.51286537
4962.00 -142.85654926  69.58669099
4964.00 -142.95314269  69.66055843
4966.00 -143.04974644  69.73446769
4968.00 -143.14636050  69.80841876
4970.00 -143.24298483  69.88241165
4972.00 -143.33961943  69.95644635
4974.00 -143.43626426  70.03052284
4976.00 -143.53291930  70.10464114
4978.00 -143.62958454  70.17880123
4980.00 -143.72625995  70.25300311
4982.00 -143.82294551  70.32724678
4984.00 -143.91964120  70.40153222
4986.00 -144.01634699  70.47585944
4988.00 -144.11306287  70.55022844
4990.00 -144.20978881  70.62463919
4992.00 -144.30652479  70.69909172
4994.00 -144.40327079  70.77358599
4996.00 -144.50002679  70.84812202
4998.00 -144.59679276  70.92269980
5000.00 -144.69356869  70.99731933
