wavelength(nm)         real         imag
100.00   3.78097514   0.00113739
102.00   3.77616699   0.00120700
104.00   3.77126367   0.00127940
106.00   3.76626517   0.00135464
108.00   3.76117151   0.00143276
110.00   3.75598268   0.00151384
112.00   3.75069868   0.00159791
114.00   3.74531952   0.00168505
116.00   3.73984520   0.00177529
118.00   3.73427572   0.00186870
120.00   3.72861108   0.00196533
122.00   3.72285129   0.00206524
124.00   3.71699635   0.00216847
126.00   3.71104627   0.00227509
128.00   3.70500103   0.00238514
130.00   3.69886065   0.00249869
132.00   3.69262514   0.00261578
134.00   3.68629448   0.00273648
136.00   3.67986869   0.00286083
138.00   3.67334777   0.00298890
140.00   3.66673172   0.00312073
142.00   3.66002054   0.00325637
144.00   3.65321424   0.00339590
146.00   3.64631281   0.00353935
148.00   3.63931628   0.00368678
150.00   3.63222462   0.00383826
152.00   3.62503786   0.00399382
154.00   3.61775598   0.00415353
156.00   3.61037901   0.00431744
158.00   3.60290693   0.00448561
160.00   3.59533975   0.00465809
162.00   3.58767747   0.00483493
164.00   3.57992011   0.00501619
166.00   3.57206766   0.00520193
168.00   3.56412012   0.00539219
170.00   3.55607750   0.00558704
172.00   3.54793980   0.00578652
174.00   3.53970703   0.00599069
176.00   3.53137919   0.00619961
178.00   3.52295628   0.00641333
180.00   3.51443830   0.00663191
182.00   3.50582527   0.00685539
184.00   3.49711718   0.00708384
186.00   3.48831404   0.00731730
188.00   3.47941585   0.00755584
190.00   3.47042262   0.00779950
192.00   3.46133435   0.00804835
194.00   3.45215104   0.00830243
196.00   3.44287269   0.00856180
198.00   3.43349932   0.00882652
200.00   3.42403093   0.00909663
202.00   3.41446751   0.00937220
204.00   3.40480908   0.00965328
206.00   3.39505564   0.00993992
208.00   3.38520719   0.01023217
210.00   3.37526374   0.01053010
212.00   3.36522528   0.01083375
214.00   3.35509184   0.01114318
216.00   3.34486340   0.01145844
218.00   3.33453998   0.01177959
220.00   3.32412158   0.01210669
222.00   3.31360820   0.01243978
224.00   3.30299985   0.01277893
226.00   3.29229653   0.01312418
228.00   3.28149825   0.01347559
230.00   3.27060502   0.01383321
232.00   3.25961683   0.01419711
234.00   3.24853369   0.01456732
236.00   3.23735560   0.01494392
238.00   3.22608258   0.01532694
240.00   3.21471463   0.01571646
242.00   3.20325175   0.01611251
244.00   3.19169394   0.01651516
246.00   3.18004122   0.01692445
248.00   3.16829358   0.01734045
250.00   3.15645104   0.01776321
252.00   3.14451359   0.01819278
254.00   3.13248124   0.01862922
256.00   3.12035401   0.01907258
258.00   3.10813188   0.01952291
260.00   3.09581487   0.01998027
262.00   3.08340299   0.02044471
264.00   3.07089623   0.02091629
266.00   3.05829461   0.02139507
268.00   3.04559813   0.02188109
270.00   3.03280680   0.02237441
272.00   3.01992062   0.02287508
274.00   3.00693959   0.02338317
276.00   2.99386372   0.02389871
278.00   2.98069303   0.02442178
280.00   2.96742751   0.02495241
282.00   2.95406716   0.02549068
284.00   2.94061201   0.02603662
286.00   2.92706204   0.02659029
288.00   2.91341727   0.02715176
290.00   2.89967771   0.02772106
292.00   2.88584335   0.02829827
294.00   2.87191421   0.02888342
296.00   2.85789030   0.02947658
298.00   2.84377160   0.03007780
300.00   2.82955815   0.03068713
302.00   2.81524993   0.03130463
304.00   2.80084696   0.03193035
306.00   2.78634924   0.03256435
308.00   2.77175678   0.03320667
310.00   2.75706959   0.03385739
312.00   2.74228767   0.03451653
314.00   2.72741102   0.03518418
316.00   2.71243966   0.03586036
318.00   2.69737360   0.03654515
320.00   2.68221283   0.03723860
322.00   2.66695736   0.03794075
324.00   2.65160721   0.03865166
326.00   2.63616237   0.03937140
328.00   2.62062286   0.04010000
330.00   2.60498868   0.04083753
332.00   2.58925983   0.04158403
334.00   2.57343634   0.04233958
336.00   2.55751819   0.04310420
338.00   2.54150540   0.04387797
340.00   2.52539798   0.04466094
342.00   2.50919594   0.04545315
344.00   2.49289927   0.04625467
346.00   2.47650799   0.04706554
348.00   2.46002210   0.04788583
350.00   2.44344162   0.04871558
352.00   2.42676654   0.04955485
354.00   2.40999688   0.05040369
356.00   2.39313264   0.05126217
358.00   2.37617384   0.05213032
360.00   2.35912047   0.05300821
362.00   2.34197255   0.05389589
364.00   2.32473008   0.05479341
366.00   2.30739307   0.05570082
368.00   2.28996153   0.05661819
370.00   2.27243547   0.05754557
372.00   2.25481489   0.05848300
374.00   2.23709980   0.05943055
376.00   2.21929021   0.06038826
378.00   2.20138612   0.06135619
380.00   2.18338755   0.06233440
382.00   2.16529451   0.06332294
384.00   2.14710699   0.06432186
386.00   2.12882501   0.06533121
388.00   2.11044858   0.06635106
390.00   2.09197770   0.06738145
392.00   2.07341238   0.06842243
394.00   2.05475264   0.06947407
396.00   2.03599847   0.07053642
398.00   2.01714989   0.07160952
400.00   1.99820690   0.07269344
402.00   1.97916952   0.07378822
404.00   1.96003775   0.07489392
406.00   1.94081160   0.07601060
408.00   1.92149108   0.07713831
410.00   1.90207619   0.07827710
412.00   1.88256695   0.07942702
414.00   1.86296336   0.08058814
416.00   1.84326544   0.08176049
418.00   1.82347318   0.08294415
420.00   1.80358661   0.08413916
422.00   1.78360572   0.08534557
424.00   1.76353053   0.08656343
426.00   1.74336105   0.08779282
428.00   1.72309728   0.08903376
430.00   1.70273923   0.09028633
432.00   1.68228691   0.09155057
434.00   1.66174034   0.09282653
436.00   1.64109952   0.09411428
438.00   1.62036445   0.09541386
440.00   1.59953515   0.09672533
442.00   1.57861163   0.09804874
444.00   1.55759390   0.09938414
446.00   1.53648196   0.10073160
448.00   1.51527583   0.10209115
450.00   1.49397551   0.10346286
452.00   1.47258101   0.10484678
454.00   1.45109234   0.10624297
456.00   1.42950952   0.10765147
458.00   1.40783255   0.10907234
460.00   1.38606144   0.11050564
462.00   1.36419620   0.11195141
464.00   1.34223684   0.11340971
466.00   1.32018337   0.11488060
468.00   1.29803579   0.11636412
470.00   1.27579413   0.11786034
472.00   1.25345838   0.11936930
474.00   1.23102856   0.12089106
476.00   1.20850468   0.12242568
478.00   1.18588675   0.12397320
480.00   1.16317477   0.12553367
482.00   1.14036876   0.12710716
484.00   1.11746873   0.12869372
486.00   1.09447469   0.13029339
488.00   1.07138664   0.13190624
490.00   1.04820460   0.13353231
492.00   1.02492858   0.13517167
494.00   1.00155858   0.13682436
496.00   0.97809462   0.13849043
498.00   0.95453671   0.14016994
500.00   0.93088486   0.14186295
502.00   0.90713908   0.14356950
504.00   0.88329937   0.14528965
506.00   0.85936576   0.14702346
508.00   0.83533824   0.14877097
510.00   0.81121683   0.15053224
512.00   0.78700155   0.15230733
514.00   0.76269239   0.15409628
516.00   0.73828938   0.15589915
518.00   0.71379252   0.15771600
520.00   0.68920182   0.15954687
522.00   0.66451730   0.16139182
524.00   0.63973896   0.16325090
526.00   0.61486681   0.16512417
528.00   0.58990087   0.16701168
530.00   0.56484115   0.16891349
532.00   0.53968766   0.17082964
534.00   0.51444040   0.17276018
536.00   0.48909939   0.17470518
538.00   0.46366465   0.17666469
540.00   0.43813617   0.17863875
542.00   0.41251398   0.18062743
544.00   0.38679808   0.18263077
546.00   0.36098849   0.18464883
548.00   0.33508521   0.18668166
550.00   0.30908826   0.18872931
552.00   0.28299765   0.19079184
554.00   0.25681339   0.19286930
556.00   0.23053550   0.19496175
558.00   0.20416397   0.19706923
560.00   0.17769883   0.19919181
562.00   0.15114009   0.20132952
564.00   0.12448775   0.20348243
566.00   0.09774183   0.20565059
568.00   0.07090234   0.20783406
570.00   0.04396930   0.21003287
572.00   0.01694271   0.21224710
574.00  -0.01017742   0.21447678
576.00  -0.03739106   0.21672198
578.00  -0.06469822   0.21898275
580.00  -0.09209888   0.22125914
582.00  -0.11959302   0.22355120
584.00  -0.14718064   0.22585898
586.00  -0.17486172   0.22818255
588.00  -0.20263625   0.23052194
590.00  -0.23050423   0.23287722
592.00  -0.25846562   0.23524844
594.00  -0.28652044   0.23763565
596.00  -0.31466865   0.24003890
598.00  -0.34291026   0.24245825
600.00  -0.37124524   0.24489374
602.00  -0.39967359   0.24734544
604.00  -0.42819529   0.24981339
606.00  -0.45681033   0.25229765
608.00  -0.48551870   0.25479827
610.00  -0.51432039   0.25731531
612.00  -0.54321538   0.25984880
614.00  -0.57220366   0.26239882
616.00  -0.60128522   0.26496541
618.00  -0.63046005   0.26754862
620.00  -0.65972813   0.27014851
622.00  -0.68908945   0.27276512
624.00  -0.71854399   0.27539852
626.00  -0.74809176   0.27804876
628.00  -0.77773272   0.28071588
630.00  -0.80746687   0.28339994
632.00  -0.83729420   0.28610100
634.00  -0.86721470   0.28881910
636.00  -0.89722834   0.29155429
638.00  -0.92733512   0.29430664
640.00  -0.95753503   0.29707619
642.00  -0.98782805   0.29986300
644.00  -1.01821416   0.30266712
646.00  -1.04869336   0.30548859
648.00  -1.07926563   0.30832748
650.00  -1.10993097   0.31118384
652.00  -1.14068934   0.31405771
654.00  -1.17154075   0.31694916
656.00  -1.20248518   0.31985823
658.00  -1.23352261   0.32278497
660.00  -1.26465303   0.32572945
662.00  -1.29587643   0.32869170
664.00  -1.32719280   0.33167179
666.00  -1.35860212   0.33466976
668.00  -1.39010437   0.33768567
670.00  -1.42169955   0.34071958
672.00  -1.45338764   0.34377152
674.00  -1.48516863   0.34684157
676.00  -1.51704250   0.34992975
678.00  -1.54900924   0.35303614
680.00  -1.58106883   0.35616079
682.00  -1.61322127   0.35930373
684.00  -1.64546653   0.36246504
686.00  -1.67780460   0.36564475
688.00  -1.71023548   0.36884293
690.00  -1.74275914   0.37205962
692.00  -1.77537557   0.37529488
694.00  -1.80808476   0.37854875
696.00  -1.84088669   0.38182130
698.00  -1.87378135   0.38511257
700.00  -1.90676872   0.38842261
702.00  -1.93984880   0.39175148
704.00  -1.97302156   0.39509923
706.00  -2.00628699   0.39846592
708.00  -2.03964509   0.40185159
710.00  -2.07309582   0.40525629
712.00  -2.10663918   0.40868008
714.00  -2.14027516   0.41212302
716.00  -2.17400373   0.41558514
718.00  -2.20782489   0.41906651
720.00  -2.24173862   0.42256718
722.00  -2.27574491   0.42608719
724.00  -2.30984374   0.42962661
726.00  -2.34403509   0.43318548
728.00  -2.37831895   0.43676385
730.00  -2.41269531   0.44036178
732.00  -2.44716416   0.44397932
734.00  -2.48172547   0.44761652
736.00  -2.51637923   0.45127344
738.00  -2.55112542   0.45495012
740.00  -2.58596404   0.45864661
742.00  -2.62089507   0.46236298
744.00  -2.65591849   0.46609926
746.00  -2.69103429   0.46985552
748.00  -2.72624244   0.47363180
750.00  -2.76154295   0.47742816
752.00  -2.79693578   0.48124464
754.00  -2.83242093   0.48508131
756.00  -2.86799838   0.48893821
758.00  -2.90366812   0.49281539
760.00  -2.93943012   0.49671290
762.00  -2.97528438   0.50063081
764.00  -3.01123088   0.50456915
766.00  -3.04726960   0.50852798
768.00  -3.08340053   0.51250736
770.00  -3.11962365   0.51650733
772.00  -3.15593895   0.52052794
774.00  -3.19234641   0.52456926
776.00  -3.22884602   0.52863132
778.00  -3.26543775   0.53271418
780.00  -3.30212160   0.53681790
782.00  -3.33889754   0.54094252
784.00  -3.37576557   0.54508809
786.00  -3.41272566   0.54925467
788.00  -3.44977781   0.55344232
790.00  -3.48692199   0.55765107
792.00  -3.52415818   0.56188098
794.00  -3.56148638   0.56613211
796.00  -3.59890657   0.57040450
798.00  -3.63641872   0.57469821
800.00  -3.67402283   0.57901329
802.00  -3.71171888   0.58334979
804.00  -3.74950684   0.58770775
806.00  -3.78738672   0.59208724
808.00  -3.82535848   0.59648831
810.00  -3.86342211   0.60091100
812.00  -3.90157760   0.60535537
814.00  -3.93982493   0.60982146
816.00  -3.97816409   0.61430933
818.00  -4.01659505   0.61881904
820.00  -4.05511780   0.62335063
822.00  -4.09373232   0.62790415
824.00  -4.13243860   0.63247965
826.00  -4.17123662   0.63707720
828.00  -4.21012636   0.64169683
830.00  -4.24910782   0.64633860
832.00  -4.28818096   0.65100255
834.00  -4.32734577   0.65568875
836.00  -4.36660224   0.66039724
838.00  -4.40595035   0.66512808
840.00  -4.44539009   0.66988131
842.00  -4.48492143   0.67465699
844.00  -4.52454435   0.67945516
846.00  -4.56425885   0.68427588
848.00  -4.60406491   0.68911920
850.00  -4.64396250   0.69398517
852.00  -4.68395161   0.69887385
854.00  -4.72403223   0.70378527
856.00  -4.76420433   0.70871950
858.00  -4.80446790   0.71367659
860.00  -4.84482292   0.71865658
862.00  -4.88526937   0.72365952
864.00  -4.92580725   0.72868548
866.00  -4.96643652   0.73373449
868.00  -5.00715717   0.73880661
870.00  -5.04796919   0.74390190
872.00  -5.08887255   0.74902039
874.00  -5.12986724   0.75416215
876.00  -5.17095325   0.75932722
878.00  -5.21213055   0.76451566
880.00  -5.25339912   0.76972751
882.00  -5.29475896   0.77496282
884.00  -5.33621003   0.78022165
886.00  -5.37775233   0.78550405
888.00  -5.41938584   0.79081007
890.00  -5.46111053   0.79613976
892.00  -5.50292639   0.80149317
894.00  -5.54483340   0.80687035
896.00  -5.58683154   0.81227134
898.00  -5.62892081   0.81769622
900.00  -5.67110116   0.82314501
902.00  -5.71337260   0.82861778
904.00  -5.75573510   0.83411457
906.00  -5.79818865   0.83963544
908.00  -5.84073321   0.84518043
910.00  -5.88336879   0.85074959
912.00  -5.92609535   0.85634299
914.00  -5.96891289   0.86196066
916.00  -6.01182137   0.86760266
918.00  -6.05482079   0.87326904
920.00  -6.09791112   0.87895984
922.00  -6.14109235   0.88467513
924.00  -6.18436446   0.89041494
926.00  -6.22772743   0.89617933
928.00  -6.27118124   0.90196836
930.00  -6.31472587   0.90778207
932.00  -6.35836131   0.91362050
934.00  -6.40208753   0.91948372
936.00  -6.44590451   0.92537177
938.00  -6.48981225   0.93128471
940.00  -6.53381071   0.93722258
942.00  -6.57789988   0.94318543
944.00  -6.62207975   0.94917331
946.00  -6.66635029   0.95518628
948.00  -6.71071148   0.96122438
950.00  -6.75516330   0.96728766
952.00  -6.79970574   0.97337618
954.00  -6.84433878   0.97948999
956.00  -6.88906239   0.98562913
958.00  -6.93387656   0.99179366
960.00  -6.97878127   0.99798362
962.00  -7.02377650   1.00419906
964.00  -7.06886223   1.01044004
966.00  -7.11403844   1.01670661
968.00  -7.15930512   1.02299882
970.00  -7.20466223   1.02931671
972.00  -7.25010977   1.03566033
974.00  -7.29564771   1.04202974
976.00  -7.34127604   1.04842499
978.00  -7.38699473   1.05484612
980.00  -7.43280377   1.06129319
982.00  -7.47870313   1.06776625
984.00  -7.52469280   1.07426534
986.00  -7.57077276   1.08079052
988.00  -7.61694298   1.08734183
990.00  -7.66320345   1.09391933
992.00  -7.70955415   1.10052306
994.00  -7.75599506   1.10715308
996.00  -7.80252615   1.11380944
998.00  -7.84914741   1.12049217
1000.00  -7.89585882   1.12720135
1002.00  -7.94266036   1.13393701
1004.00  -7.98955200   1.14069920
1006.00  -8.03653374   1.14748798
1008.00  -8.08360554   1.15430339
1010.00  -8.13076739   1.16114548
1012.00  -8.17801927   1.16801431
1014.00  -8.22536116   1.17490992
1016.00  -8.27279303   1.18183237
1018.00  -8.32031487   1.18878169
1020.00  -8.36792666   1.19575795
1022.00  -8.41562838   1.20276119
1024.00  -8.46342000   1.20979146
1026.00  -8.51130151   1.21684881
1028.00  -8.55927288   1.22393329
1030.00  -8.60733410   1.23104495
1032.00  -8.65548515   1.23818383
1034.00  -8.70372600   1.24535000
1036.00  -8.75205663   1.25254350
1038.00  -8.80047703   1.25976437
1040.00  -8.84898717   1.26701267
1042.00  -8.89758703   1.27428844
1044.00  -8.94627659   1.28159174
1046.00  -8.99505584   1.28892262
1048.00  -9.04392474   1.29628112
1050.00  -9.09288328   1.30366729
1052.00  -9.14193145   1.31108119
1054.00  -9.19106920   1.31852286
1056.00  -9.24029654   1.32599235
1058.00  -9.28961343   1.33348971
1060.00  -9.33901986   1.34101499
1062.00  -9.38851580   1.34856824
1064.00  -9.43810123   1.35614951
1066.00  -9.48777614   1.36375884
1068.00  -9.53754049   1.37139630
1070.00  -9.58739428   1.37906191
1072.00  -9.63733747   1.38675575
1074.00  -9.68737005   1.39447784
1076.00  -9.73749199   1.40222825
1078.00  -9.78770328   1.41000703
1080.00  -9.83800389   1.41781421
1082.00  -9.88839381   1.42564985
1084.00  -9.93887300   1.43351400
1086.00  -9.98944146   1.44140671
1088.00 -10.04009915   1.44932803
1090.00 -10.09084606   1.45727800
1092.00 -10.14168216   1.46525668
1094.00 -10.19260743   1.47326411
1096.00 -10.24362186   1.48130035
1098.00 -10.29472542   1.48936543
1100.00 -10.34591808   1.49745942
1102.00 -10.39719983   1.50558235
1104.00 -10.44857064   1.51373428
1106.00 -10.50003050   1.52191526
1108.00 -10.55157938   1.53012534
1110.00 -10.60321726   1.53836456
1112.00 -10.65494411   1.54663297
1114.00 -10.70675992   1.55493062
1116.00 -10.75866466   1.56325756
1118.00 -10.81065832   1.57161384
1120.00 -10.86274086   1.57999951
1122.00 -10.91491227   1.58841462
1124.00 -10.96717253   1.59685921
1126.00 -11.01952161   1.60533333
1128.00 -11.07195949   1.61383703
1130.00 -11.12448614   1.62237037
1132.00 -11.17710156   1.63093338
1134.00 -11.22980571   1.63952612
1136.00 -11.28259857   1.64814863
1138.00 -11.33548012   1.65680097
1140.00 -11.38845034   1.66548318
1142.00 -11.44150920   1.67419532
1144.00 -11.49465668   1.68293742
1146.00 -11.54789277   1.69170954
1148.00 -11.60121743   1.70051172
1150.00 -11.65463064   1.70934402
1152.00 -11.70813239   1.71820648
1154.00 -11.76172265   1.72709915
1156.00 -11.81540140   1.73602209
1158.00 -11.86916860   1.74497532
1160.00 -11.92302425   1.75395892
1162.00 -11.97696832   1.76297292
1164.00 -12.03100079   1.77201736
1166.00 -12.08512163   1.78109231
1168.00 -12.13933082   1.79019781
1170.00 -12.19362833   1.79933390
1172.00 -12.24801415   1.80850064
1174.00 -12.30248825   1.81769807
1176.00 -12.35705061   1.82692624
1178.00 -12.41170121   1.83618520
1180.00 -12.46644002   1.84547499
1182.00 -12.52126702   1.85479567
1184.00 -12.57618218   1.86414728
1186.00 -12.63118549   1.87352987
1188.00 -12.68627691   1.88294349
1190.00 -12.74145643   1.89238818
1192.00 -12.79672403   1.90186400
1194.00 -12.85207968   1.91137099
1196.00 -12.90752335   1.92090920
1198.00 -12.96305503   1.93047868
1200.00 -13.01867468   1.94007947
1202.00 -13.07438229   1.94971162
1204.00 -13.13017784   1.95937519
1206.00 -13.18606129   1.96907021
1208.00 -13.24203264   1.97879674
1210.00 -13.29809184   1.98855482
1212.00 -13.35423888   1.99834450
1214.00 -13.41047374   2.00816583
1216.00 -13.46679639   2.01801886
1218.00 -13.52320680   2.02790363
1220.00 -13.57970496   2.03782020
1222.00 -13.63629084   2.04776860
1224.00 -13.69296442   2.05774889
1226.00 -13.74972567   2.06776111
1228.00 -13.80657456   2.07780532
1230.00 -13.86351109   2.08788155
1232.00 -13.92053521   2.09798986
1234.00 -13.97764691   2.10813029
1236.00 -14.03484616   2.11830290
1238.00 -14.09213294   2.12850772
1240.00 -14.14950723   2.13874481
1242.00 -14.20696900   2.14901421
1244.00 -14.26451822   2.15931597
1246.00 -14.32215488   2.16965014
1248.00 -14.37987894   2.18001677
1250.00 -14.43769039   2.19041590
1252.00 -14.49558919   2.20084757
1254.00 -14.55357533   2.21131185
1256.00 -14.61164879   2.22180876
1258.00 -14.66980952   2.23233837
1260.00 -14.72805753   2.24290071
1262.00 -14.78639276   2.25349584
1264.00 -14.84481521   2.26412381
1266.00 -14.90332485   2.27478465
1268.00 -14.96192166   2.28547842
1270.00 -15.02060560   2.29620516
1272.00 -15.07937666   2.30696492
1274.00 -15.13823481   2.31775774
1276.00 -15.19718002   2.32858368
1278.00 -15.25621228   2.33944279
1280.00 -15.31533155   2.35033510
1282.00 -15.37453781   2.36126066
1284.00 -15.43383104   2.37221953
1286.00 -15.49321121   2.38321174
1288.00 -15.55267829   2.39423735
1290.00 -15.61223227   2.40529640
1292.00 -15.67187312   2.41638894
1294.00 -15.73160081   2.42751501
1296.00 -15.79141531   2.43867467
1298.00 -15.85131660   2.44986795
1300.00 -15.91130467   2.46109491
1302.00 -15.97137947   2.47235560
1304.00 -16.03154099   2.48365005
1306.00 -16.09178920   2.49497831
1308.00 -16.15212408   2.50634044
1310.00 -16.21254560   2.51773647
1312.00 -16.27305374   2.52916646
1314.00 -16.33364846   2.54063045
1316.00 -16.39432975   2.55212849
1318.00 -16.45509758   2.56366062
1320.00 -16.51595192   2.57522690
1322.00 -16.57689276   2.58682735
1324.00 -16.63792005   2.59846205
1326.00 -16.69903378   2.61013102
1328.00 -16.76023393   2.62183432
1330.00 -16.82152046   2.63357199
1332.00 -16.88289336   2.64534407
1334.00 -16.94435259   2.65715063
1336.00 -17.00589812   2.66899169
1338.00 -17.06752995   2.68086731
1340.00 -17.12924803   2.69277754
1342.00 -17.19105234   2.70472241
1344.00 -17.25294286   2.71670198
1346.00 -17.31491956   2.72871629
1348.00 -17.37698242   2.74076539
1350.00 -17.43913141   2.75284932
1352.00 -17.50136650   2.76496813
1354.00 -17.56368766   2.77712187
1356.00 -17.62609488   2.78931058
1358.00 -17.68858812   2.80153430
1360.00 -17.75116737   2.81379309
1362.00 -17.81383258   2.82608699
1364.00 -17.87658375   2.83841605
1366.00 -17.93942083   2.85078031
1368.00 -18.00234381   2.86317981
1370.00 -18.06535266   2.87561461
1372.00 -18.12844735   2.88808475
1374.00 -18.19162785   2.90059027
1376.00 -18.25489415   2.91313122
1378.00 -18.31824621   2.92570764
1380.00 -18.38168401   2.93831959
1382.00 -18.44520751   2.95096711
1384.00 -18.50881671   2.96365024
1386.00 -18.57251156   2.97636903
1388.00 -18.63629204   2.98912352
1390.00 -18.70015812   3.00191376
1392.00 -18.76410979   3.01473980
1394.00 -18.82814700   3.02760168
1396.00 -18.89226974   3.04049944
1398.00 -18.95647798   3.05343314
1400.00 -19.02077169   3.06640281
1402.00 -19.08515085   3.07940851
1404.00 -19.14961542   3.09245028
1406.00 -19.21416539   3.10552815
1408.00 -19.27880072   3.11864219
1410.00 -19.34352139   3.13179243
1412.00 -19.40832736   3.14497893
1414.00 -19.47321863   3.15820171
1416.00 -19.53819515   3.17146084
1418.00 -19.60325690   3.18475635
1420.00 -19.66840385   3.19808829
1422.00 -19.73363598   3.21145671
1424.00 -19.79895326   3.22486165
1426.00 -19.86435566   3.23830315
1428.00 -19.92984315   3.25178127
1430.00 -19.99541572   3.26529604
1432.00 -20.06107332   3.27884751
1434.00 -20.12681594   3.29243573
1436.00 -20.19264354   3.30606074
1438.00 -20.25855610   3.31972259
1440.00 -20.32455360   3.33342132
1442.00 -20.39063599   3.34715697
1444.00 -20.45680327   3.36092960
1446.00 -20.52305539   3.37473924
1448.00 -20.58939234   3.38858594
1450.00 -20.65581408   3.40246975
1452.00 -20.72232059   3.41639071
1454.00 -20.78891183   3.43034886
1456.00 -20.85558779   3.44434425
1458.00 -20.92234843   3.45837693
1460.00 -20.98919373   3.47244694
1462.00 -21.05612366   3.48655432
1464.00 -21.12313819   3.50069912
1466.00 -21.19023730   3.51488138
1468.00 -21.25742095   3.52910115
1470.00 -21.32468911   3.54335847
1472.00 -21.39204177   3.55765339
1474.00 -21.45947889   3.57198595
1476.00 -21.52700045   3.58635620
1478.00 -21.59460641   3.60076418
1480.00 -21.66229675   3.61520993
1482.00 -21.73007145   3.62969350
1484.00 -21.79793046   3.64421494
1486.00 -21.86587377   3.65877429
1488.00 -21.93390135   3.67337158
1490.00 -22.00201317   3.68800688
1492.00 -22.07020919   3.70268021
1494.00 -22.13848940   3.71739163
1496.00 -22.20685377   3.73214118
1498.00 -22.27530226   3.74692890
1500.00 -22.34383485   3.76175484
1502.00 -22.41245150   3.77661905
1504.00 -22.48115220   3.79152156
1506.00 -22.54993692   3.80646242
1508.00 -22.61880562   3.82144167
1510.00 -22.68775827   3.83645937
1512.00 -22.75679485   3.85151554
1514.00 -22.82591534   3.86661024
1516.00 -22.89511969   3.88174352
1518.00 -22.96440789   3.89691541
1520.00 -23.03377990   3.91212595
1522.00 -23.10323569   3.92737520
1524.00 -23.17277525   3.94266319
1526.00 -23.24239853   3.95798998
1528.00 -23.31210551   3.97335560
1530.00 -23.38189616   3.98876009
1532.00 -23.45177046   4.00420351
1534.00 -23.52172836   4.01968589
1536.00 -23.59176986   4.03520729
1538.00 -23.66189491   4.05076773
1540.00 -23.73210349   4.06636727
1542.00 -23.80239556   4.08200595
1544.00 -23.87277111   4.09768382
1546.00 -23.94323009   4.11340091
1548.00 -24.01377249   4.12915727
1550.00 -24.08439827   4.14495295
1552.00 -24.15510741   4.16078798
1554.00 -24.22589987   4.17666242
1556.00 -24.29677562   4.19257630
1558.00 -24.36773464   4.20852967
1560.00 -24.43877690   4.22452257
1562.00 -24.50990237   4.24055504
1564.00 -24.58111102   4.25662713
1566.00 -24.65240282   4.27273889
1568.00 -24.72377774   4.28889035
1570.00 -24.79523575   4.30508156
1572.00 -24.86677682   4.32131256
1574.00 -24.93840092   4.33758339
1576.00 -25.01010803   4.35389410
1578.00 -25.08189811   4.37024473
1580.00 -25.15377114   4.38663533
1582.00 -25.22572709   4.40306593
1584.00 -25.29776591   4.41953659
1586.00 -25.36988760   4.43604733
1588.00 -25.44209211   4.45259822
1590.00 -25.51437942   4.46918928
1592.00 -25.58674950   4.48582056
1594.00 -25.65920232   4.50249211
1596.00 -25.73173784   4.51920397
1598.00 -25.80435605   4.53595618
1600.00 -25.87705690   4.55274879
1602.00 -25.94984037   4.56958183
1604.00 -26.02270644   4.58645535
1606.00 -26.09565506   4.60336939
1608.00 -26.16868621   4.62032400
1610.00 -26.24179986   4.63731921
1612.00 -26.31499599   4.65435508
1614.00 -26.38827455   4.67143164
1616.00 -26.46163553   4.68854893
1618.00 -26.53507888   4.70570700
1620.00 -26.60860459   4.72290590
1622.00 -26.68221262   4.74014566
1624.00 -26.75590294   4.75742632
1626.00 -26.82967552   4.77474793
1628.00 -26.90353032   4.79211054
1630.00 -26.97746734   4.80951418
1632.00 -27.05148652   4.82695889
1634.00 -27.12558784   4.84444472
1636.00 -27.19977127   4.86197172
1638.00 -27.27403678   4.87953991
1640.00 -27.34838434   4.89714935
1642.00 -27.42281392   4.91480008
1644.00 -27.49732549   4.93249214
1646.00 -27.57191901   4.95022558
1648.00 -27.64659447   4.96800042
1650.00 -27.72135182   4.98581673
1652.00 -27.79619104   5.00367453
1654.00 -27.87111210   5.02157387
1656.00 -27.94611496   5.03951480
1658.00 -28.02119960   5.05749735
1660.00 -28.09636598   5.07552157
1662.00 -28.17161408   5.09358750
1664.00 -28.24694387   5.11169517
1666.00 -28.32235531   5.12984465
1668.00 -28.39784837   5.14803595
1670.00 -28.47342302   5.16626914
1672.00 -28.54907923   5.18454424
1674.00 -28.62481698   5.20286131
1676.00 -28.70063623   5.22122037
1678.00 -28.77653694   5.23962148
1680.00 -28.85251909   5.25806468
1682.00 -28.92858266   5.27655000
1684.00 -29.00472759   5.29507750
1686.00 -29.08095388   5.31364720
1688.00 -29.15726148   5.33225916
1690.00 -29.23365036   5.35091341
1692.00 -29.31012050   5.36961000
1694.00 -29.38667185   5.38834897
1696.00 -29.46330440   5.40713036
1698.00 -29.54001811   5.42595420
1700.00 -29.61681295   5.44482055
1702.00 -29.69368889   5.46372944
1704.00 -29.77064589   5.48268092
1706.00 -29.84768393   5.50167502
1708.00 -29.92480297   5.52071180
1710.00 -30.00200299   5.53979128
1712.00 -30.07928395   5.55891351
1714.00 -30.15664581   5.57807853
1716.00 -30.23408856   5.59728639
1718.00 -30.31161216   5.61653712
1720.00 -30.38921657   5.63583076
1722.00 -30.46690177   5.65516737
1724.00 -30.54466772   5.67454697
1726.00 -30.62251439   5.69396961
1728.00 -30.70044176   5.71343532
1730.00 -30.77844978   5.73294416
1732.00 -30.85653843   5.75249617
1734.00 -30.93470768   5.77209137
1736.00 -31.01295749   5.79172982
1738.00 -31.09128784   5.81141156
1740.00 -31.16969869   5.83113662
1742.00 -31.24819000   5.85090504
1744.00 -31.32676176   5.87071688
1746.00 -31.40541392   5.89057216
1748.00 -31.48414646   5.91047094
1750.00 -31.56295934   5.93041324
1752.00 -31.64185253   5.95039911
1754.00 -31.72082600   5.97042860
1756.00 -31.79987972   5.99050174
1758.00 -31.87901366   6.01061857
1760.00 -31.95822777   6.03077913
1762.00 -32.03752205   6.05098347
1764.00 -32.11689644   6.07123162
1766.00 -32.19635091   6.09152363
1768.00 -32.27588545   6.11185953
1770.00 -32.35550001   6.13223937
1772.00 -32.43519456   6.15266319
1774.00 -32.51496907   6.17313102
1776.00 -32.59482351   6.19364291
1778.00 -32.67475784   6.21419890
1780.00 -32.75477204   6.23479903
1782.00 -32.83486607   6.25544333
1784.00 -32.91503990   6.27613186
1786.00 -32.99529350   6.29686464
1788.00 -33.07562683   6.31764173
1790.00 -33.15603986   6.33846315
1792.00 -33.23653257   6.35932895
1794.00 -33.31710491   6.38023917
1796.00 -33.39775686   6.40119385
1798.00 -33.47848838   6.42219304
1800.00 -33.55929944   6.44323676
1802.00 -33.64019001   6.46432506
1804.00 -33.72116005   6.48545798
1806.00 -33.80220954   6.50663556
1808.00 -33.88333844   6.52785785
1810.00 -33.96454672   6.54912487
1812.00 -34.04583434   6.57043667
1814.00 -34.12720128   6.59179329
1816.00 -34.20864750   6.61319477
1818.00 -34.29017296   6.63464115
1820.00 -34.37177765   6.65613247
1822.00 -34.45346151   6.67766877
1824.00 -34.53522452   6.69925008
1826.00 -34.61706665   6.72087645
1828.00 -34.69898787   6.74254793
1830.00 -34.78098814   6.76426453
1832.00 -34.86306742   6.78602632
1834.00 -34.94522569   6.80783332
1836.00 -35.02746292   6.82968558
1838.00 -35.10977906   6.85158313
1840.00 -35.19217410   6.87352602
1842.00 -35.27464798   6.89551428
1844.00 -35.35720069   6.91754796
1846.00 -35.43983219   6.93962709
1848.00 -35.52254244   6.96175171
1850.00 -35.60533142   6.98392186
1852.00 -35.68819908   7.00613759
1854.00 -35.77114540   7.02839892
1856.00 -35.85417035   7.05070591
1858.00 -35.93727388   7.07305858
1860.00 -36.02045597   7.09545698
1862.00 -36.10371659   7.11790115
1864.00 -36.18705569   7.14039112
1866.00 -36.27047325   7.16292694
1868.00 -36.35396924   7.18550864
1870.00 -36.43754362   7.20813627
1872.00 -36.52119635   7.23080986
1874.00 -36.60492741   7.25352945
1876.00 -36.68873676   7.27629508
1878.00 -36.77262437   7.29910679
1880.00 -36.85659020   7.32196462
1882.00 -36.94063422   7.34486860
1884.00 -37.02475640   7.36781878
1886.00 -37.10895670   7.39081519
1888.00 -37.19323510   7.41385788
1890.00 -37.27759154   7.43694688
1892.00 -37.36202602   7.46008223
1894.00 -37.44653848   7.48326397
1896.00 -37.53112890   7.50649213
1898.00 -37.61579724   7.52976676
1900.00 -37.70054346   7.55308790
1902.00 -37.78536755   7.57645558
1904.00 -37.87026945   7.59986985
1906.00 -37.95524914   7.62333073
1908.00 -38.04030659   7.64683827
1910.00 -38.12544176   7.67039251
1912.00 -38.21065461   7.69399349
1914.00 -38.29594511   7.71764124
1916.00 -38.38131324   7.74133580
1918.00 -38.46675895   7.76507721
1920.00 -38.55228221   7.78886551
1922.00 -38.63788298   7.81270074
1924.00 -38.72356124   7.83658294
1926.00 -38.80931695   7.86051213
1928.00 -38.89515007   7.88448837
1930.00 -38.98106058   7.90851169
1932.00 -39.06704843   7.93258213
1934.00 -39.15311359   7.95669972
1936.00 -39.23925604   7.98086451
1938.00 -39.32547572   8.00507653
1940.00 -39.41177262   8.02933582
1942.00 -39.49814670   8.05364242
1944.00 -39.58459792   8.07799636
1946.00 -39.67112624   8.10239769
1948.00 -39.75773164   8.12684643
1950.00 -39.84441408   8.15134264
1952.00 -39.93117353   8.17588635
1954.00 -40.01800995   8.20047759
1956.00 -40.10492330   8.22511640
1958.00 -40.19191356   8.24980282
1960.00 -40.27898068   8.27453689
1962.00 -40.36612464   8.29931865
1964.00 -40.45334540   8.32414813
1966.00 -40.54064292   8.34902537
1968.00 -40.62801718   8.37395041
1970.00 -40.71546813   8.39892328
1972.00 -40.80299574   8.42394403
1974.00 -40.89059998   8.44901268
1976.00 -40.97828081   8.47412929
1978.00 -41.06603820   8.49929388
1980.00 -41.15387211   8.52450650
1982.00 -41.24178252   8.54976717
1984.00 -41.32976937   8.57507594
1986.00 -41.41783265   8.60043285
1988.00 -41.50597231   8.62583793
1990.00 -41.59418832   8.65129122
1992.00 -41.68248065   8.67679275
1994.00 -41.77084926   8.70234257
1996.00 -41.85929411   8.72794070
1998.00 -41.94781518   8.75358720
2000.00 -42.03641242   8.77928209
2002.00 -42.12508580   8.80502541
2004.00 -42.21383529   8.83081720
2006.00 -42.30266085   8.85665750
2008.00 -42.39156245   8.88254634
2010.00 -42.48054005   8.90848376
2012.00 -42.56959362   8.93446979
2014.00 -42.65872312   8.96050448
2016.00 -42.74792852   8.98658786
2018.00 -42.83720978   9.01271996
2020.00 -42.92656686   9.03890083
2022.00 -43.01599974   9.06513050
2024.00 -43.10550838   9.09140900
2026.00 -43.19509274   9.11773638
2028.00 -43.28475278   9.14411267
2030.00 -43.37448848   9.17053790
2032.00 -43.46429979   9.19701212
2034.00 -43.55418669   9.22353536
2036.00 -43.64414913   9.25010765
2038.00 -43.73418708   9.27672904
2040.00 -43.82430051   9.30339955
2042.00 -43.91448938   9.33011923
2044.00 -44.00475365   9.35688811
2046.00 -44.09509329   9.38370624
2048.00 -44.18550827   9.41057363
2050.00 -44.27599854   9.43749034
2052.00 -44.36656408   9.46445639
2054.00 -44.45720485   9.49147182
2056.00 -44.54792081   9.51853668
2058.00 -44.63871193   9.54565099
2060.00 -44.72957817   9.57281479
2062.00 -44.82051950   9.60002812
2064.00 -44.91153588   9.62729102
2066.00 -45.00262727   9.65460351
2068.00 -45.09379365   9.68196564
2070.00 -45.18503497   9.70937744
2072.00 -45.27635119   9.73683895
2074.00 -45.36774229   9.76435020
2076.00 -45.45920823   9.79191123
2078.00 -45.55074897   9.81952207
2080.00 -45.64236447   9.84718277
2082.00 -45.73405471   9.87489335
2084.00 -45.82581964   9.90265386
2086.00 -45.91765923   9.93046432
2088.00 -46.00957345   9.95832478
2090.00 -46.10156225   9.98623527
2092.00 -46.19362560  10.01419582
2094.00 -46.28576347  10.04220648
2096.00 -46.37797582  10.07026726
2098.00 -46.47026261  10.09837823
2100.00 -46.56262381  10.12653939
2102.00 -46.65505938  10.15475080
2104.00 -46.74756929  10.18301249
2106.00 -46.84015350  10.21132450
2108.00 -46.93281198  10.23968685
2110.00 -47.02554468  10.26809958
2112.00 -47.11835158  10.29656274
2114.00 -47.21123263  10.32507635
2116.00 -47.30418780  10.35364044
2118.00 -47.39721706  10.38225507
2120.00 -47.49032036  10.41092025
2122.00 -47.58349768  10.43963603
2124.00 -47.67674898  10.46840244
2126.00 -47.77007421  10.49721952
2128.00 -47.86347335  10.52608729
2130.00 -47.95694635  10.55500581
2132.00 -48.05049319  10.58397509
2134.00 -48.14411382  10.61299518
2136.00 -48.23780821  10.64206611
2138.00 -48.33157632  10.67118791
2140.00 -48.42541812  10.70036062
2142.00 -48.51933357  10.72958428
2144.00 -48.61332263  10.75885892
2146.00 -48.70738527  10.78818457
2148.00 -48.80152145  10.81756128
2150.00 -48.89573113  10.84698906
2152.00 -48.99001429  10.87646797
2154.00 -49.08437087  10.90599803
2156.00 -49.17880085  10.93557927
2158.00 -49.27330419  10.96521174
2160.00 -49.36788085  10.99489546
2162.00 -49.46253079  11.02463048
2164.00 -49.55725399  11.05441682
2166.00 -49.65205040  11.08425452
2168.00 -49.74691998  11.11414362
2170.00 -49.84186270  11.14408415
2172.00 -49.93687853  11.17407614
2174.00 -50.03196742  11.20411962
2176.00 -50.12712934  11.23421464
2178.00 -50.22236426  11.26436123
2180.00 -50.31767213  11.29455941
2182.00 -50.41305292  11.32480923
2184.00 -50.50850659  11.35511072
2186.00 -50.60403311  11.38546391
2188.00 -50.69963243  11.41586884
2190.00 -50.79530453  11.44632554
2192.00 -50.89104937  11.47683405
2194.00 -50.98686690  11.50739439
2196.00 -51.08275710  11.53800661
2198.00 -51.17871992  11.56867073
2200.00 -51.27475533  11.59938679
2202.00 -51.37086329  11.63015483
2204.00 -51.46704377  11.66097488
2206.00 -51.56329672  11.69184697
2208.00 -51.65962211  11.72277113
2210.00 -51.75601991  11.75374740
2212.00 -51.85249007  11.78477582
2214.00 -51.94903256  11.81585642
2216.00 -52.04564735  11.84698922
2218.00 -52.14233439  11.87817427
2220.00 -52.23909365  11.90941160
2222.00 -52.33592509  11.94070124
2224.00 -52.43282867  11.97204322
2226.00 -52.52980436  12.00343758
2228.00 -52.62685212  12.03488435
2230.00 -52.72397191  12.06638357
2232.00 -52.82116370  12.09793527
2234.00 -52.91842745  12.12953948
2236.00 -53.01576311  12.16119623
2238.00 -53.11317067  12.19290556
2240.00 -53.21065006  12.22466750
2242.00 -53.30820127  12.25648209
2244.00 -53.40582425  12.28834936
2246.00 -53.50351896  12.32026934
2248.00 -53.60128537  12.35224206
2250.00 -53.69912344  12.38426756
2252.00 -53.79703314  12.41634587
2254.00 -53.89501441  12.44847702
2256.00 -53.99306724  12.48066105
2258.00 -54.09119158  12.51289799
2260.00 -54.18938739  12.54518787
2262.00 -54.28765463  12.57753072
2264.00 -54.38599327  12.60992659
2266.00 -54.48440328  12.64237549
2268.00 -54.58288460  12.67487747
2270.00 -54.68143721  12.70743255
2272.00 -54.78006107  12.74004078
2274.00 -54.87875614  12.77270217
2276.00 -54.97752238  12.80541677
2278.00 -55.07635976  12.83818461
2280.00 -55.17526823  12.87100571
2282.00 -55.27424777  12.90388012
2284.00 -55.37329832  12.93680786
2286.00 -55.47241987  12.96978897
2288.00 -55.57161235  13.00282348
2290.00 -55.67087575  13.03591142
2292.00 -55.77021002  13.06905283
2294.00 -55.86961512  13.10224773
2296.00 -55.96909102  13.13549616
2298.00 -56.06863767  13.16879816
2300.00 -56.16825505  13.20215374
2302.00 -56.26794311  13.23556296
2304.00 -56.36770181  13.26902583
2306.00 -56.46753112  13.30254239
2308.00 -56.56743100  13.33611267
2310.00 -56.66740140  13.36973671
2312.00 -56.76744231  13.40341453
2314.00 -56.86755366  13.43714617
2316.00 -56.96773544  13.47093167
2318.00 -57.06798759  13.50477104
2320.00 -57.16831009  13.53866433
2322.00 -57.26870289  13.57261157
2324.00 -57.36916595  13.60661279
2326.00 -57.46969924  13.64066801
2328.00 -57.57030272  13.67477728
2330.00 -57.67097635  13.70894062
2332.00 -57.77172010  13.74315806
2334.00 -57.87253392  13.77742965
2336.00 -57.97341777  13.81175540
2338.00 -58.07437163  13.84613535
2340.00 -58.17539544  13.88056954
2342.00 -58.27648918  13.91505798
2344.00 -58.37765280  13.94960073
2346.00 -58.47888627  13.98419779
2348.00 -58.58018955  14.01884922
2350.00 -58.68156259  14.05355504
2352.00 -58.78300537  14.08831528
2354.00 -58.88451784  14.12312997
2356.00 -58.98609996  14.15799914
2358.00 -59.08775171  14.19292283
2360.00 -59.18947303  14.22790107
2362.00 -59.29126389  14.26293388
2364.00 -59.39312425  14.29802130
2366.00 -59.49505407  14.33316336
2368.00 -59.59705332  14.36836009
2370.00 -59.69912196  14.40361153
2372.00 -59.80125994  14.43891769
2374.00 -59.90346723  14.47427863
2376.00 -60.00574380  14.50969435
2378.00 -60.10808960  14.54516491
2380.00 -60.21050459  14.58069032
2382.00 -60.31298874  14.61627061
2384.00 -60.41554200  14.65190583
2386.00 -60.51816434  14.68759600
2388.00 -60.62085573  14.72334115
2390.00 -60.72361611  14.75914131
2392.00 -60.82644546  14.79499651
2394.00 -60.92934373  14.83090678
2396.00 -61.03231089  14.86687216
2398.00 -61.13534690  14.90289267
2400.00 -61.23845171  14.93896835
2402.00 -61.34162530  14.97509922
2404.00 -61.44486761  15.01128532
2406.00 -61.54817862  15.04752667
2408.00 -61.65155829  15.08382331
2410.00 -61.75500656  15.12017527
2412.00 -61.85852342  15.15658258
2414.00 -61.96210881  15.19304526
2416.00 -62.06576270  15.22956336
2418.00 -62.16948505  15.26613689
2420.00 -62.27327583  15.30276589
2422.00 -62.37713498  15.33945039
2424.00 -62.48106248  15.37619042
2426.00 -62.58505829  15.41298601
2428.00 -62.68912236  15.44983719
2430.00 -62.79325465  15.48674399
2432.00 -62.89745514  15.52370644
2434.00 -63.00172378  15.56072457
2436.00 -63.10606052  15.59779841
2438.00 -63.21046534  15.63492799
2440.00 -63.31493819  15.67211334
2442.00 -63.41947904  15.70935449
2444.00 -63.52408784  15.74665147
2446.00 -63.62876455  15.78400431
2448.00 -63.73350914  15.82141304
2450.00 -63.83832157  15.85887769
2452.00 -63.94320180  15.89639829
2454.00 -64.04814979  15.93397486
2456.00 -64.15316550  15.97160745
2458.00 -64.25824889  16.00929607
2460.00 -64.36339992  16.04704076
2462.00 -64.46861856  16.08484155
2464.00 -64.57390476  16.12269847
2466.00 -64.67925848  16.16061154
2468.00 -64.78467970  16.19858080
2470.00 -64.89016835  16.23660627
2472.00 -64.99572442  16.27468799
2474.00 -65.10134785  16.31282598
2476.00 -65.20703862  16.35102028
2478.00 -65.31279667  16.38927091
2480.00 -65.41862198  16.42757790
2482.00 -65.52451449  16.46594128
2484.00 -65.63047418  16.50436108
2486.00 -65.73650100  16.54283733
2488.00 -65.84259492  16.58137006
2490.00 -65.94875588  16.61995930
2492.00 -66.05498387  16.65860508
2494.00 -66.16127883  16.69730742
2496.00 -66.26764072  16.73606636
2498.00 -66.37406952  16.77488192
2500.00 -66.48056517  16.81375413
2502.00 -66.58712764  16.85268303
2504.00 -66.69375688  16.89166864
2506.00 -66.80045287  16.93071098
2508.00 -66.90721556  16.96981010
2510.00 -67.01404491  17.00896601
2512.00 -67.12094087  17.04817875
2514.00 -67.22790342  17.08744835
2516.00 -67.33493252  17.12677482
2518.00 -67.44202811  17.16615821
2520.00 -67.54919017  17.20559854
2522.00 -67.65641865  17.24509584
2524.00 -67.76371351  17.28465014
2526.00 -67.87107472  17.32426146
2528.00 -67.97850224  17.36392984
2530.00 -68.08599602  17.40365530
2532.00 -68.19355602  17.44343787
2534.00 -68.30118221  17.48327759
2536.00 -68.40887455  17.52317447
2538.00 -68.51663299  17.56312855
2540.00 -68.62445750  17.60313985
2542.00 -68.73234804  17.64320841
2544.00 -68.84030457  17.68333425
2546.00 -68.94832704  17.72351739
2548.00 -69.05641542  17.76375788
2550.00 -69.16456967  17.80405573
2552.00 -69.27278975  17.84441097
2554.00 -69.38107562  17.88482364
2556.00 -69.48942724  17.92529376
2558.00 -69.59784456  17.96582135
2560.00 -69.70632756  18.00640645
2562.00 -69.81487619  18.04704909
2564.00 -69.92349041  18.08774929
2566.00 -70.03217017  18.12850707
2568.00 -70.14091545  18.16932248
2570.00 -70.24972620  18.21019552
2572.00 -70.35860238  18.25112625
2574.00 -70.46754395  18.29211467
2576.00 -70.57655087  18.33316082
2578.00 -70.68562310  18.37426472
2580.00 -70.79476060  18.41542641
2582.00 -70.90396334  18.45664591
2584.00 -71.01323126  18.49792325
2586.00 -71.12256434  18.53925846
2588.00 -71.23196253  18.58065156
2590.00 -71.34142579  18.62210257
2592.00 -71.45095408  18.66361154
2594.00 -71.56054736  18.70517849
2596.00 -71.67020559  18.74680343
2598.00 -71.77992874  18.78848641
2600.00 -71.88971675  18.83022745
2602.00 -71.99956960  18.87202656
2604.00 -72.10948724  18.91388380
2606.00 -72.21946962  18.95579917
2608.00 -72.32951672  18.99777270
2610.00 -72.43962849  19.03980444
2612.00 -72.54980490  19.08189439
2614.00 -72.66004589  19.12404259
2616.00 -72.77035143  19.16624906
2618.00 -72.88072148  19.20851384
2620.00 -72.99115600  19.25083694
2622.00 -73.10165496  19.29321840
2624.00 -73.21221830  19.33565824
2626.00 -73.32284599  19.37815649
2628.00 -73.43353799  19.42071318
2630.00 -73.54429426  19.46332832
2632.00 -73.65511476  19.50600196
2634.00 -73.76599944  19.54873412
2636.00 -73.87694828  19.59152481
2638.00 -73.98796122  19.63437408
2640.00 -74.09903823  19.67728194
2642.00 -74.21017927  19.72024843
2644.00 -74.32138430  19.76327356
2646.00 -74.43265327  19.80635737
2648.00 -74.54398615  19.84949988
2650.00 -74.65538289  19.89270112
2652.00 -74.76684346  19.93596111
2654.00 -74.87836782  19.97927989
2656.00 -74.98995592  20.02265747
2658.00 -75.10160773  20.06609389
2660.00 -75.21332319  20.10958916
2662.00 -75.32510229  20.15314333
2664.00 -75.43694496  20.19675640
2666.00 -75.54885118  20.24042841
2668.00 -75.66082091  20.28415939
2670.00 -75.77285409  20.32794936
2672.00 -75.88495069  20.37179835
2674.00 -75.99711068  20.41570638
2676.00 -76.10933401  20.45967347
2678.00 -76.22162063  20.50369967
2680.00 -76.33397052  20.54778498
2682.00 -76.44638362  20.59192944
2684.00 -76.55885991  20.63613307
2686.00 -76.67139933  20.68039590
2688.00 -76.78400185  20.72471795
2690.00 -76.89666742  20.76909926
2692.00 -77.00939602  20.81353984
2694.00 -77.12218758  20.85803972
2696.00 -77.23504208  20.90259892
2698.00 -77.34795948  20.94721748
2700.00 -77.46093973  20.99189542
2702.00 -77.57398279  21.03663276
2704.00 -77.68708863  21.08142953
2706.00 -77.80025720  21.12628576
2708.00 -77.91348845  21.17120146
2710.00 -78.02678236  21.21617667
2712.00 -78.14013888  21.26121141
2714.00 -78.25355797  21.30630571
2716.00 -78.36703958  21.35145958
2718.00 -78.48058368  21.39667307
2720.00 -78.59419023  21.44194619
2722.00 -78.70785919  21.48727896
2724.00 -78.82159051  21.53267142
2726.00 -78.93538416  21.57812358
2728.00 -79.04924009  21.62363547
2730.00 -79.16315826  21.66920713
2732.00 -79.27713863  21.71483856
2734.00 -79.39118117  21.76052981
2736.00 -79.50528582  21.80628088
2738.00 -79.61945256  21.85209182
2740.00 -79.73368133  21.89796263
2742.00 -79.84797211  21.94389336
2744.00 -79.96232484  21.98988401
2746.00 -80.07673948  22.03593462
2748.00 -80.19121600  22.08204522
2750.00 -80.30575436  22.12821582
2752.00 -80.42035451  22.17444645
2754.00 -80.53501641  22.22073714
2756.00 -80.64974003  22.26708791
2758.00 -80.76452531  22.31349878
2760.00 -80.87937223  22.35996978
2762.00 -80.99428073  22.40650094
2764.00 -81.10925078  22.45309227
2766.00 -81.22428234  22.49974381
2768.00 -81.33937537  22.54645558
2770.00 -81.45452982  22.59322759
2772.00 -81.56974565  22.64005989
2774.00 -81.68502283  22.68695248
2776.00 -81.80036131  22.73390540
2778.00 -81.91576105  22.78091867
2780.00 -82.03122201  22.82799231
2782.00 -82.14674415  22.87512635
2784.00 -82.26232742  22.92232081
2786.00 -82.37797180  22.96957572
2788.00 -82.49367723  23.01689109
2790.00 -82.60944367  23.06426696
2792.00 -82.72527109  23.11170335
2794.00 -82.84115944  23.15920028
2796.00 -82.95710868  23.20675778
2798.00 -83.07311877  23.25437586
2800.00 -83.18918967  23.30205456
2802.00 -83.30532134  23.34979390
2804.00 -83.42151374  23.39759390
2806.00 -83.53776682  23.44545458
2808.00 -83.65408055  23.49337597
2810.00 -83.77045488  23.54135810
2812.00 -83.88688977  23.58940098
2814.00 -84.00338518  23.63750464
2816.00 -84.11994107  23.68566910
2818.00 -84.23655740  23.73389440
2820.00 -84.35323413  23.78218054
2822.00 -84.46997121  23.83052755
2824.00 -84.58676861  23.87893547
2826.00 -84.70362628  23.92740430
2828.00 -84.82054419  23.97593408
2830.00 -84.93752228  24.02452483
2832.00 -85.05456053  24.07317657
2834.00 -85.17165888  24.12188932
2836.00 -85.28881731  24.17066311
2838.00 -85.40603575  24.21949797
2840.00 -85.52331418  24.26839390
2842.00 -85.64065256  24.31735095
2844.00 -85.75805084  24.36636912
2846.00 -85.87550897  24.41544845
2848.00 -85.99302693  24.46458895
2850.00 -86.11060467  24.51379066
2852.00 -86.22824214  24.56305359
2854.00 -86.34593930  24.61237776
2856.00 -86.46369612  24.66176320
2858.00 -86.58151256  24.71120993
2860.00 -86.69938856  24.76071798
2862.00 -86.81732410  24.81028737
2864.00 -86.93531912  24.85991811
2866.00 -87.05337359  24.90961024
2868.00 -87.17148746  24.95936377
2870.00 -87.28966070  25.00917873
2872.00 -87.40789326  25.05905515
2874.00 -87.52618510  25.10899303
2876.00 -87.64453618  25.15899241
2878.00 -87.76294646  25.20905331
2880.00 -87.88141590  25.25917576
2882.00 -87.99994445  25.30935976
2884.00 -88.11853208  25.35960535
2886.00 -88.23717874  25.40991256
2888.00 -88.35588439  25.46028139
2890.00 -88.47464898  25.51071187
2892.00 -88.59347249  25.56120403
2894.00 -88.71235486  25.61175789
2896.00 -88.83129606  25.66237347
2898.00 -88.95029604  25.71305079
2900.00 -89.06935476  25.76378988
2902.00 -89.18847218  25.81459075
2904.00 -89.30764826  25.86545343
2906.00 -89.42688296  25.91637795
2908.00 -89.54617623  25.96736431
2910.00 -89.66552803  26.01841255
2912.00 -89.78493833  26.06952269
2914.00 -89.90440708  26.12069475
2916.00 -90.02393424  26.17192875
2918.00 -90.14351976  26.22322471
2920.00 -90.26316361  26.27458265
2922.00 -90.38286574  26.32600260
2924.00 -90.50262612  26.37748458
2926.00 -90.62244470  26.42902862
2928.00 -90.74232143  26.48063472
2930.00 -90.86225629  26.53230291
2932.00 -90.98224922  26.58403322
2934.00 -91.10230018  26.63582567
2936.00 -91.22240914  26.68768028
2938.00 -91.34257604  26.73959706
2940.00 -91.46280086  26.79157605
2942.00 -91.58308354  26.84361726
2944.00 -91.70342405  26.89572071
2946.00 -91.82382234  26.94788643
2948.00 -91.94427838  27.00011444
2950.00 -92.06479211  27.05240475
2952.00 -92.18536351  27.10475740
2954.00 -92.30599252  27.15717239
2956.00 -92.42667911  27.20964976
2958.00 -92.54742323  27.26218952
2960.00 -92.66822484  27.31479170
2962.00 -92.78908390  27.36745631
2964.00 -92.91000037  27.42018338
2966.00 -93.03097420  27.47297292
2968.00 -93.15200536  27.52582497
2970.00 -93.27309381  27.57873953
2972.00 -93.39423949  27.63171664
2974.00 -93.51544238  27.68475631
2976.00 -93.63670242  27.73785856
2978.00 -93.75801957  27.79102341
2980.00 -93.87939380  27.84425089
2982.00 -94.00082506  27.89754102
2984.00 -94.12231332  27.95089381
2986.00 -94.24385852  28.00430928
2988.00 -94.36546062  28.05778747
2990.00 -94.48711959  28.11132838
2992.00 -94.60883539  28.16493204
2994.00 -94.73060796  28.21859847
2996.00 -94.85243728  28.27232770
2998.00 -94.97432329  28.32611973
3000.00 -95.09626595  28.37997459
3002.00 -95.21826523  28.43389230
3004.00 -95.34032108  28.48787289
3006.00 -95.46243346  28.54191637
3008.00 -95.58460233  28.59602276
3010.00 -95.70682764  28.65019208
3012.00 -95.82910936  28.70442436
3014.00 -95.95144743  28.75871961
3016.00 -96.07384183  28.81307785
3018.00 -96.19629251  28.86749911
3020.00 -96.31879942  28.92198340
3022.00 -96.44136252  28.97653075
3024.00 -96.56398178  29.03114117
3026.00 -96.68665715  29.08581468
3028.00 -96.80938858  29.14055131
3030.00 -96.93217604  29.19535108
3032.00 -97.05501949  29.25021400
3034.00 -97.17791888  29.30514009
3036.00 -97.30087416  29.36012937
3038.00 -97.42388531  29.41518188
3040.00 -97.54695227  29.47029761
3042.00 -97.67007501  29.52547660
3044.00 -97.79325348  29.58071886
3046.00 -97.91648763  29.63602442
3048.00 -98.03977744  29.69139328
3050.00 -98.16312285  29.74682548
3052.00 -98.28652383  29.80232104
3054.00 -98.40998033  29.85787996
3056.00 -98.53349230  29.91350228
3058.00 -98.65705972  29.96918800
3060.00 -98.78068253  30.02493716
3062.00 -98.90436070  30.08074977
3064.00 -99.02809417  30.13662584
3066.00 -99.15188292  30.19256540
3068.00 -99.27572689  30.24856848
3070.00 -99.39962605  30.30463508
3072.00 -99.52358036  30.36076522
3074.00 -99.64758976  30.41695893
3076.00 -99.77165422  30.47321623
3078.00 -99.89577370  30.52953713
3080.00 -100.01994816  30.58592165
3082.00 -100.14417755  30.64236982
3084.00 -100.26846183  30.69888165
3086.00 -100.39280095  30.75545716
3088.00 -100.51719489  30.81209636
3090.00 -100.64164359  30.86879929
3092.00 -100.76614701  30.92556595
3094.00 -100.89070511  30.98239637
3096.00 -101.01531785  31.03929057
3098.00 -101.13998518  31.09624856
3100.00 -101.26470707  31.15327036
3102.00 -101.38948347  31.21035600
3104.00 -101.51431434  31.26750548
3106.00 -101.63919963  31.32471884
3108.00 -101.76413931  31.38199608
3110.00 -101.88913334  31.43933723
3112.00 -102.01418166  31.49674230
3114.00 -102.13928425  31.55421132
3116.00 -102.26444105  31.61174430
3118.00 -102.38965202  31.66934126
3120.00 -102.51491712  31.72700222
3122.00 -102.64023632  31.78472720
3124.00 -102.76560956  31.84251621
3126.00 -102.89103681  31.90036928
3128.00 -103.01651802  31.95828642
3130.00 -103.14205315  32.01626765
3132.00 -103.26764216  32.07431300
3134.00 -103.39328501  32.13242247
3136.00 -103.51898165  32.19059608
3138.00 -103.64473204  32.24883386
3140.00 -103.77053615  32.30713582
3142.00 -103.89639392  32.36550199
3144.00 -104.02230531  32.42393237
3146.00 -104.14827029  32.48242699
3148.00 -104.27428881  32.54098586
3150.00 -104.40036083  32.59960900
3152.00 -104.52648630  32.65829644
3154.00 -104.65266519  32.71704818
3156.00 -104.77889745  32.77586425
3158.00 -104.90518304  32.83474466
3160.00 -105.03152192  32.89368944
3162.00 -105.15791404  32.95269859
3164.00 -105.28435936  33.01177215
3166.00 -105.41085785  33.07091012
3168.00 -105.53740945  33.13011252
3170.00 -105.66401413  33.18937937
3172.00 -105.79067184  33.24871069
3174.00 -105.91738254  33.30810649
3176.00 -106.04414620  33.36756680
3178.00 -106.17096276  33.42709163
3180.00 -106.29783218  33.48668099
3182.00 -106.42475442  33.54633492
3184.00 -106.55172945  33.60605341
3186.00 -106.67875721  33.66583650
3188.00 -106.80583767  33.72568419
3190.00 -106.93297078  33.78559651
3192.00 -107.06015650  33.84557347
3194.00 -107.18739479  33.90561509
3196.00 -107.31468560  33.96572139
3198.00 -107.44202890  34.02589238
3200.00 -107.56942464  34.08612809
3202.00 -107.69687278  34.14642852
3204.00 -107.82437327  34.20679369
3206.00 -107.95192608  34.26722363
3208.00 -108.07953116  34.32771835
3210.00 -108.20718847  34.38827786
3212.00 -108.33489796  34.44890219
3214.00 -108.46265960  34.50959135
3216.00 -108.59047335  34.57034536
3218.00 -108.71833915  34.63116422
3220.00 -108.84625697  34.69204797
3222.00 -108.97422677  34.75299662
3224.00 -109.10224849  34.81401018
3226.00 -109.23032211  34.87508868
3228.00 -109.35844758  34.93623212
3230.00 -109.48662485  34.99744052
3232.00 -109.61485389  35.05871391
3234.00 -109.74313465  35.12005229
3236.00 -109.87146708  35.18145569
3238.00 -109.99985115  35.24292412
3240.00 -110.12828682  35.30445759
3242.00 -110.25677404  35.36605613
3244.00 -110.38531276  35.42771975
3246.00 -110.51390296  35.48944846
3248.00 -110.64254457  35.55124229
3250.00 -110.77123757  35.61310125
3252.00 -110.89998191  35.67502535
3254.00 -111.02877755  35.73701461
3256.00 -111.15762444  35.79906905
3258.00 -111.28652254  35.86118869
3260.00 -111.41547181  35.92337353
3262.00 -111.54447221  35.98562360
3264.00 -111.67352369  36.04793892
3266.00 -111.80262622  36.11031949
3268.00 -111.93177975  36.17276534
3270.00 -112.06098423  36.23527647
3272.00 -112.19023963  36.29785292
3274.00 -112.31954590  36.36049468
3276.00 -112.44890301  36.42320178
3278.00 -112.57831090  36.48597424
3280.00 -112.70776954  36.54881207
3282.00 -112.83727888  36.61171528
3284.00 -112.96683888  36.67468389
3286.00 -113.09644950  36.73771792
3288.00 -113.22611069  36.80081739
3290.00 -113.35582242  36.86398230
3292.00 -113.48558464  36.92721268
3294.00 -113.61539731  36.99050853
3296.00 -113.74526038  37.05386988
3298.00 -113.87517382  37.11729674
3300.00 -114.00513758  37.18078913
3302.00 -114.13515161  37.24434706
3304.00 -114.26521589  37.30797055
3306.00 -114.39533035  37.37165960
3308.00 -114.52549497  37.43541425
3310.00 -114.65570970  37.49923450
3312.00 -114.78597450  37.56312037
3314.00 -114.91628931  37.62707187
3316.00 -115.04665411  37.69108902
3318.00 -115.17706885  37.75517184
3320.00 -115.30753349  37.81932033
3322.00 -115.43804798  37.88353452
3324.00 -115.56861228  37.94781442
3326.00 -115.69922635  38.01216004
3328.00 -115.82989015  38.07657140
3330.00 -115.96060363  38.14104852
3332.00 -116.09136676  38.20559140
3334.00 -116.22217948  38.27020007
3336.00 -116.35304176  38.33487454
3338.00 -116.48395355  38.39961483
3340.00 -116.61491482  38.46442094
3342.00 -116.74592552  38.52929290
3344.00 -116.87698560  38.59423071
3346.00 -117.00809503  38.65923440
3348.00 -117.13925376  38.72430398
3350.00 -117.27046175  38.78943946
3352.00 -117.40171896  38.85464086
3354.00 -117.53302534  38.91990819
3356.00 -117.66438085  38.98524146
3358.00 -117.79578545  39.05064070
3360.00 -117.92723911  39.11610591
3362.00 -118.05874176  39.18163712
3364.00 -118.19029338  39.24723432
3366.00 -118.32189392  39.31289755
3368.00 -118.45354333  39.37862681
3370.00 -118.58524158  39.44442212
3372.00 -118.71698862  39.51028349
3374.00 -118.84878442  39.57621093
3376.00 -118.98062892  39.64220447
3378.00 -119.11252208  39.70826411
3380.00 -119.24446387  39.77438987
3382.00 -119.37645424  39.84058176
3384.00 -119.50849314  39.90683980
3386.00 -119.64058054  39.97316400
3388.00 -119.77271639  40.03955438
3390.00 -119.90490065  40.10601095
3392.00 -120.03713328  40.17253372
3394.00 -120.16941424  40.23912270
3396.00 -120.30174348  40.30577792
3398.00 -120.43412096  40.37249938
3400.00 -120.56654663  40.43928711
3402.00 -120.69902046  40.50614110
3404.00 -120.83154240  40.57306138
3406.00 -120.96411242  40.64004796
3408.00 -121.09673046  40.70710086
3410.00 -121.22939648  40.77422008
3412.00 -121.36211045  40.84140565
3414.00 -121.49487232  40.90865757
3416.00 -121.62768205  40.97597585
3418.00 -121.76053959  41.04336052
3420.00 -121.89344491  41.11081159
3422.00 -122.02639795  41.17832907
3424.00 -122.15939869  41.24591296
3426.00 -122.29244706  41.31356330
3428.00 -122.42554305  41.38128008
3430.00 -122.55868659  41.44906333
3432.00 -122.69187765  41.51691305
3434.00 -122.82511618  41.58482926
3436.00 -122.95840215  41.65281198
3438.00 -123.09173551  41.72086121
3440.00 -123.22511622  41.78897697
3442.00 -123.35854423  41.85715927
3444.00 -123.49201950  41.92540813
3446.00 -123.62554200  41.99372355
3448.00 -123.75911167  42.06210556
3450.00 -123.89272848  42.13055417
3452.00 -124.02639239  42.19906938
3454.00 -124.16010334  42.26765121
3456.00 -124.29386130  42.33629968
3458.00 -124.42766623  42.40501479
3460.00 -124.56151808  42.47379656
3462.00 -124.69541681  42.54264500
3464.00 -124.82936238  42.61156013
3466.00 -124.96335474  42.68054196
3468.00 -125.09739386  42.74959050
3470.00 -125.23147969  42.81870576
3472.00 -125.36561219  42.88788776
3474.00 -125.49979131  42.95713650
3476.00 -125.63401702  43.02645201
3478.00 -125.76828927  43.09583429
3480.00 -125.90260802  43.16528336
3482.00 -126.03697322  43.23479923
3484.00 -126.17138484  43.30438191
3486.00 -126.30584282  43.37403141
3488.00 -126.44034714  43.44374776
3490.00 -126.57489774  43.51353094
3492.00 -126.70949459  43.58338099
3494.00 -126.84413764  43.65329792
3496.00 -126.97882685  43.72328173
3498.00 -127.11356217  43.79333244
3500.00 -127.24834357  43.86345006
3502.00 -127.38317100  43.93363460
3504.00 -127.51804441  44.00388607
3506.00 -127.65296378  44.07420450
3508.00 -127.78792905  44.14458988
3510.00 -127.92294018  44.21504223
3512.00 -128.05799713  44.28556157
3514.00 -128.19309985  44.35614790
3516.00 -128.32824832  44.42680124
3518.00 -128.46344247  44.49752160
3520.00 -128.59868227  44.56830899
3522.00 -128.73396768  44.63916343
3524.00 -128.86929866  44.71008491
3526.00 -129.00467515  44.78107347
3528.00 -129.14009713  44.85212910
3530.00 -129.27556454  44.92325183
3532.00 -129.41107735  44.99444165
3534.00 -129.54663552  45.06569859
3536.00 -129.68223899  45.13702266
3538.00 -129.81788773  45.20841386
3540.00 -129.95358169  45.27987221
3542.00 -130.08932084  45.35139772
3544.00 -130.22510513  45.42299040
3546.00 -130.36093451  45.49465027
3548.00 -130.49680896  45.56637733
3550.00 -130.63272841  45.63817160
3552.00 -130.76869284  45.71003308
3554.00 -130.90470219  45.78196179
3556.00 -131.04075643  45.85395775
3558.00 -131.17685552  45.92602095
3560.00 -131.31299940  45.99815142
3562.00 -131.44918804  46.07034916
3564.00 -131.58542140  46.14261419
3566.00 -131.72169944  46.21494651
3568.00 -131.85802211  46.28734615
3570.00 -131.99438936  46.35981310
3572.00 -132.13080116  46.43234738
3574.00 -132.26725747  46.50494900
3576.00 -132.40375824  46.57761798
3578.00 -132.54030343  46.65035431
3580.00 -132.67689299  46.72315803
3582.00 -132.81352689  46.79602912
3584.00 -132.95020509  46.86896761
3586.00 -133.08692753  46.94197351
3588.00 -133.22369418  47.01504683
3590.00 -133.36050500  47.08818758
3592.00 -133.49735994  47.16139576
3594.00 -133.63425896  47.23467140
3596.00 -133.77120202  47.30801449
3598.00 -133.90818907  47.38142506
3600.00 -134.04522008  47.45490311
3602.00 -134.18229500  47.52844865
3604.00 -134.31941379  47.60206169
3606.00 -134.45657641  47.67574225
3608.00 -134.59378281  47.74949034
3610.00 -134.73103295  47.82330595
3612.00 -134.86832679  47.89718912
3614.00 -135.00566429  47.97113984
3616.00 -135.14304541  48.04515812
3618.00 -135.28047010  48.11924398
3620.00 -135.41793831  48.19339743
3622.00 -135.55545002  48.26761848
3624.00 -135.69300517  48.34190713
3626.00 -135.83060373  48.41626340
3628.00 -135.96824564  48.49068730
3630.00 -136.10593088  48.56517884
3632.00 -136.24365939  48.63973802
3634.00 -136.38143113  48.71436487
3636.00 -136.51924607  48.78905938
3638.00 -136.65710416  48.86382157
3640.00 -136.79500535  48.93865145
3642.00 -136.93294961  49.01354903
3644.00 -137.07093689  49.08851431
3646.00 -137.20896715  49.16354732
3648.00 -137.34704035  49.23864805
3650.00 -137.48515645  49.31381653
3652.00 -137.62331540  49.38905275
3654.00 -137.76151716  49.46435672
3656.00 -137.89976169  49.53972847
3658.00 -138.03804895  49.61516799
3660.00 -138.17637889  49.69067530
3662.00 -138.31475147  49.76625041
3664.00 -138.45316666  49.84189332
3666.00 -138.59162440  49.91760405
3668.00 -138.73012466  49.99338261
3670.00 -138.86866739  50.06922900
3672.00 -139.00725255  50.14514323
3674.00 -139.14588010  50.22112532
3676.00 -139.28455000  50.29717528
3678.00 -139.42326220  50.37329310
3680.00 -139.56201666  50.44947881
3682.00 -139.70081335  50.52573242
3684.00 -139.83965221  50.60205392
3686.00 -139.97853321  50.67844333
3688.00 -140.11745630  50.75490067
3690.00 -140.25642144  50.83142593
3692.00 -140.39542859  50.90801913
3694.00 -140.53447770  50.98468028
3696.00 -140.67356875  51.06140938
3698.00 -140.81270167  51.13820646
3700.00 -140.95187643  51.21507150
3702.00 -141.09109300  51.29200453
3704.00 -141.23035131  51.36900556
3706.00 -141.36965134  51.44607458
3708.00 -141.50899305  51.52321162
3710.00 -141.64837638  51.60041668
3712.00 -141.78780130  51.67768976
3714.00 -141.92726776  51.75503089
3716.00 -142.06677573  51.83244006
3718.00 -142.20632516  51.90991728
3720.00 -142.34591600  51.98746257
3722.00 -142.48554822  52.06507594
3724.00 -142.62522178  52.14275738
3726.00 -142.76493663  52.22050692
3728.00 -142.90469273  52.29832455
3730.00 -143.04449003  52.37621029
3732.00 -143.18432851  52.45416415
3734.00 -143.32420810  52.53218614
3736.00 -143.46412878  52.61027625
3738.00 -143.60409049  52.68843451
3740.00 -143.74409321  52.76666092
3742.00 -143.88413688  52.84495549
3744.00 -144.02422146  52.92331823
3746.00 -144.16434691  53.00174914
3748.00 -144.30451320  53.08024824
3750.00 -144.44472026  53.15881552
3752.00 -144.58496808  53.23745101
3754.00 -144.72525659  53.31615471
3756.00 -144.86558577  53.39492663
3758.00 -145.00595557  53.47376677
3760.00 -145.14636594  53.55267514
3762.00 -145.28681685  53.63165176
3764.00 -145.42730824  53.71069663
3766.00 -145.56784009  53.78980975
3768.00 -145.70841235  53.86899114
3770.00 -145.84902498  53.94824081
3772.00 -145.98967792  54.02755875
3774.00 -146.13037115  54.10694499
3776.00 -146.27110463  54.18639952
3778.00 -146.41187829  54.26592237
3780.00 -146.55269212  54.34551352
3782.00 -146.69354606  54.42517300
3784.00 -146.83444007  54.50490080
3786.00 -146.97537411  54.58469694
3788.00 -147.11634814  54.66456143
3790.00 -147.25736212  54.74449427
3792.00 -147.39841600  54.82449547
3794.00 -147.53950974  54.90456504
3796.00 -147.68064331  54.98470299
3798.00 -147.82181665  55.06490931
3800.00 -147.96302973  55.14518403
3802.00 -148.10428250  55.22552715
3804.00 -148.24557493  55.30593867
3806.00 -148.38690696  55.38641861
3808.00 -148.52827857  55.46696697
3810.00 -148.66968970  55.54758375
3812.00 -148.81114031  55.62826897
3814.00 -148.95263037  55.70902264
3816.00 -149.09415983  55.78984475
3818.00 -149.23572865  55.87073532
3820.00 -149.37733679  55.95169436
3822.00 -149.51898420  56.03272187
3824.00 -149.66067084  56.11381786
3826.00 -149.80239668  56.19498233
3828.00 -149.94416166  56.27621530
3830.00 -150.08596576  56.35751677
3832.00 -150.22780892  56.43888675
3834.00 -150.36969110  56.52032524
3836.00 -150.51161227  56.60183225
3838.00 -150.65357237  56.68340780
3840.00 -150.79557137  56.76505188
3842.00 -150.93760924  56.84676450
3844.00 -151.07968591  56.92854567
3846.00 -151.22180136  57.01039540
3848.00 -151.36395554  57.09231369
3850.00 -151.50614841  57.17430055
3852.00 -151.64837992  57.25635599
3854.00 -151.79065004  57.33848002
3856.00 -151.93295873  57.42067263
3858.00 -152.07530594  57.50293384
3860.00 -152.21769162  57.58526366
3862.00 -152.36011575  57.66766208
3864.00 -152.50257827  57.75012913
3866.00 -152.64507915  57.83266479
3868.00 -152.78761834  57.91526909
3870.00 -152.93019580  57.99794202
3872.00 -153.07281149  58.08068360
3874.00 -153.21546537  58.16349383
3876.00 -153.35815740  58.24637271
3878.00 -153.50088753  58.32932026
3880.00 -153.64365572  58.41233648
3882.00 -153.78646193  58.49542137
3884.00 -153.92930613  58.57857494
3886.00 -154.07218826  58.66179720
3888.00 -154.21510828  58.74508816
3890.00 -154.35806616  58.82844781
3892.00 -154.50106185  58.91187618
3894.00 -154.64409532  58.99537325
3896.00 -154.78716651  59.07893905
3898.00 -154.93027539  59.16257357
3900.00 -155.07342191  59.24627682
3902.00 -155.21660604  59.33004881
3904.00 -155.35982773  59.41388954
3906.00 -155.50308695  59.49779902
3908.00 -155.64638364  59.58177725
3910.00 -155.78971777  59.66582425
3912.00 -155.93308929  59.74994001
3914.00 -156.07649817  59.83412455
3916.00 -156.21994436  59.91837787
3918.00 -156.36342782  60.00269997
3920.00 -156.50694851  60.08709086
3922.00 -156.65050639  60.17155055
3924.00 -156.79410142  60.25607903
3926.00 -156.93773355  60.34067633
3928.00 -157.08140274  60.42534244
3930.00 -157.22510895  60.51007737
3932.00 -157.36885215  60.59488112
3934.00 -157.51263228  60.67975370
3936.00 -157.65644931  60.76469512
3938.00 -157.80030319  60.84970538
3940.00 -157.94419389  60.93478449
3942.00 -158.08812136  61.01993245
3944.00 -158.23208556  61.10514926
3946.00 -158.37608645  61.19043494
3948.00 -158.52012399  61.27578949
3950.00 -158.66419813  61.36121291
3952.00 -158.80830884  61.44670521
3954.00 -158.95245607  61.53226639
3956.00 -159.09663978  61.61789647
3958.00 -159.24085993  61.70359544
3960.00 -159.38511648  61.78936330
3962.00 -159.52940939  61.87520008
3964.00 -159.67373861  61.96110576
3966.00 -159.81810411  62.04708036
3968.00 -159.96250584  62.13312388
3970.00 -160.10694377  62.21923632
3972.00 -160.25141784  62.30541770
3974.00 -160.39592802  62.39166801
3976.00 -160.54047427  62.47798726
3978.00 -160.68505654  62.56437546
3980.00 -160.82967480  62.65083260
3982.00 -160.97432900  62.73735871
3984.00 -161.11901910  62.82395377
3986.00 -161.26374507  62.91061779
3988.00 -161.40850685  62.99735079
3990.00 -161.55330441  63.08415276
3992.00 -161.69813770  63.17102371
3994.00 -161.84300669  63.25796365
3996.00 -161.98791133  63.34497257
3998.00 -162.13285159  63.43205049
4000.00 -162.27782742  63.51919740
4002.00 -162.42283877  63.60641332
4004.00 -162.56788561  63.69369824
4006.00 -162.71296791  63.78105218
4008.00 -162.85808560  63.86847513
4010.00 -163.00323866  63.95596710
4012.00 -163.14842705  64.04352810
4014.00 -163.29365071  64.13115812
4016.00 -163.43890962  64.21885718
4018.00 -163.58420372  64.30662528
4020.00 -163.72953298  64.39446242
4022.00 -163.87489736  64.48236861
4024.00 -164.02029682  64.57034385
4026.00 -164.16573131  64.65838814
4028.00 -164.31120079  64.74650149
4030.00 -164.45670522  64.83468391
4032.00 -164.60224457  64.92293540
4034.00 -164.74781878  65.01125595
4036.00 -164.89342782  65.09964559
4038.00 -165.03907165  65.18810430
4040.00 -165.18475022  65.27663210
4042.00 -165.33046350  65.36522899
4044.00 -165.47621145  65.45389496
4046.00 -165.62199401  65.54263004
4048.00 -165.76781116  65.63143421
4050.00 -165.91366285  65.72030749
4052.00 -166.05954903  65.80924988
4054.00 -166.20546968  65.89826138
4056.00 -166.35142474  65.98734199
4058.00 -166.49741417  66.07649173
4060.00 -166.64343794  66.16571059
4062.00 -166.78949601  66.25499857
4064.00 -166.93558832  66.34435569
4066.00 -167.08171485  66.43378194
4068.00 -167.22787555  66.52327732
4070.00 -167.37407038  66.61284185
4072.00 -167.52029929  66.70247553
4074.00 -167.66656226  66.79217835
4076.00 -167.81285923  66.88195033
4078.00 -167.95919016  66.97179146
4080.00 -168.10555502  67.06170175
4082.00 -168.25195376  67.15168120
4084.00 -168.39838634  67.24172982
4086.00 -168.54485273  67.33184761
4088.00 -168.69135287  67.42203457
4090.00 -168.83788674  67.51229071
4092.00 -168.98445428  67.60261603
4094.00 -169.13105546  67.69301053
4096.00 -169.27769023  67.78347422
4098.00 -169.42435857  67.87400710
4100.00 -169.57106041  67.96460917
4102.00 -169.71779573  68.05528044
4104.00 -169.86456448  68.14602090
4106.00 -170.01136663  68.23683057
4108.00 -170.15820212  68.32770944
4110.00 -170.30507093  68.41865752
4112.00 -170.45197300  68.50967481
4114.00 -170.59890830  68.60076132
4116.00 -170.74587679  68.69191704
4118.00 -170.89287843  68.78314199
4120.00 -171.03991317  68.87443615
4122.00 -171.18698098  68.96579955
4124.00 -171.33408181  69.05723217
4126.00 -171.48121562  69.14873402
4128.00 -171.62838238  69.24030511
4130.00 -171.77558203  69.33194544
4132.00 -171.92281455  69.42365500
4134.00 -172.07007989  69.51543381
4136.00 -172.21737801  69.60728186
4138.00 -172.36470887  69.69919917
4140.00 -172.51207242  69.79118572
4142.00 -172.65946863  69.88324153
4144.00 -172.80689746  69.97536659
4146.00 -172.95435886  70.06756091
4148.00 -173.10185280  70.15982450
4150.00 -173.24937923  70.25215734
4152.00 -173.39693812  70.34455946
4154.00 -173.54452942  70.43703084
4156.00 -173.69215309  70.52957149
4158.00 -173.83980909  70.62218142
4160.00 -173.98749738  70.71486062
4162.00 -174.13521793  70.80760910
4164.00 -174.28297068  70.90042686
4166.00 -174.43075560  70.99331391
4168.00 -174.57857265  71.08627024
4170.00 -174.72642179  71.17929585
4172.00 -174.87430297  71.27239076
4174.00 -175.02221616  71.36555496
4176.00 -175.17016132  71.45878845
4178.00 -175.31813840  71.55209124
4180.00 -175.46614736  71.64546332
4182.00 -175.61418817  71.73890471
4184.00 -175.76226079  71.83241540
4186.00 -175.91036516  71.92599539
4188.00 -176.05850126  72.01964469
4190.00 -176.20666904  72.11336329
4192.00 -176.35486847  72.20715121
4194.00 -176.50309949  72.30100844
4196.00 -176.65136207  72.39493498
4198.00 -176.79965618  72.48893084
4200.00 -176.94798176  72.58299602
4202.00 -177.09633878  72.67713052
4204.00 -177.24472720  72.77133433
4206.00 -177.39314698  72.86560747
4208.00 -177.54159808  72.95994994
4210.00 -177.69008045  73.05436173
4212.00 -177.83859406  73.14884285
4214.00 -177.98713887  73.24339330
4216.00 -178.13571483  73.33801308
4218.00 -178.28432191  73.43270219
4220.00 -178.43296007  73.52746064
4222.00 -178.58162925  73.62228842
4224.00 -178.73032944  73.71718554
4226.00 -178.87906057  73.81215200
4228.00 -179.02782263  73.90718780
4230.00 -179.17661555  74.00229294
4232.00 -179.32543931  74.09746742
4234.00 -179.47429386  74.19271125
4236.00 -179.62317916  74.28802443
4238.00 -179.77209518  74.38340695
4240.00 -179.92104186  74.47885882
4242.00 -180.07001918  74.57438004
4244.00 -180.21902709  74.66997061
4246.00 -180.36806556  74.76563054
4248.00 -180.51713453  74.86135981
4250.00 -180.66623397  74.95715845
4252.00 -180.81536385  75.05302643
4254.00 -180.96452411  75.14896378
4256.00 -181.11371472  75.24497048
4258.00 -181.26293565  75.34104654
4260.00 -181.41218684  75.43719196
4262.00 -181.56146826  75.53340674
4264.00 -181.71077988  75.62969089
4266.00 -181.86012164  75.72604439
4268.00 -182.00949351  75.82246726
4270.00 -182.15889545  75.91895950
4272.00 -182.30832742  76.01552110
4274.00 -182.45778937  76.11215206
4276.00 -182.60728128  76.20885239
4278.00 -182.75680309  76.30562210
4280.00 -182.90635478  76.40246117
4282.00 -183.05593629  76.49936960
4284.00 -183.20554759  76.59634741
4286.00 -183.35518863  76.69339459
4288.00 -183.50485939  76.79051114
4290.00 -183.65455981  76.88769707
4292.00 -183.80428987  76.98495236
4294.00 -183.95404951  77.08227703
4296.00 -184.10383870  77.17967108
4298.00 -184.25365739  77.27713449
4300.00 -184.40350556  77.37466728
4302.00 -184.55338315  77.47226945
4304.00 -184.70329013  77.56994099
4306.00 -184.85322646  77.66768191
4308.00 -185.00319210  77.76549221
4310.00 -185.15318700  77.86337188
4312.00 -185.30321114  77.96132093
4314.00 -185.45326446  78.05933936
4316.00 -185.60334693  78.15742716
4318.00 -185.75345851  78.25558434
4320.00 -185.90359916  78.35381090
4322.00 -186.05376884  78.45210684
4324.00 -186.20396751  78.55047216
4326.00 -186.35419513  78.64890685
4328.00 -186.50445166  78.74741093
4330.00 -186.65473705  78.84598438
4332.00 -186.80505128  78.94462722
4334.00 -186.95539430  79.04333943
4336.00 -187.10576607  79.14212102
4338.00 -187.25616654  79.24097199
4340.00 -187.40659569  79.33989234
4342.00 -187.55705347  79.43888207
4344.00 -187.70753984  79.53794118
4346.00 -187.85805477  79.63706966
4348.00 -188.00859820  79.73626753
4350.00 -188.15917011  79.83553477
4352.00 -188.30977045  79.93487139
4354.00 -188.46039918  80.03427739
4356.00 -188.61105627  80.13375277
4358.00 -188.76174166  80.23329752
4360.00 -188.91245534  80.33291166
4362.00 -189.06319724  80.43259517
4364.00 -189.21396734  80.53234805
4366.00 -189.36476560  80.63217032
4368.00 -189.51559197  80.73206195
4370.00 -189.66644642  80.83202297
4372.00 -189.81732890  80.93205336
4374.00 -189.96823938  81.03215312
4376.00 -190.11917782  81.13232226
4378.00 -190.27014417  81.23256077
4380.00 -190.42113840  81.33286865
4382.00 -190.57216047  81.43324591
4384.00 -190.72321034  81.53369254
4386.00 -190.87428797  81.63420854
4388.00 -191.02539331  81.73479391
4390.00 -191.17652634  81.83544865
4392.00 -191.32768701  81.93617276
4394.00 -191.47887528  82.03696624
4396.00 -191.63009111  82.13782909
4398.00 -191.78133446  82.23876130
4400.00 -191.93260530  82.33976288
4402.00 -192.08390358  82.44083382
4404.00 -192.23522926  82.54197413
4406.00 -192.38658231  82.64318380
4408.00 -192.53796269  82.74446284
4410.00 -192.68937035  82.84581124
4412.00 -192.84080525  82.94722900
4414.00 -192.99226737  83.04871611
4416.00 -193.14375665  83.15027259
4418.00 -193.29527306  83.25189842
4420.00 -193.44681656  83.35359362
4422.00 -193.59838711  83.45535816
4424.00 -193.74998467  83.55719206
4426.00 -193.90160920  83.65909532
4428.00 -194.05326066  83.76106793
4430.00 -194.20493902  83.86310988
4432.00 -194.35664423  83.96522119
4434.00 -194.50837625  84.06740185
4436.00 -194.66013505  84.16965185
4438.00 -194.81192059  84.27197121
4440.00 -194.96373282  84.37435990
4442.00 -195.11557171  84.47681794
4444.00 -195.26743721  84.57934532
4446.00 -195.41932930  84.68194204
4448.00 -195.57124793  84.78460810
4450.00 -195.72319305  84.88734350
4452.00 -195.87516464  84.99014824
4454.00 -196.02716265  85.09302231
4456.00 -196.17918705  85.19596571
4458.00 -196.33123779  85.29897845
4460.00 -196.48331483  85.40206052
4462.00 -196.63541814  85.50521191
4464.00 -196.78754768  85.60843264
4466.00 -196.93970340  85.71172268
4468.00 -197.09188528  85.81508206
4470.00 -197.24409326  85.91851075
4472.00 -197.39632731  86.02200877
4474.00 -197.54858740  86.12557610
4476.00 -197.70087348  86.22921275
4478.00 -197.85318551  86.33291872
4480.00 -198.00552346  86.43669400
4482.00 -198.15788729  86.54053859
4484.00 -198.31027695  86.64445249
4486.00 -198.46269241  86.74843570
4488.00 -198.61513363  86.85248821
4490.00 -198.76760057  86.95661003
4492.00 -198.92009319  87.06080116
4494.00 -199.07261145  87.16506158
4496.00 -199.22515532  87.26939130
4498.00 -199.37772475  87.37379031
4500.00 -199.53031971  87.47825862
4502.00 -199.68294015  87.58279623
4504.00 -199.83558604  87.68740312
4506.00 -199.98825735  87.79207930
4508.00 -200.14095402  87.89682477
4510.00 -200.29367602  88.00163951
4512.00 -200.44642332  88.10652355
4514.00 -200.59919588  88.21147685
4516.00 -200.75199364  88.31649944
4518.00 -200.90481659  88.42159130
4520.00 -201.05766467  88.52675244
4522.00 -201.21053785  88.63198284
4524.00 -201.36343609  88.73728251
4526.00 -201.51635936  88.84265145
4528.00 -201.66930761  88.94808965
4530.00 -201.82228080  89.05359711
4532.00 -201.97527890  89.15917382
4534.00 -202.12830186  89.26481980
4536.00 -202.28134966  89.37053502
4538.00 -202.43442224  89.47631950
4540.00 -202.58751958  89.58217323
4542.00 -202.74064163  89.68809620
4544.00 -202.89378835  89.79408841
4546.00 -203.04695971  89.90014986
4548.00 -203.20015567  90.00628056
4550.00 -203.35337618  90.11248048
4552.00 -203.50662122  90.21874964
4554.00 -203.65989073  90.32508803
4556.00 -203.81318469  90.43149564
4558.00 -203.96650306  90.53797248
4560.00 -204.11984579  90.64451854
4562.00 -204.27321285  90.75113382
4564.00 -204.42660419  90.85781832
4566.00 -204.58001979  90.96457203
4568.00 -204.73345960  91.07139494
4570.00 -204.88692359  91.17828707
4572.00 -205.04041171  91.28524840
4574.00 -205.19392392  91.39227893
4576.00 -205.34746020  91.49937866
4578.00 -205.50102049  91.60654758
4580.00 -205.65460477  91.71378570
4582.00 -205.80821299  91.82109300
4584.00 -205.96184512  91.92846950
4586.00 -206.11550111  92.03591517
4588.00 -206.26918094  92.14343002
4590.00 -206.42288455  92.25101406
4592.00 -206.57661191  92.35866726
4594.00 -206.73036299  92.46638964
4596.00 -206.88413775  92.57418118
4598.00 -207.03793614  92.68204189
4600.00 -207.19175813  92.78997176
4602.00 -207.34560368  92.89797078
4604.00 -207.49947276  93.00603896
4606.00 -207.65336532  93.11417629
4608.00 -207.80728132  93.22238277
4610.00 -207.96122074  93.33065840
4612.00 -208.11518352  93.43900316
4614.00 -208.26916963  93.54741706
4616.00 -208.42317904  93.65590010
4618.00 -208.57721171  93.76445226
4620.00 -208.73126759  93.87307356
4622.00 -208.88534666  93.98176397
4624.00 -209.03944886  94.09052351
4626.00 -209.19357417  94.19935216
4628.00 -209.34772254  94.30824993
4630.00 -209.50189394  94.41721680
4632.00 -209.65608833  94.52625278
4634.00 -209.81030567  94.63535786
4636.00 -209.96454592  94.74453205
4638.00 -210.11880905  94.85377532
4640.00 -210.27309502  94.96308769
4642.00 -210.42740378  95.07246914
4644.00 -210.58173531  95.18191968
4646.00 -210.73608956  95.29143929
4648.00 -210.89046650  95.40102799
4650.00 -211.04486608  95.51068575
4652.00 -211.19928828  95.62041258
4654.00 -211.35373304  95.73020848
4656.00 -211.50820034  95.84007344
4658.00 -211.66269014  95.95000745
4660.00 -211.81720239  96.06001052
4662.00 -211.97173707  96.17008263
4664.00 -212.12629413  96.28022379
4666.00 -212.28087353  96.39043399
4668.00 -212.43547524  96.50071323
4670.00 -212.59009922  96.61106149
4672.00 -212.74474543  96.72147879
4674.00 -212.89941383  96.83196511
4676.00 -213.05410439  96.94252045
4678.00 -213.20881707  97.05314481
4680.00 -213.36355183  97.16383818
4682.00 -213.51830864  97.27460055
4684.00 -213.67308745  97.38543193
4686.00 -213.82788822  97.49633231
4688.00 -213.98271093  97.60730168
4690.00 -214.13755553  97.71834004
4692.00 -214.29242198  97.82944739
4694.00 -214.44731026  97.94062372
4696.00 -214.60222031  98.05186903
4698.00 -214.75715210  98.16318331
4700.00 -214.91210560  98.27456656
4702.00 -215.06708076  98.38601878
4704.00 -215.22207756  98.49753995
4706.00 -215.37709594  98.60913008
4708.00 -215.53213588  98.72078916
4710.00 -215.68719734  98.83251719
4712.00 -215.84228028  98.94431416
4714.00 -215.99738465  99.05618006
4716.00 -216.15251044  99.16811490
4718.00 -216.30765759  99.28011867
4720.00 -216.46282607  99.39219136
4722.00 -216.61801584  99.50433296
4724.00 -216.77322686  99.61654349
4726.00 -216.92845911  99.72882292
4728.00 -217.08371253  99.84117125
4730.00 -217.23898710  99.95358849
4732.00 -217.39428277 100.06607462
4734.00 -217.54959951 100.17862964
4736.00 -217.70493728 100.29125355
4738.00 -217.86029604 100.40394633
4740.00 -218.01567576 100.51670800
4742.00 -218.17107640 100.62953853
4744.00 -218.32649792 100.74243793
4746.00 -218.48194028 100.85540619
4748.00 -218.63740345 100.96844331
4750.00 -218.79288739 101.08154928
4752.00 -218.94839207 101.19472409
4754.00 -219.10391744 101.30796775
4756.00 -219.25946346 101.42128024
4758.00 -219.41503011 101.53466156
4760.00 -219.57061734 101.64811171
4762.00 -219.72622512 101.76163068
4764.00 -219.88185341 101.87521847
4766.00 -220.03750217 101.98887506
4768.00 -220.19317136 102.10260046
4770.00 -220.34886096 102.21639467
4772.00 -220.50457091 102.33025766
4774.00 -220.66030119 102.44418945
4776.00 -220.81605176 102.55819002
4778.00 -220.97182258 102.67225937
4780.00 -221.12761361 102.78639750
4782.00 -221.28342481 102.90060439
4784.00 -221.43925616 103.01488005
4786.00 -221.59510760 103.12922446
4788.00 -221.75097912 103.24363763
4790.00 -221.90687066 103.35811955
4792.00 -222.06278219 103.47267020
4794.00 -222.21871367 103.58728960
4796.00 -222.37466508 103.70197772
4798.00 -222.53063636 103.81673457
4800.00 -222.68662749 103.93156014
4802.00 -222.84263842 104.04645442
4804.00 -222.99866913 104.16141741
4806.00 -223.15471956 104.27644911
4808.00 -223.31078970 104.39154950
4810.00 -223.46687949 104.50671859
4812.00 -223.62298891 104.62195636
4814.00 -223.77911791 104.73726281
4816.00 -223.93526646 104.85263794
4818.00 -224.09143452 104.96808173
4820.00 -224.24762206 105.08359419
4822.00 -224.40382904 105.19917531
4824.00 -224.56005542 105.31482508
4826.00 -224.71630117 105.43054350
4828.00 -224.87256624 105.54633055
4830.00 -225.02885061 105.66218624
4832.00 -225.18515423 105.77811056
4834.00 -225.34147708 105.89410350
4836.00 -225.49781910 106.01016506
4838.00 -225.65418027 106.12629523
4840.00 -225.81056055 106.24249401
4842.00 -225.96695990 106.35876138
4844.00 -226.12337829 106.47509735
4846.00 -226.27981568 106.59150190
4848.00 -226.43627203 106.70797504
4850.00 -226.59274730 106.82451675
4852.00 -226.74924147 106.94112703
4854.00 -226.90575449 107.05780587
4856.00 -227.06228633 107.17455327
4858.00 -227.21883695 107.29136921
4860.00 -227.37540631 107.40825371
4862.00 -227.53199438 107.52520674
4864.00 -227.68860112 107.64222830
4866.00 -227.84522650 107.75931839
4868.00 -228.00187047 107.87647700
4870.00 -228.15853301 107.99370412
4872.00 -228.31521407 108.11099975
4874.00 -228.47191362 108.22836388
4876.00 -228.62863163 108.34579651
4878.00 -228.78536805 108.46329762
4880.00 -228.94212285 108.58086722
4882.00 -229.09889599 108.69850528
4884.00 -229.25568745 108.81621182
4886.00 -229.41249717 108.93398682
4888.00 -229.56932513 109.05183028
4890.00 -229.72617130 109.16974219
4892.00 -229.88303562 109.28772254
4894.00 -230.03991807 109.40577132
4896.00 -230.19681861 109.52388854
4898.00 -230.35373720 109.64207418
4900.00 -230.51067382 109.76032823
4902.00 -230.66762841 109.87865070
4904.00 -230.82460095 109.99704157
4906.00 -230.98159140 110.11550084
4908.00 -231.13859973 110.23402849
4910.00 -231.29562589 110.35262454
4912.00 -231.45266986 110.47128895
4914.00 -231.60973159 110.59002174
4916.00 -231.76681105 110.70882289
4918.00 -231.92390820 110.82769240
4920.00 -232.08102301 110.94663026
4922.00 -232.23815544 111.06563646
4924.00 -232.39530546 111.18471100
4926.00 -232.55247303 111.30385387
4928.00 -232.70965811 111.42306506
4930.00 -232.86686067 111.54234456
4932.00 -233.02408067 111.66169238
4934.00 -233.18131808 111.78110849
4936.00 -233.33857285 111.90059291
4938.00 -233.49584497 112.02014560
4940.00 -233.65313437 112.13976659
4942.00 -233.81044105 112.25945584
4944.00 -233.96776495 112.37921336
4946.00 -234.12510604 112.49903914
4948.00 -234.28246428 112.61893318
4950.00 -234.43983964 112.73889546
4952.00 -234.59723209 112.85892597
4954.00 -234.75464159 112.97902472
4956.00 -234.91206809 113.09919170
4958.00 -235.06951158 113.21942689
4960.00 -235.22697200 113.33973029
4962.00 -235.38444933 113.46010190
4964.00 -235.54194353 113.58054170
4966.00 -235.69945456 113.70104969
4968.00 -235.85698239 113.82162585
4970.00 -236.01452698 113.94227020
4972.00 -236.17208830 114.06298271
4974.00 -236.32966631 114.18376338
4976.00 -236.48726098 114.30461220
4978.00 -236.64487227 114.42552916
4980.00 -236.80250014 114.54651426
4982.00 -236.96014456 114.66756749
4984.00 -237.11780549 114.78868885
4986.00 -237.27548290 114.90987832
4988.00 -237.43317675 115.03113589
4990.00 -237.59088701 115.15246157
4992.00 -237.74861364 115.27385534
4994.00 -237.90635661 115.39531719
4996.00 -238.06411587 115.51684712
4998.00 -238.22189141 115.63844512
5000.00 -238.37968317 115.76011118
