wavelength(nm)         real         imag
100.00   3.69246509   0.00198318
102.00   3.68408148   0.00210456
104.00   3.67553191   0.00223080
106.00   3.66681641   0.00236198
108.00   3.65793496   0.00249820
110.00   3.64888757   0.00263957
112.00   3.63967426   0.00278617
114.00   3.63029501   0.00293809
116.00   3.62074984   0.00309545
118.00   3.61103874   0.00325832
120.00   3.60116173   0.00342680
122.00   3.59111881   0.00360100
124.00   3.58090998   0.00378100
126.00   3.57053525   0.00396690
128.00   3.55999462   0.00415880
130.00   3.54928810   0.00435678
132.00   3.53841568   0.00456095
134.00   3.52737738   0.00477140
136.00   3.51617320   0.00498823
138.00   3.50480315   0.00521152
140.00   3.49326723   0.00544138
142.00   3.48156544   0.00567790
144.00   3.46969779   0.00592118
146.00   3.45766429   0.00617130
148.00   3.44546494   0.00642837
150.00   3.43309974   0.00669248
152.00   3.42056871   0.00696373
154.00   3.40787184   0.00724221
156.00   3.39500914   0.00752801
158.00   3.38198063   0.00782123
160.00   3.36878629   0.00812197
162.00   3.35542615   0.00843031
164.00   3.34190020   0.00874637
166.00   3.32820846   0.00907022
168.00   3.31435092   0.00940197
170.00   3.30032759   0.00974170
172.00   3.28613849   0.01008953
174.00   3.27178361   0.01044553
176.00   3.25726296   0.01080981
178.00   3.24257655   0.01118245
180.00   3.22772439   0.01156357
182.00   3.21270648   0.01195324
184.00   3.19752282   0.01235156
186.00   3.18217343   0.01275864
188.00   3.16665831   0.01317456
190.00   3.15097747   0.01359942
192.00   3.13513092   0.01403331
194.00   3.11911866   0.01447634
196.00   3.10294069   0.01492858
198.00   3.08659703   0.01539015
200.00   3.07008769   0.01586113
202.00   3.05341266   0.01634162
204.00   3.03657197   0.01683171
206.00   3.01956561   0.01733150
208.00   3.00239359   0.01784108
210.00   2.98505592   0.01836055
212.00   2.96755261   0.01889001
214.00   2.94988366   0.01942954
216.00   2.93204909   0.01997924
218.00   2.91404890   0.02053921
220.00   2.89588310   0.02110955
222.00   2.87755169   0.02169034
224.00   2.85905469   0.02228168
226.00   2.84039210   0.02288366
228.00   2.82156393   0.02349639
230.00   2.80257019   0.02411996
232.00   2.78341089   0.02475445
234.00   2.76408604   0.02539997
236.00   2.74459564   0.02605661
238.00   2.72493970   0.02672447
240.00   2.70511824   0.02740363
242.00   2.68513125   0.02809420
244.00   2.66497876   0.02879627
246.00   2.64466076   0.02950993
248.00   2.62417727   0.03023528
250.00   2.60352829   0.03097241
252.00   2.58271384   0.03172142
254.00   2.56173392   0.03248240
256.00   2.54058854   0.03325545
258.00   2.51927772   0.03404066
260.00   2.49780146   0.03483813
262.00   2.47615977   0.03564794
264.00   2.45435266   0.03647021
266.00   2.43238014   0.03730501
268.00   2.41024222   0.03815245
270.00   2.38793891   0.03901261
272.00   2.36547022   0.03988560
274.00   2.34283616   0.04077151
276.00   2.32003673   0.04167043
278.00   2.29707196   0.04258246
280.00   2.27394184   0.04350769
282.00   2.25064639   0.04444622
284.00   2.22718562   0.04539814
286.00   2.20355954   0.04636354
288.00   2.17976816   0.04734252
290.00   2.15581150   0.04833518
292.00   2.13168955   0.04934161
294.00   2.10740233   0.05036190
296.00   2.08294985   0.05139615
298.00   2.05833213   0.05244445
300.00   2.03354917   0.05350689
302.00   2.00860098   0.05458358
304.00   1.98348758   0.05567461
306.00   1.95820897   0.05678006
308.00   1.93276517   0.05790004
310.00   1.90715619   0.05903464
312.00   1.88138204   0.06018395
314.00   1.85544273   0.06134806
316.00   1.82933827   0.06252708
318.00   1.80306867   0.06372110
320.00   1.77663395   0.06493021
322.00   1.75003412   0.06615450
324.00   1.72326918   0.06739407
326.00   1.69633915   0.06864901
328.00   1.66924405   0.06991942
330.00   1.64198387   0.07120540
332.00   1.61455865   0.07250703
334.00   1.58696838   0.07382441
336.00   1.55921307   0.07515763
338.00   1.53129275   0.07650680
340.00   1.50320743   0.07787199
342.00   1.47495711   0.07925332
344.00   1.44654180   0.08065087
346.00   1.41796153   0.08206473
348.00   1.38921630   0.08349500
350.00   1.36030613   0.08494178
352.00   1.33123103   0.08640515
354.00   1.30199100   0.08788522
356.00   1.27258607   0.08938207
358.00   1.24301625   0.09089581
360.00   1.21328154   0.09242652
362.00   1.18338197   0.09397430
364.00   1.15331755   0.09553924
366.00   1.12308828   0.09712144
368.00   1.09269418   0.09872098
370.00   1.06213527   0.10033798
372.00   1.03141156   0.10197251
374.00   1.00052306   0.10362468
376.00   0.96946978   0.10529457
378.00   0.93825175   0.10698229
380.00   0.90686896   0.10868792
382.00   0.87532145   0.11041155
384.00   0.84360921   0.11215330
386.00   0.81173227   0.11391323
388.00   0.77969063   0.11569146
390.00   0.74748432   0.11748808
392.00   0.71511334   0.11930317
394.00   0.68257771   0.12113683
396.00   0.64987745   0.12298917
398.00   0.61701256   0.12486026
400.00   0.58398307   0.12675020
402.00   0.55078898   0.12865910
404.00   0.51743032   0.13058703
406.00   0.48390709   0.13253410
408.00   0.45021931   0.13450040
410.00   0.41636700   0.13648603
412.00   0.38235017   0.13849106
414.00   0.34816884   0.14051561
416.00   0.31382301   0.14255977
418.00   0.27931271   0.14462362
420.00   0.24463795   0.14670727
422.00   0.20979875   0.14881080
424.00   0.17479511   0.15093430
426.00   0.13962706   0.15307788
428.00   0.10429461   0.15524163
430.00   0.06879778   0.15742564
432.00   0.03313658   0.15963000
434.00  -0.00268897   0.16185481
436.00  -0.03867886   0.16410016
438.00  -0.07483307   0.16636614
440.00  -0.11115158   0.16865285
442.00  -0.14763439   0.17096038
444.00  -0.18428147   0.17328883
446.00  -0.22109280   0.17563828
448.00  -0.25806838   0.17800884
450.00  -0.29520819   0.18040059
452.00  -0.33251220   0.18281364
454.00  -0.36998040   0.18524806
456.00  -0.40761279   0.18770396
458.00  -0.44540933   0.19018143
460.00  -0.48337002   0.19268056
462.00  -0.52149483   0.19520145
464.00  -0.55978376   0.19774418
466.00  -0.59823678   0.20030886
468.00  -0.63685387   0.20289558
470.00  -0.67563503   0.20550442
472.00  -0.71458023   0.20813549
474.00  -0.75368946   0.21078887
476.00  -0.79296269   0.21346466
478.00  -0.83239992   0.21616296
480.00  -0.87200113   0.21888384
482.00  -0.91176629   0.22162742
484.00  -0.95169539   0.22439378
486.00  -0.99178842   0.22718302
488.00  -1.03204535   0.22999522
490.00  -1.07246617   0.23283049
492.00  -1.11305087   0.23568891
494.00  -1.15379941   0.23857058
496.00  -1.19471179   0.24147559
498.00  -1.23578799   0.24440403
500.00  -1.27702798   0.24735600
502.00  -1.31843176   0.25033159
504.00  -1.35999930   0.25333089
506.00  -1.40173059   0.25635400
508.00  -1.44362561   0.25940101
510.00  -1.48568433   0.26247201
512.00  -1.52790675   0.26556710
514.00  -1.57029283   0.26868637
516.00  -1.61284258   0.27182990
518.00  -1.65555595   0.27499780
520.00  -1.69843295   0.27819016
522.00  -1.74147354   0.28140706
524.00  -1.78467771   0.28464861
526.00  -1.82804544   0.28791489
528.00  -1.87157672   0.29120601
530.00  -1.91527152   0.29452204
532.00  -1.95912982   0.29786309
534.00  -2.00315160   0.30122924
536.00  -2.04733686   0.30462059
538.00  -2.09168556   0.30803724
540.00  -2.13619768   0.31147927
542.00  -2.18087321   0.31494678
544.00  -2.22571214   0.31843986
546.00  -2.27071443   0.32195860
548.00  -2.31588007   0.32550309
550.00  -2.36120904   0.32907344
552.00  -2.40670132   0.33266972
554.00  -2.45235689   0.33629204
556.00  -2.49817573   0.33994048
558.00  -2.54415782   0.34361515
560.00  -2.59030314   0.34731612
562.00  -2.63661168   0.35104350
564.00  -2.68308340   0.35479737
566.00  -2.72971829   0.35857783
568.00  -2.77651633   0.36238498
570.00  -2.82347751   0.36621889
572.00  -2.87060179   0.37007968
574.00  -2.91788916   0.37396742
576.00  -2.96533959   0.37788221
578.00  -3.01295308   0.38182414
580.00  -3.06072959   0.38579331
582.00  -3.10866911   0.38978980
584.00  -3.15677162   0.39381372
586.00  -3.20503708   0.39786515
588.00  -3.25346550   0.40194418
590.00  -3.30205683   0.40605091
592.00  -3.35081107   0.41018543
594.00  -3.39972818   0.41434783
596.00  -3.44880816   0.41853820
598.00  -3.49805097   0.42275664
600.00  -3.54745660   0.42700323
602.00  -3.59702502   0.43127808
604.00  -3.64675622   0.43558127
606.00  -3.69665016   0.43991289
608.00  -3.74670684   0.44427303
610.00  -3.79692623   0.44866180
612.00  -3.84730830   0.45307927
614.00  -3.89785304   0.45752555
616.00  -3.94856042   0.46200072
618.00  -3.99943042   0.46650488
620.00  -4.05046302   0.47103811
622.00  -4.10165820   0.47560051
624.00  -4.15301593   0.48019218
626.00  -4.20453619   0.48481320
628.00  -4.25621896   0.48946366
630.00  -4.30806422   0.49414366
632.00  -4.36007195   0.49885329
634.00  -4.41224211   0.50359264
636.00  -4.46457470   0.50836181
638.00  -4.51706968   0.51316087
640.00  -4.56972704   0.51798994
642.00  -4.62254675   0.52284909
644.00  -4.67552879   0.52773842
646.00  -4.72867313   0.53265802
648.00  -4.78197976   0.53760798
650.00  -4.83544864   0.54258840
652.00  -4.88907976   0.54759936
654.00  -4.94287310   0.55264097
656.00  -4.99682862   0.55771330
658.00  -5.05094631   0.56281645
660.00  -5.10522615   0.56795051
662.00  -5.15966810   0.57311557
664.00  -5.21427215   0.57831174
666.00  -5.26903827   0.58353908
668.00  -5.32396644   0.58879771
670.00  -5.37905663   0.59408770
672.00  -5.43430882   0.59940916
674.00  -5.48972300   0.60476216
676.00  -5.54529912   0.61014681
678.00  -5.60103717   0.61556319
680.00  -5.65693713   0.62101140
682.00  -5.71299897   0.62649153
684.00  -5.76922267   0.63200367
686.00  -5.82560819   0.63754790
688.00  -5.88215553   0.64312432
690.00  -5.93886464   0.64873303
692.00  -5.99573552   0.65437411
694.00  -6.05276813   0.66004765
696.00  -6.10996245   0.66575375
698.00  -6.16731845   0.67149249
700.00  -6.22483611   0.67726398
702.00  -6.28251541   0.68306829
704.00  -6.34035632   0.68890551
706.00  -6.39835881   0.69477575
708.00  -6.45652286   0.70067909
710.00  -6.51484845   0.70661563
712.00  -6.57333555   0.71258544
714.00  -6.63198413   0.71858863
716.00  -6.69079417   0.72462528
718.00  -6.74976564   0.73069549
720.00  -6.80889852   0.73679935
722.00  -6.86819278   0.74293694
724.00  -6.92764840   0.74910836
726.00  -6.98726536   0.75531370
728.00  -7.04704361   0.76155305
730.00  -7.10698315   0.76782650
732.00  -7.16708394   0.77413414
734.00  -7.22734595   0.78047606
736.00  -7.28776917   0.78685235
738.00  -7.34835356   0.79326310
740.00  -7.40909911   0.79970841
742.00  -7.47000577   0.80618836
744.00  -7.53107354   0.81270305
746.00  -7.59230237   0.81925256
748.00  -7.65369225   0.82583698
750.00  -7.71524314   0.83245641
752.00  -7.77695503   0.83911094
754.00  -7.83882788   0.84580065
756.00  -7.90086166   0.85252564
758.00  -7.96305636   0.85928599
760.00  -8.02541194   0.86608181
762.00  -8.08792838   0.87291317
764.00  -8.15060565   0.87978017
766.00  -8.21344372   0.88668289
768.00  -8.27644257   0.89362144
770.00  -8.33960217   0.90059589
772.00  -8.40292249   0.90760634
774.00  -8.46640350   0.91465288
776.00  -8.53004518   0.92173560
778.00  -8.59384750   0.92885459
780.00  -8.65781043   0.93600994
782.00  -8.72193394   0.94320173
784.00  -8.78621802   0.95043007
786.00  -8.85066262   0.95769503
788.00  -8.91526772   0.96499671
790.00  -8.98003329   0.97233521
792.00  -9.04495931   0.97971060
794.00  -9.11004575   0.98712297
796.00  -9.17529258   0.99457243
798.00  -9.24069977   1.00205906
800.00  -9.30626729   1.00958294
802.00  -9.37199512   1.01714417
804.00  -9.43788322   1.02474284
806.00  -9.50393157   1.03237904
808.00  -9.57014015   1.04005285
810.00  -9.63650891   1.04776437
812.00  -9.70303783   1.05551369
814.00  -9.76972689   1.06330089
816.00  -9.83657606   1.07112607
818.00  -9.90358530   1.07898931
820.00  -9.97075459   1.08689070
822.00 -10.03808390   1.09483034
824.00 -10.10557320   1.10280832
826.00 -10.17322246   1.11082471
828.00 -10.24103165   1.11887962
830.00 -10.30900074   1.12697313
832.00 -10.37712971   1.13510534
834.00 -10.44541852   1.14327632
836.00 -10.51386714   1.15148617
838.00 -10.58247555   1.15973498
840.00 -10.65124372   1.16802284
842.00 -10.72017161   1.17634983
844.00 -10.78925920   1.18471606
846.00 -10.85850646   1.19312160
848.00 -10.92791335   1.20156654
850.00 -10.99747985   1.21005098
852.00 -11.06720593   1.21857500
854.00 -11.13709155   1.22713869
856.00 -11.20713669   1.23574214
858.00 -11.27734132   1.24438545
860.00 -11.34770541   1.25306869
862.00 -11.41822892   1.26179196
864.00 -11.48891183   1.27055535
866.00 -11.55975411   1.27935894
868.00 -11.63075572   1.28820283
870.00 -11.70191664   1.29708710
872.00 -11.77323683   1.30601184
874.00 -11.84471626   1.31497715
876.00 -11.91635491   1.32398310
878.00 -11.98815275   1.33302979
880.00 -12.06010973   1.34211731
882.00 -12.13222584   1.35124575
884.00 -12.20450103   1.36041519
886.00 -12.27693528   1.36962572
888.00 -12.34952857   1.37887744
890.00 -12.42228085   1.38817042
892.00 -12.49519209   1.39750477
894.00 -12.56826227   1.40688056
896.00 -12.64149135   1.41629788
898.00 -12.71487930   1.42575683
900.00 -12.78842610   1.43525749
902.00 -12.86213170   1.44479996
904.00 -12.93599608   1.45438431
906.00 -13.01001920   1.46401064
908.00 -13.08420104   1.47367903
910.00 -13.15854156   1.48338958
912.00 -13.23304073   1.49314237
914.00 -13.30769852   1.50293749
916.00 -13.38251489   1.51277503
918.00 -13.45748982   1.52265507
920.00 -13.53262327   1.53257771
922.00 -13.60791521   1.54254304
924.00 -13.68336561   1.55255113
926.00 -13.75897443   1.56260208
928.00 -13.83474165   1.57269598
930.00 -13.91066722   1.58283291
932.00 -13.98675113   1.59301297
934.00 -14.06299332   1.60323623
936.00 -14.13939379   1.61350279
938.00 -14.21595248   1.62381274
940.00 -14.29266937   1.63416616
942.00 -14.36954442   1.64456315
944.00 -14.44657760   1.65500378
946.00 -14.52376889   1.66548815
948.00 -14.60111824   1.67601635
950.00 -14.67862562   1.68658845
952.00 -14.75629100   1.69720456
954.00 -14.83411434   1.70786475
956.00 -14.91209562   1.71856912
958.00 -14.99023480   1.72931775
960.00 -15.06853185   1.74011073
962.00 -15.14698672   1.75094815
964.00 -15.22559940   1.76183009
966.00 -15.30436984   1.77275664
968.00 -15.38329802   1.78372790
970.00 -15.46238389   1.79474394
972.00 -15.54162742   1.80580485
974.00 -15.62102859   1.81691072
976.00 -15.70058735   1.82806165
978.00 -15.78030368   1.83925771
980.00 -15.86017753   1.85049899
982.00 -15.94020888   1.86178558
984.00 -16.02039769   1.87311757
986.00 -16.10074393   1.88449504
988.00 -16.18124755   1.89591808
990.00 -16.26190854   1.90738678
992.00 -16.34272685   1.91890123
994.00 -16.42370244   1.93046151
996.00 -16.50483529   1.94206770
998.00 -16.58612536   1.95371990
1000.00 -16.66757261   1.96541820
1002.00 -16.74917702   1.97716267
1004.00 -16.83093854   1.98895341
1006.00 -16.91285713   2.00079050
1008.00 -16.99493278   2.01267404
1010.00 -17.07716543   2.02460409
1012.00 -17.15955506   2.03658077
1014.00 -17.24210163   2.04860414
1016.00 -17.32480511   2.06067429
1018.00 -17.40766545   2.07279132
1020.00 -17.49068263   2.08495531
1022.00 -17.57385661   2.09716634
1024.00 -17.65718735   2.10942450
1026.00 -17.74067482   2.12172989
1028.00 -17.82431898   2.13408257
1030.00 -17.90811980   2.14648265
1032.00 -17.99207724   2.15893021
1034.00 -18.07619127   2.17142533
1036.00 -18.16046184   2.18396809
1038.00 -18.24488893   2.19655860
1040.00 -18.32947250   2.20919693
1042.00 -18.41421251   2.22188316
1044.00 -18.49910893   2.23461739
1046.00 -18.58416171   2.24739970
1048.00 -18.66937083   2.26023018
1050.00 -18.75473625   2.27310890
1052.00 -18.84025792   2.28603597
1054.00 -18.92593582   2.29901146
1056.00 -19.01176991   2.31203546
1058.00 -19.09776016   2.32510806
1060.00 -19.18390651   2.33822934
1062.00 -19.27020895   2.35139939
1064.00 -19.35666742   2.36461829
1066.00 -19.44328191   2.37788613
1068.00 -19.53005236   2.39120299
1070.00 -19.61697874   2.40456897
1072.00 -19.70406102   2.41798414
1074.00 -19.79129915   2.43144859
1076.00 -19.87869310   2.44496241
1078.00 -19.96624284   2.45852569
1080.00 -20.05394833   2.47213850
1082.00 -20.14180952   2.48580093
1084.00 -20.22982638   2.49951308
1086.00 -20.31799888   2.51327502
1088.00 -20.40632698   2.52708683
1090.00 -20.49481063   2.54094862
1092.00 -20.58344981   2.55486045
1094.00 -20.67224447   2.56882242
1096.00 -20.76119458   2.58283461
1098.00 -20.85030009   2.59689711
1100.00 -20.93956098   2.61101000
1102.00 -21.02897720   2.62517336
1104.00 -21.11854872   2.63938729
1106.00 -21.20827549   2.65365186
1108.00 -21.29815748   2.66796716
1110.00 -21.38819466   2.68233328
1112.00 -21.47838697   2.69675030
1114.00 -21.56873439   2.71121831
1116.00 -21.65923688   2.72573739
1118.00 -21.74989440   2.74030762
1120.00 -21.84070690   2.75492910
1122.00 -21.93167436   2.76960190
1124.00 -22.02279673   2.78432611
1126.00 -22.11407397   2.79910181
1128.00 -22.20550605   2.81392909
1130.00 -22.29709293   2.82880804
1132.00 -22.38883456   2.84373874
1134.00 -22.48073092   2.85872127
1136.00 -22.57278195   2.87375571
1138.00 -22.66498763   2.88884216
1140.00 -22.75734790   2.90398070
1142.00 -22.84986274   2.91917140
1144.00 -22.94253211   2.93441436
1146.00 -23.03535596   2.94970966
1148.00 -23.12833425   2.96505738
1150.00 -23.22146696   2.98045762
1152.00 -23.31475402   2.99591044
1154.00 -23.40819542   3.01141594
1156.00 -23.50179111   3.02697420
1158.00 -23.59554104   3.04258530
1160.00 -23.68944518   3.05824934
1162.00 -23.78350349   3.07396638
1164.00 -23.87771593   3.08973652
1166.00 -23.97208246   3.10555984
1168.00 -24.06660304   3.12143643
1170.00 -24.16127763   3.13736636
1172.00 -24.25610619   3.15334973
1174.00 -24.35108868   3.16938661
1176.00 -24.44622506   3.18547709
1178.00 -24.54151529   3.20162126
1180.00 -24.63695933   3.21781919
1182.00 -24.73255714   3.23407097
1184.00 -24.82830868   3.25037669
1186.00 -24.92421390   3.26673642
1188.00 -25.02027278   3.28315026
1190.00 -25.11648526   3.29961828
1192.00 -25.21285131   3.31614057
1194.00 -25.30937088   3.33271721
1196.00 -25.40604394   3.34934828
1198.00 -25.50287045   3.36603387
1200.00 -25.59985036   3.38277407
1202.00 -25.69698363   3.39956895
1204.00 -25.79427022   3.41641860
1206.00 -25.89171010   3.43332309
1208.00 -25.98930321   3.45028253
1210.00 -26.08704953   3.46729698
1212.00 -26.18494900   3.48436653
1214.00 -26.28300159   3.50149126
1216.00 -26.38120725   3.51867127
1218.00 -26.47956595   3.53590662
1220.00 -26.57807765   3.55319740
1222.00 -26.67674229   3.57054370
1224.00 -26.77555984   3.58794560
1226.00 -26.87453026   3.60540317
1228.00 -26.97365351   3.62291651
1230.00 -27.07292954   3.64048570
1232.00 -27.17235832   3.65811082
1234.00 -27.27193979   3.67579195
1236.00 -27.37167393   3.69352917
1238.00 -27.47156068   3.71132257
1240.00 -27.57160001   3.72917223
1242.00 -27.67179187   3.74707824
1244.00 -27.77213622   3.76504066
1246.00 -27.87263303   3.78305959
1248.00 -27.97328224   3.80113512
1250.00 -28.07408381   3.81926731
1252.00 -28.17503770   3.83745626
1254.00 -28.27614388   3.85570204
1256.00 -28.37740229   3.87400475
1258.00 -28.47881290   3.89236445
1260.00 -28.58037566   3.91078123
1262.00 -28.68209053   3.92925518
1264.00 -28.78395747   3.94778638
1266.00 -28.88597643   3.96637491
1268.00 -28.98814738   3.98502084
1270.00 -29.09047026   4.00372427
1272.00 -29.19294503   4.02248528
1274.00 -29.29557166   4.04130394
1276.00 -29.39835010   4.06018034
1278.00 -29.50128031   4.07911455
1280.00 -29.60436224   4.09810667
1282.00 -29.70759585   4.11715678
1284.00 -29.81098110   4.13626495
1286.00 -29.91451794   4.15543126
1288.00 -30.01820633   4.17465581
1290.00 -30.12204623   4.19393866
1292.00 -30.22603759   4.21327991
1294.00 -30.33018037   4.23267963
1296.00 -30.43447453   4.25213790
1298.00 -30.53892002   4.27165481
1300.00 -30.64351679   4.29123043
1302.00 -30.74826482   4.31086486
1304.00 -30.85316404   4.33055816
1306.00 -30.95821442   4.35031042
1308.00 -31.06341592   4.37012173
1310.00 -31.16876848   4.38999216
1312.00 -31.27427207   4.40992179
1314.00 -31.37992665   4.42991071
1316.00 -31.48573215   4.44995899
1318.00 -31.59168855   4.47006673
1320.00 -31.69779580   4.49023398
1322.00 -31.80405386   4.51046085
1324.00 -31.91046267   4.53074741
1326.00 -32.01702220   4.55109374
1328.00 -32.12373240   4.57149992
1330.00 -32.23059322   4.59196603
1332.00 -32.33760463   4.61249216
1334.00 -32.44476657   4.63307838
1336.00 -32.55207901   4.65372477
1338.00 -32.65954189   4.67443142
1340.00 -32.76715517   4.69519840
1342.00 -32.87491882   4.71602580
1344.00 -32.98283277   4.73691369
1346.00 -33.09089699   4.75786216
1348.00 -33.19911144   4.77887129
1350.00 -33.30747606   4.79994116
1352.00 -33.41599081   4.82107184
1354.00 -33.52465566   4.84226342
1356.00 -33.63347054   4.86351597
1358.00 -33.74243542   4.88482959
1360.00 -33.85155025   4.90620434
1362.00 -33.96081498   4.92764031
1364.00 -34.07022957   4.94913758
1366.00 -34.17979398   4.97069623
1368.00 -34.28950816   4.99231634
1370.00 -34.39937206   5.01399798
1372.00 -34.50938564   5.03574124
1374.00 -34.61954885   5.05754620
1376.00 -34.72986164   5.07941293
1378.00 -34.84032397   5.10134152
1380.00 -34.95093580   5.12333205
1382.00 -35.06169707   5.14538460
1384.00 -35.17260775   5.16749924
1386.00 -35.28366778   5.18967606
1388.00 -35.39487712   5.21191513
1390.00 -35.50623572   5.23421653
1392.00 -35.61774354   5.25658035
1394.00 -35.72940053   5.27900667
1396.00 -35.84120664   5.30149555
1398.00 -35.95316183   5.32404709
1400.00 -36.06526605   5.34666136
1402.00 -36.17751926   5.36933844
1404.00 -36.28992140   5.39207840
1406.00 -36.40247243   5.41488134
1408.00 -36.51517231   5.43774732
1410.00 -36.62802099   5.46067644
1412.00 -36.74101841   5.48366875
1414.00 -36.85416454   5.50672435
1416.00 -36.96745933   5.52984332
1418.00 -37.08090272   5.55302573
1420.00 -37.19449468   5.57627165
1422.00 -37.30823515   5.59958118
1424.00 -37.42212409   5.62295439
1426.00 -37.53616146   5.64639135
1428.00 -37.65034719   5.66989215
1430.00 -37.76468125   5.69345687
1432.00 -37.87916359   5.71708558
1434.00 -37.99379417   5.74077836
1436.00 -38.10857292   5.76453529
1438.00 -38.22349982   5.78835645
1440.00 -38.33857480   5.81224191
1442.00 -38.45379782   5.83619176
1444.00 -38.56916884   5.86020608
1446.00 -38.68468780   5.88428493
1448.00 -38.80035466   5.90842841
1450.00 -38.91616937   5.93263659
1452.00 -39.03213188   5.95690954
1454.00 -39.14824214   5.98124734
1456.00 -39.26450012   6.00565008
1458.00 -39.38090575   6.03011783
1460.00 -39.49745898   6.05465067
1462.00 -39.61415979   6.07924867
1464.00 -39.73100810   6.10391192
1466.00 -39.84800388   6.12864049
1468.00 -39.96514707   6.15343446
1470.00 -40.08243764   6.17829391
1472.00 -40.19987552   6.20321891
1474.00 -40.31746068   6.22820954
1476.00 -40.43519305   6.25326589
1478.00 -40.55307260   6.27838802
1480.00 -40.67109928   6.30357602
1482.00 -40.78927304   6.32882996
1484.00 -40.90759382   6.35414992
1486.00 -41.02606158   6.37953598
1488.00 -41.14467627   6.40498822
1490.00 -41.26343784   6.43050670
1492.00 -41.38234624   6.45609152
1494.00 -41.50140143   6.48174274
1496.00 -41.62060335   6.50746045
1498.00 -41.73995195   6.53324471
1500.00 -41.85944719   6.55909562
1502.00 -41.97908902   6.58501324
1504.00 -42.09887739   6.61099765
1506.00 -42.21881224   6.63704893
1508.00 -42.33889353   6.66316716
1510.00 -42.45912121   6.68935241
1512.00 -42.57949523   6.71560475
1514.00 -42.70001553   6.74192428
1516.00 -42.82068208   6.76831105
1518.00 -42.94149482   6.79476516
1520.00 -43.06245370   6.82128667
1522.00 -43.18355867   6.84787567
1524.00 -43.30480968   6.87453222
1526.00 -43.42620668   6.90125641
1528.00 -43.54774963   6.92804831
1530.00 -43.66943846   6.95490800
1532.00 -43.79127314   6.98183555
1534.00 -43.91325361   7.00883105
1536.00 -44.03537981   7.03589456
1538.00 -44.15765171   7.06302616
1540.00 -44.28006925   7.09022594
1542.00 -44.40263238   7.11749396
1544.00 -44.52534105   7.14483030
1546.00 -44.64819521   7.17223503
1548.00 -44.77119481   7.19970825
1550.00 -44.89433979   7.22725001
1552.00 -45.01763012   7.25486039
1554.00 -45.14106573   7.28253948
1556.00 -45.26464658   7.31028734
1558.00 -45.38837262   7.33810406
1560.00 -45.51224379   7.36598971
1562.00 -45.63626004   7.39394435
1564.00 -45.76042133   7.42196808
1566.00 -45.88472760   7.45006097
1568.00 -46.00917880   7.47822308
1570.00 -46.13377488   7.50645450
1572.00 -46.25851580   7.53475530
1574.00 -46.38340149   7.56312556
1576.00 -46.50843191   7.59156535
1578.00 -46.63360700   7.62007474
1580.00 -46.75892672   7.64865382
1582.00 -46.88439101   7.67730266
1584.00 -47.00999983   7.70602133
1586.00 -47.13575312   7.73480990
1588.00 -47.26165082   7.76366846
1590.00 -47.38769289   7.79259708
1592.00 -47.51387928   7.82159583
1594.00 -47.64020994   7.85066479
1596.00 -47.76668481   7.87980403
1598.00 -47.89330383   7.90901363
1600.00 -48.02006697   7.93829366
1602.00 -48.14697417   7.96764419
1604.00 -48.27402537   7.99706531
1606.00 -48.40122052   8.02655708
1608.00 -48.52855958   8.05611959
1610.00 -48.65604249   8.08575289
1612.00 -48.78366919   8.11545708
1614.00 -48.91143964   8.14523222
1616.00 -49.03935379   8.17507839
1618.00 -49.16741157   8.20499567
1620.00 -49.29561295   8.23498412
1622.00 -49.42395786   8.26504382
1624.00 -49.55244625   8.29517484
1626.00 -49.68107808   8.32537726
1628.00 -49.80985329   8.35565116
1630.00 -49.93877182   8.38599661
1632.00 -50.06783363   8.41641367
1634.00 -50.19703866   8.44690244
1636.00 -50.32638686   8.47746297
1638.00 -50.45587817   8.50809534
1640.00 -50.58551255   8.53879963
1642.00 -50.71528994   8.56957591
1644.00 -50.84521029   8.60042426
1646.00 -50.97527355   8.63134474
1648.00 -51.10547965   8.66233743
1650.00 -51.23582856   8.69340241
1652.00 -51.36632021   8.72453975
1654.00 -51.49695455   8.75574952
1656.00 -51.62773154   8.78703180
1658.00 -51.75865111   8.81838665
1660.00 -51.88971321   8.84981416
1662.00 -52.02091780   8.88131439
1664.00 -52.15226481   8.91288742
1666.00 -52.28375419   8.94453332
1668.00 -52.41538590   8.97625217
1670.00 -52.54715987   9.00804403
1672.00 -52.67907605   9.03990899
1674.00 -52.81113440   9.07184710
1676.00 -52.94333485   9.10385846
1678.00 -53.07567735   9.13594313
1680.00 -53.20816185   9.16810117
1682.00 -53.34078830   9.20033268
1684.00 -53.47355663   9.23263771
1686.00 -53.60646680   9.26501634
1688.00 -53.73951876   9.29746864
1690.00 -53.87271244   9.32999469
1692.00 -54.00604780   9.36259456
1694.00 -54.13952478   9.39526832
1696.00 -54.27314333   9.42801604
1698.00 -54.40690339   9.46083780
1700.00 -54.54080491   9.49373367
1702.00 -54.67484783   9.52670371
1704.00 -54.80903211   9.55974801
1706.00 -54.94335768   9.59286664
1708.00 -55.07782449   9.62605966
1710.00 -55.21243248   9.65932715
1712.00 -55.34718161   9.69266918
1714.00 -55.48207182   9.72608582
1716.00 -55.61710305   9.75957715
1718.00 -55.75227525   9.79314323
1720.00 -55.88758836   9.82678415
1722.00 -56.02304234   9.86049996
1724.00 -56.15863711   9.89429075
1726.00 -56.29437264   9.92815657
1728.00 -56.43024886   9.96209752
1730.00 -56.56626572   9.99611365
1732.00 -56.70242317  10.03020504
1734.00 -56.83872115  10.06437176
1736.00 -56.97515960  10.09861388
1738.00 -57.11173847  10.13293148
1740.00 -57.24845770  10.16732462
1742.00 -57.38531725  10.20179337
1744.00 -57.52231705  10.23633781
1746.00 -57.65945705  10.27095801
1748.00 -57.79673719  10.30565404
1750.00 -57.93415742  10.34042597
1752.00 -58.07171768  10.37527387
1754.00 -58.20941793  10.41019781
1756.00 -58.34725809  10.44519787
1758.00 -58.48523812  10.48027411
1760.00 -58.62335796  10.51542660
1762.00 -58.76161755  10.55065542
1764.00 -58.90001685  10.58596064
1766.00 -59.03855579  10.62134232
1768.00 -59.17723431  10.65680054
1770.00 -59.31605237  10.69233537
1772.00 -59.45500991  10.72794688
1774.00 -59.59410686  10.76363514
1776.00 -59.73334318  10.79940022
1778.00 -59.87271881  10.83524219
1780.00 -60.01223369  10.87116112
1782.00 -60.15188777  10.90715708
1784.00 -60.29168099  10.94323014
1786.00 -60.43161329  10.97938037
1788.00 -60.57168462  11.01560784
1790.00 -60.71189492  11.05191263
1792.00 -60.85224413  11.08829479
1794.00 -60.99273221  11.12475441
1796.00 -61.13335908  11.16129155
1798.00 -61.27412471  11.19790628
1800.00 -61.41502902  11.23459867
1802.00 -61.55607196  11.27136880
1804.00 -61.69725348  11.30821672
1806.00 -61.83857353  11.34514252
1808.00 -61.98003203  11.38214625
1810.00 -62.12162894  11.41922799
1812.00 -62.26336420  11.45638782
1814.00 -62.40523775  11.49362579
1816.00 -62.54724954  11.53094198
1818.00 -62.68939950  11.56833645
1820.00 -62.83168759  11.60580929
1822.00 -62.97411375  11.64336055
1824.00 -63.11667791  11.68099030
1826.00 -63.25938002  11.71869862
1828.00 -63.40222003  11.75648557
1830.00 -63.54519787  11.79435123
1832.00 -63.68831349  11.83229566
1834.00 -63.83156683  11.87031892
1836.00 -63.97495784  11.90842110
1838.00 -64.11848646  11.94660225
1840.00 -64.26215263  11.98486246
1842.00 -64.40595629  12.02320177
1844.00 -64.54989738  12.06162028
1846.00 -64.69397585  12.10011803
1848.00 -64.83819165  12.13869511
1850.00 -64.98254470  12.17735158
1852.00 -65.12703496  12.21608750
1854.00 -65.27166237  12.25490296
1856.00 -65.41642686  12.29379801
1858.00 -65.56132839  12.33277272
1860.00 -65.70636689  12.37182717
1862.00 -65.85154231  12.41096142
1864.00 -65.99685459  12.45017553
1866.00 -66.14230367  12.48946958
1868.00 -66.28788948  12.52884364
1870.00 -66.43361199  12.56829777
1872.00 -66.57947112  12.60783204
1874.00 -66.72546681  12.64744652
1876.00 -66.87159902  12.68714128
1878.00 -67.01786768  12.72691638
1880.00 -67.16427273  12.76677190
1882.00 -67.31081412  12.80670789
1884.00 -67.45749178  12.84672443
1886.00 -67.60430567  12.88682159
1888.00 -67.75125571  12.92699943
1890.00 -67.89834185  12.96725802
1892.00 -68.04556404  13.00759743
1894.00 -68.19292221  13.04801773
1896.00 -68.34041631  13.08851897
1898.00 -68.48804628  13.12910124
1900.00 -68.63581205  13.16976460
1902.00 -68.78371357  13.21050910
1904.00 -68.93175079  13.25133483
1906.00 -69.07992364  13.29224185
1908.00 -69.22823206  13.33323023
1910.00 -69.37667599  13.37430003
1912.00 -69.52525539  13.41545131
1914.00 -69.67397018  13.45668416
1916.00 -69.82282030  13.49799863
1918.00 -69.97180571  13.53939478
1920.00 -70.12092633  13.58087270
1922.00 -70.27018212  13.62243243
1924.00 -70.41957301  13.66407406
1926.00 -70.56909894  13.70579765
1928.00 -70.71875985  13.74760325
1930.00 -70.86855568  13.78949095
1932.00 -71.01848638  13.83146081
1934.00 -71.16855189  13.87351288
1936.00 -71.31875214  13.91564725
1938.00 -71.46908708  13.95786397
1940.00 -71.61955664  14.00016311
1942.00 -71.77016078  14.04254474
1944.00 -71.92089942  14.08500892
1946.00 -72.07177250  14.12755572
1948.00 -72.22277998  14.17018521
1950.00 -72.37392178  14.21289744
1952.00 -72.52519786  14.25569250
1954.00 -72.67660814  14.29857044
1956.00 -72.82815257  14.34153132
1958.00 -72.97983109  14.38457523
1960.00 -73.13164364  14.42770221
1962.00 -73.28359016  14.47091234
1964.00 -73.43567059  14.51420567
1966.00 -73.58788487  14.55758229
1968.00 -73.74023294  14.60104225
1970.00 -73.89271474  14.64458561
1972.00 -74.04533021  14.68821245
1974.00 -74.19807928  14.73192283
1976.00 -74.35096191  14.77571681
1978.00 -74.50397802  14.81959446
1980.00 -74.65712757  14.86355585
1982.00 -74.81041048  14.90760103
1984.00 -74.96382670  14.95173008
1986.00 -75.11737616  14.99594305
1988.00 -75.27105882  15.04024002
1990.00 -75.42487460  15.08462105
1992.00 -75.57882344  15.12908620
1994.00 -75.73290529  15.17363554
1996.00 -75.88712009  15.21826913
1998.00 -76.04146777  15.26298704
2000.00 -76.19594827  15.30778934
2002.00 -76.35056154  15.35267608
2004.00 -76.50530750  15.39764733
2006.00 -76.66018611  15.44270315
2008.00 -76.81519730  15.48784362
2010.00 -76.97034101  15.53306879
2012.00 -77.12561717  15.57837873
2014.00 -77.28102573  15.62377350
2016.00 -77.43656663  15.66925317
2018.00 -77.59223981  15.71481781
2020.00 -77.74804520  15.76046746
2022.00 -77.90398274  15.80620221
2024.00 -78.06005238  15.85202210
2026.00 -78.21625404  15.89792722
2028.00 -78.37258768  15.94391762
2030.00 -78.52905322  15.98999336
2032.00 -78.68565061  16.03615450
2034.00 -78.84237978  16.08240113
2036.00 -78.99924068  16.12873328
2038.00 -79.15623325  16.17515104
2040.00 -79.31335741  16.22165446
2042.00 -79.47061312  16.26824360
2044.00 -79.62800030  16.31491854
2046.00 -79.78551890  16.36167932
2048.00 -79.94316885  16.40852603
2050.00 -80.10095010  16.45545871
2052.00 -80.25886258  16.50247743
2054.00 -80.41690623  16.54958227
2056.00 -80.57508099  16.59677327
2058.00 -80.73338680  16.64405050
2060.00 -80.89182359  16.69141402
2062.00 -81.05039130  16.73886391
2064.00 -81.20908987  16.78640021
2066.00 -81.36791924  16.83402300
2068.00 -81.52687935  16.88173233
2070.00 -81.68597014  16.92952828
2072.00 -81.84519154  16.97741089
2074.00 -82.00454349  17.02538024
2076.00 -82.16402592  17.07343639
2078.00 -82.32363879  17.12157939
2080.00 -82.48338201  17.16980931
2082.00 -82.64325554  17.21812622
2084.00 -82.80325931  17.26653018
2086.00 -82.96339326  17.31502124
2088.00 -83.12365732  17.36359948
2090.00 -83.28405144  17.41226494
2092.00 -83.44457555  17.46101771
2094.00 -83.60522958  17.50985782
2096.00 -83.76601348  17.55878536
2098.00 -83.92692718  17.60780038
2100.00 -84.08797062  17.65690294
2102.00 -84.24914374  17.70609310
2104.00 -84.41044648  17.75537093
2106.00 -84.57187876  17.80473649
2108.00 -84.73344054  17.85418984
2110.00 -84.89513174  17.90373104
2112.00 -85.05695231  17.95336015
2114.00 -85.21890218  18.00307724
2116.00 -85.38098129  18.05288236
2118.00 -85.54318957  18.10277558
2120.00 -85.70552696  18.15275696
2122.00 -85.86799341  18.20282655
2124.00 -86.03058884  18.25298443
2126.00 -86.19331319  18.30323065
2128.00 -86.35616641  18.35356527
2130.00 -86.51914842  18.40398835
2132.00 -86.68225917  18.45449996
2134.00 -86.84549859  18.50510016
2136.00 -87.00886661  18.55578900
2138.00 -87.17236318  18.60656655
2140.00 -87.33598823  18.65743287
2142.00 -87.49974170  18.70838802
2144.00 -87.66362353  18.75943205
2146.00 -87.82763364  18.81056504
2148.00 -87.99177199  18.86178704
2150.00 -88.15603849  18.91309811
2152.00 -88.32043310  18.96449831
2154.00 -88.48495575  19.01598770
2156.00 -88.64960637  19.06756635
2158.00 -88.81438490  19.11923431
2160.00 -88.97929127  19.17099164
2162.00 -89.14432543  19.22283840
2164.00 -89.30948731  19.27477466
2166.00 -89.47477684  19.32680047
2168.00 -89.64019396  19.37891589
2170.00 -89.80573862  19.43112099
2172.00 -89.97141073  19.48341582
2174.00 -90.13721025  19.53580044
2176.00 -90.30313710  19.58827491
2178.00 -90.46919123  19.64083930
2180.00 -90.63537256  19.69349366
2182.00 -90.80168104  19.74623805
2184.00 -90.96811660  19.79907253
2186.00 -91.13467917  19.85199716
2188.00 -91.30136870  19.90501200
2190.00 -91.46818511  19.95811711
2192.00 -91.63512835  20.01131255
2194.00 -91.80219834  20.06459837
2196.00 -91.96939504  20.11797464
2198.00 -92.13671836  20.17144142
2200.00 -92.30416825  20.22499877
2202.00 -92.47174464  20.27864674
2204.00 -92.63944747  20.33238539
2206.00 -92.80727667  20.38621478
2208.00 -92.97523219  20.44013497
2210.00 -93.14331394  20.49414603
2212.00 -93.31152188  20.54824800
2214.00 -93.47985593  20.60244095
2216.00 -93.64831604  20.65672494
2218.00 -93.81690213  20.71110002
2220.00 -93.98561414  20.76556625
2222.00 -94.15445201  20.82012369
2224.00 -94.32341567  20.87477241
2226.00 -94.49250505  20.92951245
2228.00 -94.66172011  20.98434388
2230.00 -94.83106075  21.03926675
2232.00 -95.00052694  21.09428112
2234.00 -95.17011859  21.14938706
2236.00 -95.33983564  21.20458462
2238.00 -95.50967803  21.25987385
2240.00 -95.67964570  21.31525482
2242.00 -95.84973857  21.37072758
2244.00 -96.01995659  21.42629219
2246.00 -96.19029969  21.48194871
2248.00 -96.36076780  21.53769720
2250.00 -96.53136085  21.59353771
2252.00 -96.70207879  21.64947030
2254.00 -96.87292155  21.70549503
2256.00 -97.04388906  21.76161196
2258.00 -97.21498126  21.81782114
2260.00 -97.38619808  21.87412263
2262.00 -97.55753946  21.93051649
2264.00 -97.72900532  21.98700278
2266.00 -97.90059562  22.04358155
2268.00 -98.07231027  22.10025286
2270.00 -98.24414922  22.15701677
2272.00 -98.41611240  22.21387334
2274.00 -98.58819974  22.27082261
2276.00 -98.76041118  22.32786466
2278.00 -98.93274666  22.38499953
2280.00 -99.10520610  22.44222728
2282.00 -99.27778944  22.49954797
2284.00 -99.45049662  22.55696165
2286.00 -99.62332757  22.61446839
2288.00 -99.79628223  22.67206824
2290.00 -99.96936052  22.72976125
2292.00 -100.14256239  22.78754749
2294.00 -100.31588776  22.84542700
2296.00 -100.48933658  22.90339985
2298.00 -100.66290877  22.96146609
2300.00 -100.83660427  23.01962577
2302.00 -101.01042302  23.07787896
2304.00 -101.18436494  23.13622571
2306.00 -101.35842997  23.19466608
2308.00 -101.53261805  23.25320012
2310.00 -101.70692911  23.31182788
2312.00 -101.88136309  23.37054943
2314.00 -102.05591991  23.42936482
2316.00 -102.23059951  23.48827410
2318.00 -102.40540182  23.54727733
2320.00 -102.58032679  23.60637458
2322.00 -102.75537434  23.66556588
2324.00 -102.93054440  23.72485130
2326.00 -103.10583692  23.78423089
2328.00 -103.28125182  23.84370472
2330.00 -103.45678903  23.90327283
2332.00 -103.63244850  23.96293527
2334.00 -103.80823015  24.02269211
2336.00 -103.98413392  24.08254341
2338.00 -104.16015974  24.14248920
2340.00 -104.33630755  24.20252956
2342.00 -104.51257728  24.26266453
2344.00 -104.68896885  24.32289418
2346.00 -104.86548222  24.38321855
2348.00 -105.04211730  24.44363770
2350.00 -105.21887403  24.50415168
2352.00 -105.39575235  24.56476055
2354.00 -105.57275219  24.62546437
2356.00 -105.74987348  24.68626319
2358.00 -105.92711616  24.74715706
2360.00 -106.10448015  24.80814604
2362.00 -106.28196540  24.86923018
2364.00 -106.45957183  24.93040954
2366.00 -106.63729937  24.99168417
2368.00 -106.81514797  25.05305413
2370.00 -106.99311756  25.11451946
2372.00 -107.17120806  25.17608023
2374.00 -107.34941941  25.23773649
2376.00 -107.52775154  25.29948830
2378.00 -107.70620439  25.36133569
2380.00 -107.88477789  25.42327874
2382.00 -108.06347197  25.48531749
2384.00 -108.24228657  25.54745201
2386.00 -108.42122161  25.60968233
2388.00 -108.60027703  25.67200852
2390.00 -108.77945277  25.73443062
2392.00 -108.95874875  25.79694871
2394.00 -109.13816491  25.85956281
2396.00 -109.31770118  25.92227300
2398.00 -109.49735750  25.98507932
2400.00 -109.67713379  26.04798183
2402.00 -109.85702999  26.11098058
2404.00 -110.03704603  26.17407562
2406.00 -110.21718185  26.23726701
2408.00 -110.39743738  26.30055479
2410.00 -110.57781254  26.36393903
2412.00 -110.75830728  26.42741978
2414.00 -110.93892152  26.49099708
2416.00 -111.11965519  26.55467100
2418.00 -111.30050824  26.61844158
2420.00 -111.48148059  26.68230888
2422.00 -111.66257217  26.74627295
2424.00 -111.84378292  26.81033384
2426.00 -112.02511276  26.87449161
2428.00 -112.20656164  26.93874630
2430.00 -112.38812948  27.00309798
2432.00 -112.56981621  27.06754669
2434.00 -112.75162177  27.13209248
2436.00 -112.93354609  27.19673542
2438.00 -113.11558911  27.26147554
2440.00 -113.29775074  27.32631290
2442.00 -113.48003093  27.39124756
2444.00 -113.66242961  27.45627957
2446.00 -113.84494671  27.52140897
2448.00 -114.02758216  27.58663582
2450.00 -114.21033590  27.65196018
2452.00 -114.39320785  27.71738209
2454.00 -114.57619795  27.78290161
2456.00 -114.75930613  27.84851878
2458.00 -114.94253232  27.91423367
2460.00 -115.12587645  27.98004631
2462.00 -115.30933846  28.04595677
2464.00 -115.49291827  28.11196510
2466.00 -115.67661582  28.17807133
2468.00 -115.86043105  28.24427554
2470.00 -116.04436387  28.31057776
2472.00 -116.22841423  28.37697806
2474.00 -116.41258206  28.44347647
2476.00 -116.59686728  28.51007306
2478.00 -116.78126983  28.57676787
2480.00 -116.96578964  28.64356096
2482.00 -117.15042664  28.71045237
2484.00 -117.33518077  28.77744216
2486.00 -117.52005195  28.84453037
2488.00 -117.70504011  28.91171707
2490.00 -117.89014520  28.97900229
2492.00 -118.07536713  29.04638609
2494.00 -118.26070584  29.11386852
2496.00 -118.44616127  29.18144963
2498.00 -118.63173334  29.24912948
2500.00 -118.81742198  29.31690810
2502.00 -119.00322713  29.38478556
2504.00 -119.18914872  29.45276190
2506.00 -119.37518668  29.52083717
2508.00 -119.56134093  29.58901143
2510.00 -119.74761142  29.65728472
2512.00 -119.93399807  29.72565709
2514.00 -120.12050081  29.79412860
2516.00 -120.30711957  29.86269929
2518.00 -120.49385429  29.93136921
2520.00 -120.68070490  30.00013841
2522.00 -120.86767133  30.06900695
2524.00 -121.05475350  30.13797488
2526.00 -121.24195136  30.20704223
2528.00 -121.42926482  30.27620907
2530.00 -121.61669383  30.34547544
2532.00 -121.80423831  30.41484139
2534.00 -121.99189819  30.48430697
2536.00 -122.17967341  30.55387223
2538.00 -122.36756390  30.62353722
2540.00 -122.55556958  30.69330200
2542.00 -122.74369038  30.76316659
2544.00 -122.93192625  30.83313107
2546.00 -123.12027710  30.90319547
2548.00 -123.30874287  30.97335985
2550.00 -123.49732349  31.04362426
2552.00 -123.68601890  31.11398873
2554.00 -123.87482901  31.18445333
2556.00 -124.06375377  31.25501810
2558.00 -124.25279310  31.32568309
2560.00 -124.44194693  31.39644835
2562.00 -124.63121520  31.46731393
2564.00 -124.82059783  31.53827987
2566.00 -125.01009476  31.60934623
2568.00 -125.19970592  31.68051305
2570.00 -125.38943122  31.75178038
2572.00 -125.57927062  31.82314828
2574.00 -125.76922403  31.89461678
2576.00 -125.95929140  31.96618593
2578.00 -126.14947263  32.03785579
2580.00 -126.33976768  32.10962641
2582.00 -126.53017647  32.18149782
2584.00 -126.72069892  32.25347009
2586.00 -126.91133498  32.32554325
2588.00 -127.10208456  32.39771736
2590.00 -127.29294761  32.46999245
2592.00 -127.48392404  32.54236859
2594.00 -127.67501380  32.61484582
2596.00 -127.86621681  32.68742418
2598.00 -128.05753299  32.76010373
2600.00 -128.24896229  32.83288450
2602.00 -128.44050463  32.90576656
2604.00 -128.63215994  32.97874994
2606.00 -128.82392816  33.05183469
2608.00 -129.01580920  33.12502087
2610.00 -129.20780301  33.19830851
2612.00 -129.39990951  33.27169766
2614.00 -129.59212863  33.34518838
2616.00 -129.78446030  33.41878071
2618.00 -129.97690445  33.49247470
2620.00 -130.16946102  33.56627038
2622.00 -130.36212992  33.64016782
2624.00 -130.55491110  33.71416705
2626.00 -130.74780448  33.78826813
2628.00 -130.94080999  33.86247110
2630.00 -131.13392756  33.93677600
2632.00 -131.32715713  34.01118289
2634.00 -131.52049861  34.08569181
2636.00 -131.71395195  34.16030281
2638.00 -131.90751706  34.23501592
2640.00 -132.10119389  34.30983121
2642.00 -132.29498235  34.38474871
2644.00 -132.48888239  34.45976848
2646.00 -132.68289392  34.53489055
2648.00 -132.87701688  34.61011498
2650.00 -133.07125120  34.68544181
2652.00 -133.26559681  34.76087108
2654.00 -133.46005364  34.83640285
2656.00 -133.65462162  34.91203715
2658.00 -133.84930067  34.98777404
2660.00 -134.04409073  35.06361356
2662.00 -134.23899172  35.13955576
2664.00 -134.43400358  35.21560067
2666.00 -134.62912624  35.29174835
2668.00 -134.82435962  35.36799885
2670.00 -135.01970365  35.44435220
2672.00 -135.21515827  35.52080846
2674.00 -135.41072340  35.59736766
2676.00 -135.60639897  35.67402986
2678.00 -135.80218491  35.75079510
2680.00 -135.99808116  35.82766342
2682.00 -136.19408763  35.90463487
2684.00 -136.39020426  35.98170949
2686.00 -136.58643099  36.05888734
2688.00 -136.78276773  36.13616845
2690.00 -136.97921442  36.21355287
2692.00 -137.17577098  36.29104064
2694.00 -137.37243735  36.36863182
2696.00 -137.56921346  36.44632643
2698.00 -137.76609923  36.52412454
2700.00 -137.96309459  36.60202617
2702.00 -138.16019948  36.68003139
2704.00 -138.35741381  36.75814023
2706.00 -138.55473753  36.83635273
2708.00 -138.75217056  36.91466895
2710.00 -138.94971283  36.99308892
2712.00 -139.14736426  37.07161269
2714.00 -139.34512479  37.15024030
2716.00 -139.54299435  37.22897180
2718.00 -139.74097286  37.30780723
2720.00 -139.93906026  37.38674664
2722.00 -140.13725647  37.46579007
2724.00 -140.33556142  37.54493756
2726.00 -140.53397504  37.62418916
2728.00 -140.73249726  37.70354491
2730.00 -140.93112801  37.78300485
2732.00 -141.12986722  37.86256903
2734.00 -141.32871481  37.94223750
2736.00 -141.52767072  38.02201029
2738.00 -141.72673487  38.10188745
2740.00 -141.92590719  38.18186902
2742.00 -142.12518762  38.26195505
2744.00 -142.32457607  38.34214558
2746.00 -142.52407249  38.42244065
2748.00 -142.72367679  38.50284031
2750.00 -142.92338891  38.58334459
2752.00 -143.12320877  38.66395355
2754.00 -143.32313631  38.74466722
2756.00 -143.52317145  38.82548565
2758.00 -143.72331412  38.90640888
2760.00 -143.92356425  38.98743695
2762.00 -144.12392177  39.06856991
2764.00 -144.32438660  39.14980780
2766.00 -144.52495868  39.23115066
2768.00 -144.72563794  39.31259854
2770.00 -144.92642429  39.39415147
2772.00 -145.12731768  39.47580950
2774.00 -145.32831803  39.55757267
2776.00 -145.52942526  39.63944103
2778.00 -145.73063931  39.72141461
2780.00 -145.93196011  39.80349346
2782.00 -146.13338758  39.88567762
2784.00 -146.33492165  39.96796713
2786.00 -146.53656225  40.05036204
2788.00 -146.73830931  40.13286239
2790.00 -146.94016275  40.21546822
2792.00 -147.14212251  40.29817956
2794.00 -147.34418852  40.38099647
2796.00 -147.54636069  40.46391898
2798.00 -147.74863897  40.54694714
2800.00 -147.95102327  40.63008099
2802.00 -148.15351354  40.71332056
2804.00 -148.35610968  40.79666591
2806.00 -148.55881164  40.88011707
2808.00 -148.76161934  40.96367408
2810.00 -148.96453271  41.04733698
2812.00 -149.16755168  41.13110583
2814.00 -149.37067617  41.21498065
2816.00 -149.57390612  41.29896149
2818.00 -149.77724145  41.38304839
2820.00 -149.98068209  41.46724139
2822.00 -150.18422797  41.55154053
2824.00 -150.38787901  41.63594585
2826.00 -150.59163515  41.72045740
2828.00 -150.79549632  41.80507521
2830.00 -150.99946243  41.88979933
2832.00 -151.20353342  41.97462979
2834.00 -151.40770922  42.05956664
2836.00 -151.61198976  42.14460992
2838.00 -151.81637495  42.22975967
2840.00 -152.02086474  42.31501592
2842.00 -152.22545904  42.40037872
2844.00 -152.43015780  42.48584811
2846.00 -152.63496093  42.57142413
2848.00 -152.83986835  42.65710682
2850.00 -153.04488002  42.74289622
2852.00 -153.24999583  42.82879236
2854.00 -153.45521574  42.91479530
2856.00 -153.66053966  43.00090507
2858.00 -153.86596752  43.08712170
2860.00 -154.07149925  43.17344525
2862.00 -154.27713478  43.25987575
2864.00 -154.48287403  43.34641323
2866.00 -154.68871694  43.43305774
2868.00 -154.89466342  43.51980933
2870.00 -155.10071342  43.60666802
2872.00 -155.30686685  43.69363385
2874.00 -155.51312365  43.78070688
2876.00 -155.71948374  43.86788713
2878.00 -155.92594704  43.95517464
2880.00 -156.13251350  44.04256946
2882.00 -156.33918303  44.13007163
2884.00 -156.54595556  44.21768118
2886.00 -156.75283102  44.30539815
2888.00 -156.95980934  44.39322258
2890.00 -157.16689045  44.48115451
2892.00 -157.37407427  44.56919398
2894.00 -157.58136073  44.65734103
2896.00 -157.78874976  44.74559570
2898.00 -157.99624128  44.83395802
2900.00 -158.20383523  44.92242804
2902.00 -158.41153153  45.01100579
2904.00 -158.61933010  45.09969132
2906.00 -158.82723089  45.18848465
2908.00 -159.03523380  45.27738583
2910.00 -159.24333878  45.36639490
2912.00 -159.45154574  45.45551189
2914.00 -159.65985462  45.54473685
2916.00 -159.86826535  45.63406981
2918.00 -160.07677784  45.72351081
2920.00 -160.28539204  45.81305988
2922.00 -160.49410786  45.90271708
2924.00 -160.70292523  45.99248243
2926.00 -160.91184408  46.08235597
2928.00 -161.12086434  46.17233774
2930.00 -161.32998594  46.26242777
2932.00 -161.53920879  46.35262612
2934.00 -161.74853284  46.44293280
2936.00 -161.95795801  46.53334787
2938.00 -162.16748421  46.62387136
2940.00 -162.37711140  46.71450330
2942.00 -162.58683948  46.80524373
2944.00 -162.79666838  46.89609270
2946.00 -163.00659804  46.98705023
2948.00 -163.21662838  47.07811637
2950.00 -163.42675933  47.16929115
2952.00 -163.63699081  47.26057461
2954.00 -163.84732276  47.35196679
2956.00 -164.05775510  47.44346772
2958.00 -164.26828775  47.53507744
2960.00 -164.47892065  47.62679599
2962.00 -164.68965371  47.71862341
2964.00 -164.90048688  47.81055973
2966.00 -165.11142007  47.90260498
2968.00 -165.32245322  47.99475921
2970.00 -165.53358624  48.08702245
2972.00 -165.74481907  48.17939474
2974.00 -165.95615164  48.27187611
2976.00 -166.16758386  48.36446661
2978.00 -166.37911568  48.45716626
2980.00 -166.59074701  48.54997510
2982.00 -166.80247778  48.64289318
2984.00 -167.01430792  48.73592052
2986.00 -167.22623736  48.82905716
2988.00 -167.43826602  48.92230315
2990.00 -167.65039384  49.01565850
2992.00 -167.86262072  49.10912327
2994.00 -168.07494662  49.20269748
2996.00 -168.28737144  49.29638118
2998.00 -168.49989513  49.39017439
3000.00 -168.71251760  49.48407716
3002.00 -168.92523878  49.57808952
3004.00 -169.13805860  49.67221150
3006.00 -169.35097699  49.76644314
3008.00 -169.56399386  49.86078448
3010.00 -169.77710916  49.95523555
3012.00 -169.99032281  50.04979639
3014.00 -170.20363473  50.14446703
3016.00 -170.41704485  50.23924751
3018.00 -170.63055310  50.33413786
3020.00 -170.84415940  50.42913812
3022.00 -171.05786369  50.52424832
3024.00 -171.27166588  50.61946850
3026.00 -171.48556591  50.71479869
3028.00 -171.69956370  50.81023893
3030.00 -171.91365918  50.90578925
3032.00 -172.12785227  51.00144970
3034.00 -172.34214290  51.09722029
3036.00 -172.55653101  51.19310107
3038.00 -172.77101651  51.28909207
3040.00 -172.98559933  51.38519333
3042.00 -173.20027940  51.48140488
3044.00 -173.41505665  51.57772675
3046.00 -173.62993100  51.67415899
3048.00 -173.84490238  51.77070162
3050.00 -174.05997071  51.86735467
3052.00 -174.27513593  51.96411819
3054.00 -174.49039796  52.06099221
3056.00 -174.70575672  52.15797675
3058.00 -174.92121215  52.25507186
3060.00 -175.13676416  52.35227757
3062.00 -175.35241270  52.44959391
3064.00 -175.56815767  52.54702092
3066.00 -175.78399902  52.64455863
3068.00 -175.99993666  52.74220707
3070.00 -176.21597052  52.83996629
3072.00 -176.43210054  52.93783630
3074.00 -176.64832662  53.03581714
3076.00 -176.86464872  53.13390886
3078.00 -177.08106674  53.23211148
3080.00 -177.29758061  53.33042503
3082.00 -177.51419027  53.42884955
3084.00 -177.73089564  53.52738507
3086.00 -177.94769665  53.62603163
3088.00 -178.16459321  53.72478926
3090.00 -178.38158527  53.82365799
3092.00 -178.59867274  53.92263785
3094.00 -178.81585555  54.02172888
3096.00 -179.03313363  54.12093111
3098.00 -179.25050690  54.22024457
3100.00 -179.46797530  54.31966930
3102.00 -179.68553874  54.41920533
3104.00 -179.90319716  54.51885269
3106.00 -180.12095047  54.61861141
3108.00 -180.33879862  54.71848153
3110.00 -180.55674152  54.81846308
3112.00 -180.77477910  54.91855609
3114.00 -180.99291128  55.01876060
3116.00 -181.21113800  55.11907663
3118.00 -181.42945918  55.21950422
3120.00 -181.64787474  55.32004340
3122.00 -181.86638462  55.42069420
3124.00 -182.08498873  55.52145666
3126.00 -182.30368701  55.62233081
3128.00 -182.52247938  55.72331667
3130.00 -182.74136577  55.82441429
3132.00 -182.96034610  55.92562369
3134.00 -183.17942031  56.02694491
3136.00 -183.39858831  56.12837797
3138.00 -183.61785003  56.22992291
3140.00 -183.83720540  56.33157976
3142.00 -184.05665435  56.43334855
3144.00 -184.27619681  56.53522931
3146.00 -184.49583269  56.63722208
3148.00 -184.71556192  56.73932688
3150.00 -184.93538444  56.84154375
3152.00 -185.15530017  56.94387272
3154.00 -185.37530903  57.04631382
3156.00 -185.59541095  57.14886708
3158.00 -185.81560585  57.25153254
3160.00 -186.03589367  57.35431021
3162.00 -186.25627433  57.45720014
3164.00 -186.47674776  57.56020236
3166.00 -186.69731387  57.66331689
3168.00 -186.91797261  57.76654376
3170.00 -187.13872389  57.86988302
3172.00 -187.35956764  57.97333468
3174.00 -187.58050378  58.07689878
3176.00 -187.80153225  58.18057536
3178.00 -188.02265297  58.28436443
3180.00 -188.24386586  58.38826603
3182.00 -188.46517086  58.49228019
3184.00 -188.68656788  58.59640695
3186.00 -188.90805686  58.70064632
3188.00 -189.12963772  58.80499835
3190.00 -189.35131039  58.90946306
3192.00 -189.57307479  59.01404048
3194.00 -189.79493085  59.11873065
3196.00 -190.01687849  59.22353358
3198.00 -190.23891764  59.32844932
3200.00 -190.46104824  59.43347789
3202.00 -190.68327019  59.53861933
3204.00 -190.90558344  59.64387365
3206.00 -191.12798790  59.74924090
3208.00 -191.35048350  59.85472109
3210.00 -191.57307018  59.96031427
3212.00 -191.79574785  60.06602046
3214.00 -192.01851644  60.17183968
3216.00 -192.24137587  60.27777198
3218.00 -192.46432608  60.38381737
3220.00 -192.68736699  60.48997590
3222.00 -192.91049852  60.59624758
3224.00 -193.13372061  60.70263244
3226.00 -193.35703317  60.80913053
3228.00 -193.58043613  60.91574185
3230.00 -193.80392943  61.02246645
3232.00 -194.02751298  61.12930435
3234.00 -194.25118672  61.23625559
3236.00 -194.47495056  61.34332018
3238.00 -194.69880444  61.45049816
3240.00 -194.92274827  61.55778956
3242.00 -195.14678200  61.66519441
3244.00 -195.37090553  61.77271273
3246.00 -195.59511881  61.88034456
3248.00 -195.81942174  61.98808992
3250.00 -196.04381427  62.09594884
3252.00 -196.26829632  62.20392134
3254.00 -196.49286781  62.31200747
3256.00 -196.71752867  62.42020724
3258.00 -196.94227882  62.52852069
3260.00 -197.16711819  62.63694783
3262.00 -197.39204672  62.74548871
3264.00 -197.61706431  62.85414334
3266.00 -197.84217090  62.96291177
3268.00 -198.06736642  63.07179400
3270.00 -198.29265079  63.18079008
3272.00 -198.51802394  63.28990003
3274.00 -198.74348579  63.39912387
3276.00 -198.96903627  63.50846164
3278.00 -199.19467530  63.61791336
3280.00 -199.42040282  63.72747907
3282.00 -199.64621874  63.83715878
3284.00 -199.87212300  63.94695252
3286.00 -200.09811552  64.05686033
3288.00 -200.32419622  64.16688223
3290.00 -200.55036503  64.27701825
3292.00 -200.77662188  64.38726841
3294.00 -201.00296670  64.49763275
3296.00 -201.22939940  64.60811128
3298.00 -201.45591992  64.71870404
3300.00 -201.68252818  64.82941105
3302.00 -201.90922411  64.94023235
3304.00 -202.13600763  65.05116795
3306.00 -202.36287867  65.16221788
3308.00 -202.58983715  65.27338217
3310.00 -202.81688301  65.38466085
3312.00 -203.04401616  65.49605395
3314.00 -203.27123654  65.60756149
3316.00 -203.49854407  65.71918349
3318.00 -203.72593867  65.83091999
3320.00 -203.95342027  65.94277100
3322.00 -204.18098880  66.05473657
3324.00 -204.40864418  66.16681670
3326.00 -204.63638634  66.27901144
3328.00 -204.86421521  66.39132080
3330.00 -205.09213071  66.50374481
3332.00 -205.32013276  66.61628350
3334.00 -205.54822130  66.72893690
3336.00 -205.77639625  66.84170502
3338.00 -206.00465753  66.95458790
3340.00 -206.23300507  67.06758556
3342.00 -206.46143880  67.18069802
3344.00 -206.68995864  67.29392532
3346.00 -206.91856452  67.40726748
3348.00 -207.14725636  67.52072452
3350.00 -207.37603410  67.63429648
3352.00 -207.60489765  67.74798336
3354.00 -207.83384694  67.86178521
3356.00 -208.06288190  67.97570205
3358.00 -208.29200246  68.08973389
3360.00 -208.52120853  68.20388078
3362.00 -208.75050006  68.31814272
3364.00 -208.97987695  68.43251975
3366.00 -209.20933914  68.54701190
3368.00 -209.43888656  68.66161918
3370.00 -209.66851912  68.77634163
3372.00 -209.89823676  68.89117926
3374.00 -210.12803941  69.00613210
3376.00 -210.35792698  69.12120019
3378.00 -210.58789940  69.23638353
3380.00 -210.81795660  69.35168216
3382.00 -211.04809851  69.46709610
3384.00 -211.27832505  69.58262538
3386.00 -211.50863615  69.69827002
3388.00 -211.73903173  69.81403004
3390.00 -211.96951172  69.92990548
3392.00 -212.20007604  70.04589634
3394.00 -212.43072463  70.16200267
3396.00 -212.66145740  70.27822447
3398.00 -212.89227428  70.39456179
3400.00 -213.12317521  70.51101463
3402.00 -213.35416009  70.62758303
3404.00 -213.58522887  70.74426701
3406.00 -213.81638147  70.86106659
3408.00 -214.04761780  70.97798180
3410.00 -214.27893781  71.09501266
3412.00 -214.51034141  71.21215920
3414.00 -214.74182853  71.32942143
3416.00 -214.97339910  71.44679938
3418.00 -215.20505303  71.56429308
3420.00 -215.43679027  71.68190255
3422.00 -215.66861073  71.79962781
3424.00 -215.90051434  71.91746889
3426.00 -216.13250102  72.03542581
3428.00 -216.36457071  72.15349859
3430.00 -216.59672333  72.27168726
3432.00 -216.82895879  72.38999184
3434.00 -217.06127704  72.50841235
3436.00 -217.29367799  72.62694882
3438.00 -217.52616158  72.74560126
3440.00 -217.75872772  72.86436971
3442.00 -217.99137634  72.98325418
3444.00 -218.22410738  73.10225470
3446.00 -218.45692075  73.22137130
3448.00 -218.68981638  73.34060398
3450.00 -218.92279419  73.45995278
3452.00 -219.15585412  73.57941772
3454.00 -219.38899609  73.69899883
3456.00 -219.62222002  73.81869611
3458.00 -219.85552585  73.93850961
3460.00 -220.08891349  74.05843933
3462.00 -220.32238287  74.17848531
3464.00 -220.55593392  74.29864756
3466.00 -220.78956656  74.41892610
3468.00 -221.02328073  74.53932097
3470.00 -221.25707634  74.65983217
3472.00 -221.49095333  74.78045974
3474.00 -221.72491161  74.90120369
3476.00 -221.95895112  75.02206405
3478.00 -222.19307177  75.14304084
3480.00 -222.42727351  75.26413408
3482.00 -222.66155624  75.38534379
3484.00 -222.89591991  75.50667000
3486.00 -223.13036442  75.62811273
3488.00 -223.36488972  75.74967199
3490.00 -223.59949573  75.87134781
3492.00 -223.83418236  75.99314021
3494.00 -224.06894955  76.11504922
3496.00 -224.30379723  76.23707485
3498.00 -224.53872532  76.35921712
3500.00 -224.77373374  76.48147606
3502.00 -225.00882243  76.60385169
3504.00 -225.24399130  76.72634403
3506.00 -225.47924028  76.84895310
3508.00 -225.71456931  76.97167892
3510.00 -225.94997830  77.09452152
3512.00 -226.18546719  77.21748091
3514.00 -226.42103589  77.34055711
3516.00 -226.65668433  77.46375015
3518.00 -226.89241245  77.58706005
3520.00 -227.12822016  77.71048682
3522.00 -227.36410739  77.83403049
3524.00 -227.60007407  77.95769108
3526.00 -227.83612013  78.08146861
3528.00 -228.07224548  78.20536310
3530.00 -228.30845006  78.32937457
3532.00 -228.54473379  78.45350304
3534.00 -228.78109660  78.57774853
3536.00 -229.01753841  78.70211106
3538.00 -229.25405916  78.82659066
3540.00 -229.49065876  78.95118733
3542.00 -229.72733714  79.07590111
3544.00 -229.96409423  79.20073201
3546.00 -230.20092995  79.32568006
3548.00 -230.43784424  79.45074527
3550.00 -230.67483701  79.57592766
3552.00 -230.91190819  79.70122725
3554.00 -231.14905771  79.82664406
3556.00 -231.38628550  79.95217812
3558.00 -231.62359147  80.07782944
3560.00 -231.86097557  80.20359804
3562.00 -232.09843770  80.32948394
3564.00 -232.33597781  80.45548716
3566.00 -232.57359581  80.58160772
3568.00 -232.81129163  80.70784564
3570.00 -233.04906519  80.83420094
3572.00 -233.28691643  80.96067364
3574.00 -233.52484527  81.08726375
3576.00 -233.76285164  81.21397131
3578.00 -234.00093545  81.34079632
3580.00 -234.23909664  81.46773880
3582.00 -234.47733514  81.59479878
3584.00 -234.71565087  81.72197627
3586.00 -234.95404375  81.84927130
3588.00 -235.19251372  81.97668387
3590.00 -235.43106069  82.10421402
3592.00 -235.66968459  82.23186175
3594.00 -235.90838536  82.35962709
3596.00 -236.14716292  82.48751006
3598.00 -236.38601718  82.61551068
3600.00 -236.62494809  82.74362895
3602.00 -236.86395556  82.87186491
3604.00 -237.10303952  83.00021857
3606.00 -237.34219990  83.12868995
3608.00 -237.58143662  83.25727906
3610.00 -237.82074961  83.38598594
3612.00 -238.06013880  83.51481058
3614.00 -238.29960411  83.64375302
3616.00 -238.53914547  83.77281327
3618.00 -238.77876281  83.90199134
3620.00 -239.01845604  84.03128726
3622.00 -239.25822510  84.16070105
3624.00 -239.49806991  84.29023272
3626.00 -239.73799041  84.41988229
3628.00 -239.97798651  84.54964977
3630.00 -240.21805814  84.67953519
3632.00 -240.45820522  84.80953857
3634.00 -240.69842770  84.93965991
3636.00 -240.93872548  85.06989925
3638.00 -241.17909850  85.20025659
3640.00 -241.41954668  85.33073196
3642.00 -241.66006996  85.46132536
3644.00 -241.90066824  85.59203683
3646.00 -242.14134147  85.72286637
3648.00 -242.38208957  85.85381400
3650.00 -242.62291247  85.98487974
3652.00 -242.86381008  86.11606361
3654.00 -243.10478234  86.24736563
3656.00 -243.34582917  86.37878580
3658.00 -243.58695050  86.51032416
3660.00 -243.82814626  86.64198071
3662.00 -244.06941637  86.77375547
3664.00 -244.31076076  86.90564847
3666.00 -244.55217936  87.03765970
3668.00 -244.79367209  87.16978920
3670.00 -245.03523887  87.30203699
3672.00 -245.27687964  87.43440306
3674.00 -245.51859431  87.56688745
3676.00 -245.76038283  87.69949017
3678.00 -246.00224511  87.83221123
3680.00 -246.24418107  87.96505066
3682.00 -246.48619066  88.09800846
3684.00 -246.72827378  88.23108466
3686.00 -246.97043037  88.36427927
3688.00 -247.21266036  88.49759231
3690.00 -247.45496367  88.63102379
3692.00 -247.69734023  88.76457373
3694.00 -247.93978996  88.89824214
3696.00 -248.18231279  89.03202905
3698.00 -248.42490865  89.16593446
3700.00 -248.66757747  89.29995840
3702.00 -248.91031916  89.43410087
3704.00 -249.15313366  89.56836190
3706.00 -249.39602089  89.70274150
3708.00 -249.63898079  89.83723968
3710.00 -249.88201326  89.97185647
3712.00 -250.12511825  90.10659188
3714.00 -250.36829568  90.24144591
3716.00 -250.61154548  90.37641860
3718.00 -250.85486756  90.51150995
3720.00 -251.09826187  90.64671997
3722.00 -251.34172832  90.78204869
3724.00 -251.58526684  90.91749612
3726.00 -251.82887736  91.05306228
3728.00 -252.07255980  91.18874717
3730.00 -252.31631410  91.32455082
3732.00 -252.56014017  91.46047324
3734.00 -252.80403795  91.59651444
3736.00 -253.04800735  91.73267444
3738.00 -253.29204832  91.86895326
3740.00 -253.53616077  92.00535090
3742.00 -253.78034463  92.14186739
3744.00 -254.02459982  92.27850274
3746.00 -254.26892628  92.41525696
3748.00 -254.51332394  92.55213007
3750.00 -254.75779270  92.68912208
3752.00 -255.00233251  92.82623300
3754.00 -255.24694330  92.96346286
3756.00 -255.49162497  93.10081167
3758.00 -255.73637748  93.23827943
3760.00 -255.98120073  93.37586617
3762.00 -256.22609466  93.51357189
3764.00 -256.47105919  93.65139662
3766.00 -256.71609426  93.78934036
3768.00 -256.96119978  93.92740314
3770.00 -257.20637568  94.06558496
3772.00 -257.45162190  94.20388584
3774.00 -257.69693835  94.34230579
3776.00 -257.94232496  94.48084482
3778.00 -258.18778167  94.61950296
3780.00 -258.43330840  94.75828021
3782.00 -258.67890506  94.89717659
3784.00 -258.92457160  95.03619211
3786.00 -259.17030794  95.17532678
3788.00 -259.41611400  95.31458062
3790.00 -259.66198972  95.45395364
3792.00 -259.90793501  95.59344586
3794.00 -260.15394980  95.73305729
3796.00 -260.40003403  95.87278793
3798.00 -260.64618762  96.01263782
3800.00 -260.89241049  96.15260695
3802.00 -261.13870258  96.29269534
3804.00 -261.38506380  96.43290301
3806.00 -261.63149409  96.57322996
3808.00 -261.87799337  96.71367621
3810.00 -262.12456158  96.85424178
3812.00 -262.37119863  96.99492667
3814.00 -262.61790445  97.13573091
3816.00 -262.86467897  97.27665449
3818.00 -263.11152212  97.41769744
3820.00 -263.35843383  97.55885977
3822.00 -263.60541402  97.70014148
3824.00 -263.85246261  97.84154260
3826.00 -264.09957954  97.98306313
3828.00 -264.34676474  98.12470309
3830.00 -264.59401812  98.26646249
3832.00 -264.84133962  98.40834135
3834.00 -265.08872916  98.55033966
3836.00 -265.33618667  98.69245746
3838.00 -265.58371208  98.83469474
3840.00 -265.83130531  98.97705152
3842.00 -266.07896630  99.11952782
3844.00 -266.32669496  99.26212364
3846.00 -266.57449123  99.40483900
3848.00 -266.82235503  99.54767391
3850.00 -267.07028629  99.69062838
3852.00 -267.31828493  99.83370242
3854.00 -267.56635090  99.97689605
3856.00 -267.81448410 100.12020928
3858.00 -268.06268447 100.26364211
3860.00 -268.31095193 100.40719456
3862.00 -268.55928642 100.55086664
3864.00 -268.80768786 100.69465837
3866.00 -269.05615617 100.83856975
3868.00 -269.30469129 100.98260080
3870.00 -269.55329313 101.12675152
3872.00 -269.80196164 101.27102193
3874.00 -270.05069673 101.41541204
3876.00 -270.29949834 101.55992187
3878.00 -270.54836638 101.70455141
3880.00 -270.79730079 101.84930069
3882.00 -271.04630150 101.99416971
3884.00 -271.29536842 102.13915849
3886.00 -271.54450150 102.28426703
3888.00 -271.79370065 102.42949535
3890.00 -272.04296580 102.57484346
3892.00 -272.29229689 102.72031137
3894.00 -272.54169383 102.86589909
3896.00 -272.79115656 103.01160663
3898.00 -273.04068500 103.15743400
3900.00 -273.29027909 103.30338121
3902.00 -273.53993873 103.44944827
3904.00 -273.78966388 103.59563519
3906.00 -274.03945444 103.74194199
3908.00 -274.28931036 103.88836867
3910.00 -274.53923155 104.03491525
3912.00 -274.78921795 104.18158173
3914.00 -275.03926947 104.32836812
3916.00 -275.28938606 104.47527444
3918.00 -275.53956763 104.62230069
3920.00 -275.78981412 104.76944689
3922.00 -276.04012545 104.91671304
3924.00 -276.29050155 105.06409916
3926.00 -276.54094234 105.21160525
3928.00 -276.79144776 105.35923133
3930.00 -277.04201773 105.50697740
3932.00 -277.29265218 105.65484348
3934.00 -277.54335104 105.80282957
3936.00 -277.79411423 105.95093568
3938.00 -278.04494168 106.09916182
3940.00 -278.29583332 106.24750801
3942.00 -278.54678908 106.39597425
3944.00 -278.79780888 106.54456056
3946.00 -279.04889265 106.69326693
3948.00 -279.30004033 106.84209338
3950.00 -279.55125183 106.99103993
3952.00 -279.80252708 107.14010657
3954.00 -280.05386602 107.28929332
3956.00 -280.30526857 107.43860019
3958.00 -280.55673466 107.58802719
3960.00 -280.80826421 107.73757432
3962.00 -281.05985715 107.88724160
3964.00 -281.31151342 108.03702903
3966.00 -281.56323293 108.18693662
3968.00 -281.81501563 108.33696438
3970.00 -282.06686142 108.48711233
3972.00 -282.31877025 108.63738046
3974.00 -282.57074204 108.78776880
3976.00 -282.82277671 108.93827733
3978.00 -283.07487421 109.08890609
3980.00 -283.32703444 109.23965506
3982.00 -283.57925734 109.39052427
3984.00 -283.83154285 109.54151372
3986.00 -284.08389088 109.69262342
3988.00 -284.33630137 109.84385338
3990.00 -284.58877423 109.99520360
3992.00 -284.84130941 110.14667409
3994.00 -285.09390683 110.29826487
3996.00 -285.34656641 110.44997594
3998.00 -285.59928809 110.60180731
4000.00 -285.85207179 110.75375898
4002.00 -286.10491744 110.90583097
4004.00 -286.35782497 111.05802328
4006.00 -286.61079430 111.21033592
4008.00 -286.86382537 111.36276890
4010.00 -287.11691810 111.51532222
4012.00 -287.37007242 111.66799590
4014.00 -287.62328825 111.82078994
4016.00 -287.87656554 111.97370435
4018.00 -288.12990420 112.12673914
4020.00 -288.38330416 112.27989431
4022.00 -288.63676535 112.43316987
4024.00 -288.89028770 112.58656583
4026.00 -289.14387113 112.74008220
4028.00 -289.39751558 112.89371898
4030.00 -289.65122098 113.04747619
4032.00 -289.90498724 113.20135382
4034.00 -290.15881431 113.35535189
4036.00 -290.41270210 113.50947040
4038.00 -290.66665054 113.66370936
4040.00 -290.92065958 113.81806878
4042.00 -291.17472912 113.97254866
4044.00 -291.42885910 114.12714902
4046.00 -291.68304945 114.28186985
4048.00 -291.93730010 114.43671117
4050.00 -292.19161097 114.59167298
4052.00 -292.44598200 114.74675528
4054.00 -292.70041311 114.90195810
4056.00 -292.95490423 115.05728142
4058.00 -293.20945528 115.21272526
4060.00 -293.46406621 115.36828963
4062.00 -293.71873693 115.52397453
4064.00 -293.97346737 115.67977997
4066.00 -294.22825746 115.83570595
4068.00 -294.48310714 115.99175249
4070.00 -294.73801632 116.14791958
4072.00 -294.99298494 116.30420723
4074.00 -295.24801292 116.46061546
4076.00 -295.50310020 116.61714426
4078.00 -295.75824671 116.77379364
4080.00 -296.01345236 116.93056361
4082.00 -296.26871709 117.08745418
4084.00 -296.52404083 117.24446534
4086.00 -296.77942351 117.40159711
4088.00 -297.03486505 117.55884949
4090.00 -297.29036539 117.71622249
4092.00 -297.54592444 117.87371612
4094.00 -297.80154215 118.03133037
4096.00 -298.05721844 118.18906526
4098.00 -298.31295324 118.34692079
4100.00 -298.56874647 118.50489696
4102.00 -298.82459807 118.66299379
4104.00 -299.08050796 118.82121127
4106.00 -299.33647608 118.97954942
4108.00 -299.59250235 119.13800823
4110.00 -299.84858669 119.29658772
4112.00 -300.10472905 119.45528789
4114.00 -300.36092934 119.61410874
4116.00 -300.61718750 119.77305028
4118.00 -300.87350346 119.93211251
4120.00 -301.12987714 120.09129544
4122.00 -301.38630847 120.25059908
4124.00 -301.64279738 120.41002343
4126.00 -301.89934381 120.56956849
4128.00 -302.15594767 120.72923427
4130.00 -302.41260890 120.88902078
4132.00 -302.66932743 121.04892801
4134.00 -302.92610318 121.20895598
4136.00 -303.18293609 121.36910468
4138.00 -303.43982609 121.52937413
4140.00 -303.69677309 121.68976433
4142.00 -303.95377704 121.85027528
4144.00 -304.21083786 122.01090699
4146.00 -304.46795548 122.17165945
4148.00 -304.72512982 122.33253269
4150.00 -304.98236083 122.49352669
4152.00 -305.23964842 122.65464147
4154.00 -305.49699252 122.81587703
4156.00 -305.75439307 122.97723336
4158.00 -306.01185000 123.13871049
4160.00 -306.26936323 123.30030841
4162.00 -306.52693269 123.46202712
4164.00 -306.78455831 123.62386664
4166.00 -307.04224002 123.78582695
4168.00 -307.29997775 123.94790808
4170.00 -307.55777144 124.11011001
4172.00 -307.81562099 124.27243276
4174.00 -308.07352636 124.43487633
4176.00 -308.33148746 124.59744072
4178.00 -308.58950423 124.76012594
4180.00 -308.84757659 124.92293199
4182.00 -309.10570448 125.08585887
4184.00 -309.36388782 125.24890659
4186.00 -309.62212654 125.41207515
4188.00 -309.88042058 125.57536455
4190.00 -310.13876985 125.73877480
4192.00 -310.39717430 125.90230590
4194.00 -310.65563385 126.06595786
4196.00 -310.91414843 126.22973067
4198.00 -311.17271796 126.39362435
4200.00 -311.43134239 126.55763889
4202.00 -311.69002163 126.72177429
4204.00 -311.94875562 126.88603057
4206.00 -312.20754429 127.05040772
4208.00 -312.46638756 127.21490575
4210.00 -312.72528537 127.37952465
4212.00 -312.98423764 127.54426444
4214.00 -313.24324431 127.70912511
4216.00 -313.50230531 127.87410667
4218.00 -313.76142055 128.03920912
4220.00 -314.02058999 128.20443247
4222.00 -314.27981353 128.36977671
4224.00 -314.53909112 128.53524185
4226.00 -314.79842268 128.70082789
4228.00 -315.05780814 128.86653483
4230.00 -315.31724743 129.03236268
4232.00 -315.57674049 129.19831144
4234.00 -315.83628723 129.36438111
4236.00 -316.09588760 129.53057169
4238.00 -316.35554152 129.69688319
4240.00 -316.61524892 129.86331560
4242.00 -316.87500973 130.02986894
4244.00 -317.13482388 130.19654320
4246.00 -317.39469129 130.36333838
4248.00 -317.65461191 130.53025449
4250.00 -317.91458566 130.69729153
4252.00 -318.17461247 130.86444950
4254.00 -318.43469226 131.03172840
4256.00 -318.69482498 131.19912823
4258.00 -318.95501054 131.36664900
4260.00 -319.21524889 131.53429071
4262.00 -319.47553994 131.70205336
4264.00 -319.73588363 131.86993694
4266.00 -319.99627989 132.03794147
4268.00 -320.25672865 132.20606695
4270.00 -320.51722984 132.37431337
4272.00 -320.77778339 132.54268074
4274.00 -321.03838922 132.71116906
4276.00 -321.29904728 132.87977833
4278.00 -321.55975749 133.04850855
4280.00 -321.82051977 133.21735972
4282.00 -322.08133406 133.38633185
4284.00 -322.34220030 133.55542493
4286.00 -322.60311840 133.72463897
4288.00 -322.86408830 133.89397397
4290.00 -323.12510994 134.06342992
4292.00 -323.38618323 134.23300684
4294.00 -323.64730812 134.40270472
4296.00 -323.90848452 134.57252356
4298.00 -324.16971238 134.74246336
4300.00 -324.43099162 134.91252412
4302.00 -324.69232217 135.08270585
4304.00 -324.95370396 135.25300855
4306.00 -325.21513692 135.42343221
4308.00 -325.47662099 135.59397683
4310.00 -325.73815609 135.76464243
4312.00 -325.99974216 135.93542899
4314.00 -326.26137912 136.10633652
4316.00 -326.52306690 136.27736502
4318.00 -326.78480544 136.44851449
4320.00 -327.04659466 136.61978493
4322.00 -327.30843450 136.79117634
4324.00 -327.57032488 136.96268872
4326.00 -327.83226575 137.13432207
4328.00 -328.09425702 137.30607639
4330.00 -328.35629863 137.47795168
4332.00 -328.61839050 137.64994794
4334.00 -328.88053258 137.82206517
4336.00 -329.14272478 137.99430338
4338.00 -329.40496705 138.16666256
4340.00 -329.66725931 138.33914270
4342.00 -329.92960149 138.51174382
4344.00 -330.19199352 138.68446591
4346.00 -330.45443534 138.85730897
4348.00 -330.71692687 139.03027300
4350.00 -330.97946804 139.20335800
4352.00 -331.24205879 139.37656397
4354.00 -331.50469905 139.54989091
4356.00 -331.76738874 139.72333882
4358.00 -332.03012780 139.89690770
4360.00 -332.29291616 140.07059755
4362.00 -332.55575375 140.24440836
4364.00 -332.81864050 140.41834014
4366.00 -333.08157635 140.59239289
4368.00 -333.34456121 140.76656660
4370.00 -333.60759503 140.94086128
4372.00 -333.87067773 141.11527692
4374.00 -334.13380925 141.28981353
4376.00 -334.39698952 141.46447110
4378.00 -334.66021846 141.63924963
4380.00 -334.92349601 141.81414912
4382.00 -335.18682210 141.98916957
4384.00 -335.45019666 142.16431098
4386.00 -335.71361962 142.33957334
4388.00 -335.97709092 142.51495667
4390.00 -336.24061048 142.69046094
4392.00 -336.50417823 142.86608618
4394.00 -336.76779411 143.04183236
4396.00 -337.03145805 143.21769950
4398.00 -337.29516998 143.39368758
4400.00 -337.55892982 143.56979662
4402.00 -337.82273752 143.74602660
4404.00 -338.08659300 143.92237753
4406.00 -338.35049620 144.09884940
4408.00 -338.61444703 144.27544222
4410.00 -338.87844545 144.45215597
4412.00 -339.14249137 144.62899067
4414.00 -339.40658474 144.80594630
4416.00 -339.67072547 144.98302287
4418.00 -339.93491351 145.16022037
4420.00 -340.19914878 145.33753881
4422.00 -340.46343121 145.51497817
4424.00 -340.72776074 145.69253847
4426.00 -340.99213730 145.87021969
4428.00 -341.25656082 146.04802184
4430.00 -341.52103122 146.22594490
4432.00 -341.78554846 146.40398889
4434.00 -342.05011244 146.58215380
4436.00 -342.31472311 146.76043962
4438.00 -342.57938040 146.93884636
4440.00 -342.84408424 147.11737400
4442.00 -343.10883455 147.29602256
4444.00 -343.37363128 147.47479203
4446.00 -343.63847436 147.65368239
4448.00 -343.90336371 147.83269366
4450.00 -344.16829927 148.01182583
4452.00 -344.43328096 148.19107890
4454.00 -344.69830873 148.37045286
4456.00 -344.96338250 148.54994771
4458.00 -345.22850220 148.72956346
4460.00 -345.49366778 148.90930008
4462.00 -345.75887914 149.08915760
4464.00 -346.02413624 149.26913599
4466.00 -346.28943901 149.44923526
4468.00 -346.55478736 149.62945540
4470.00 -346.82018124 149.80979642
4472.00 -347.08562058 149.99025831
4474.00 -347.35110531 150.17084106
4476.00 -347.61663537 150.35154468
4478.00 -347.88221067 150.53236915
4480.00 -348.14783116 150.71331449
4482.00 -348.41349677 150.89438067
4484.00 -348.67920743 151.07556771
4486.00 -348.94496308 151.25687560
4488.00 -349.21076363 151.43830432
4490.00 -349.47660904 151.61985389
4492.00 -349.74249922 151.80152430
4494.00 -350.00843411 151.98331554
4496.00 -350.27441365 152.16522761
4498.00 -350.54043776 152.34726051
4500.00 -350.80650638 152.52941422
4502.00 -351.07261944 152.71168876
4504.00 -351.33877687 152.89408412
4506.00 -351.60497860 153.07660029
4508.00 -351.87122458 153.25923726
4510.00 -352.13751472 153.44199504
4512.00 -352.40384896 153.62487362
4514.00 -352.67022724 153.80787300
4516.00 -352.93664949 153.99099317
4518.00 -353.20311563 154.17423413
4520.00 -353.46962560 154.35759587
4522.00 -353.73617934 154.54107840
4524.00 -354.00277678 154.72468170
4526.00 -354.26941784 154.90840578
4528.00 -354.53610247 155.09225062
4530.00 -354.80283059 155.27621623
4532.00 -355.06960214 155.46030260
4534.00 -355.33641704 155.64450972
4536.00 -355.60327524 155.82883759
4538.00 -355.87017666 156.01328622
4540.00 -356.13712124 156.19785558
4542.00 -356.40410891 156.38254569
4544.00 -356.67113960 156.56735652
4546.00 -356.93821325 156.75228809
4548.00 -357.20532979 156.93734038
4550.00 -357.47248915 157.12251339
4552.00 -357.73969126 157.30780712
4554.00 -358.00693606 157.49322156
4556.00 -358.27422347 157.67875670
4558.00 -358.54155345 157.86441254
4560.00 -358.80892590 158.05018908
4562.00 -359.07634077 158.23608631
4564.00 -359.34379800 158.42210423
4566.00 -359.61129751 158.60824283
4568.00 -359.87883924 158.79450211
4570.00 -360.14642311 158.98088205
4572.00 -360.41404907 159.16738267
4574.00 -360.68171705 159.35400394
4576.00 -360.94942698 159.54074587
4578.00 -361.21717879 159.72760845
4580.00 -361.48497241 159.91459168
4582.00 -361.75280778 160.10169555
4584.00 -362.02068484 160.28892005
4586.00 -362.28860351 160.47626518
4588.00 -362.55656373 160.66373094
4590.00 -362.82456543 160.85131731
4592.00 -363.09260854 161.03902430
4594.00 -363.36069300 161.22685189
4596.00 -363.62881875 161.41480009
4598.00 -363.89698571 161.60286888
4600.00 -364.16519382 161.79105827
4602.00 -364.43344301 161.97936824
4604.00 -364.70173321 162.16779878
4606.00 -364.97006436 162.35634990
4608.00 -365.23843639 162.54502159
4610.00 -365.50684924 162.73381384
4612.00 -365.77530284 162.92272665
4614.00 -366.04379712 163.11176001
4616.00 -366.31233202 163.30091391
4618.00 -366.58090746 163.49018835
4620.00 -366.84952339 163.67958332
4622.00 -367.11817973 163.86909881
4624.00 -367.38687643 164.05873483
4626.00 -367.65561340 164.24849136
4628.00 -367.92439060 164.43836839
4630.00 -368.19320795 164.62836593
4632.00 -368.46206538 164.81848396
4634.00 -368.73096283 165.00872248
4636.00 -368.99990023 165.19908148
4638.00 -369.26887751 165.38956095
4640.00 -369.53789462 165.58016090
4642.00 -369.80695148 165.77088130
4644.00 -370.07604803 165.96172217
4646.00 -370.34518420 166.15268348
4648.00 -370.61435993 166.34376523
4650.00 -370.88357514 166.53496742
4652.00 -371.15282978 166.72629004
4654.00 -371.42212377 166.91773308
4656.00 -371.69145706 167.10929653
4658.00 -371.96082957 167.30098040
4660.00 -372.23024123 167.49278467
4662.00 -372.49969200 167.68470933
4664.00 -372.76918179 167.87675438
4666.00 -373.03871054 168.06891980
4668.00 -373.30827818 168.26120561
4670.00 -373.57788466 168.45361178
4672.00 -373.84752990 168.64613831
4674.00 -374.11721384 168.83878519
4676.00 -374.38693641 169.03155242
4678.00 -374.65669754 169.22443998
4680.00 -374.92649718 169.41744788
4682.00 -375.19633525 169.61057610
4684.00 -375.46621169 169.80382463
4686.00 -375.73612643 169.99719347
4688.00 -376.00607942 170.19068262
4690.00 -376.27607057 170.38429206
4692.00 -376.54609983 170.57802178
4694.00 -376.81616713 170.77187178
4696.00 -377.08627241 170.96584206
4698.00 -377.35641560 171.15993259
4700.00 -377.62659663 171.35414338
4702.00 -377.89681544 171.54847442
4704.00 -378.16707197 171.74292570
4706.00 -378.43736614 171.93749722
4708.00 -378.70769790 172.13218895
4710.00 -378.97806717 172.32700091
4712.00 -379.24847389 172.52193307
4714.00 -379.51891801 172.71698543
4716.00 -379.78939944 172.91215799
4718.00 -380.05991813 173.10745073
4720.00 -380.33047401 173.30286364
4722.00 -380.60106702 173.49839673
4724.00 -380.87169708 173.69404997
4726.00 -381.14236414 173.88982337
4728.00 -381.41306813 174.08571691
4730.00 -381.68380899 174.28173059
4732.00 -381.95458665 174.47786439
4734.00 -382.22540104 174.67411831
4736.00 -382.49625210 174.87049235
4738.00 -382.76713976 175.06698648
4740.00 -383.03806397 175.26360071
4742.00 -383.30902465 175.46033503
4744.00 -383.58002173 175.65718942
4746.00 -383.85105517 175.85416388
4748.00 -384.12212488 176.05125840
4750.00 -384.39323080 176.24847297
4752.00 -384.66437288 176.44580758
4754.00 -384.93555104 176.64326222
4756.00 -385.20676523 176.84083689
4758.00 -385.47801536 177.03853158
4760.00 -385.74930139 177.23634627
4762.00 -386.02062324 177.43428096
4764.00 -386.29198086 177.63233564
4766.00 -386.56337417 177.83051029
4768.00 -386.83480311 178.02880492
4770.00 -387.10626762 178.22721952
4772.00 -387.37776763 178.42575406
4774.00 -387.64930308 178.62440855
4776.00 -387.92087391 178.82318297
4778.00 -388.19248004 179.02207732
4780.00 -388.46412141 179.22109159
4782.00 -388.73579797 179.42022576
4784.00 -389.00750964 179.61947983
4786.00 -389.27925636 179.81885379
4788.00 -389.55103806 180.01834762
4790.00 -389.82285469 180.21796133
4792.00 -390.09470618 180.41769490
4794.00 -390.36659246 180.61754831
4796.00 -390.63851346 180.81752157
4798.00 -390.91046913 181.01761466
4800.00 -391.18245941 181.21782757
4802.00 -391.45448421 181.41816029
4804.00 -391.72654349 181.61861282
4806.00 -391.99863718 181.81918514
4808.00 -392.27076521 182.01987724
4810.00 -392.54292751 182.22068911
4812.00 -392.81512404 182.42162075
4814.00 -393.08735471 182.62267214
4816.00 -393.35961947 182.82384327
4818.00 -393.63191825 183.02513414
4820.00 -393.90425099 183.22654473
4822.00 -394.17661762 183.42807504
4824.00 -394.44901809 183.62972505
4826.00 -394.72145232 183.83149475
4828.00 -394.99392026 184.03338413
4830.00 -395.26642183 184.23539319
4832.00 -395.53895697 184.43752191
4834.00 -395.81152563 184.63977028
4836.00 -396.08412774 184.84213830
4838.00 -396.35676322 185.04462595
4840.00 -396.62943203 185.24723322
4842.00 -396.90213409 185.44996010
4844.00 -397.17486935 185.65280658
4846.00 -397.44763773 185.85577265
4848.00 -397.72043918 186.05885830
4850.00 -397.99327362 186.26206352
4852.00 -398.26614101 186.46538830
4854.00 -398.53904127 186.66883262
4856.00 -398.81197433 186.87239649
4858.00 -399.08494015 187.07607988
4860.00 -399.35793864 187.27988278
4862.00 -399.63096976 187.48380519
4864.00 -399.90403343 187.68784710
4866.00 -400.17712960 187.89200849
4868.00 -400.45025819 188.09628935
4870.00 -400.72341915 188.30068967
4872.00 -400.99661241 188.50520944
4874.00 -401.26983790 188.70984866
4876.00 -401.54309558 188.91460730
4878.00 -401.81638536 189.11948536
4880.00 -402.08970720 189.32448282
4882.00 -402.36306102 189.52959969
4884.00 -402.63644676 189.73483593
4886.00 -402.90986436 189.94019155
4888.00 -403.18331376 190.14566653
4890.00 -403.45679488 190.35126086
4892.00 -403.73030768 190.55697453
4894.00 -404.00385209 190.76280753
4896.00 -404.27742804 190.96875984
4898.00 -404.55103546 191.17483146
4900.00 -404.82467431 191.38102237
4902.00 -405.09834451 191.58733256
4904.00 -405.37204600 191.79376203
4906.00 -405.64577872 192.00031075
4908.00 -405.91954260 192.20697872
4910.00 -406.19333759 192.41376593
4912.00 -406.46716361 192.62067236
4914.00 -406.74102062 192.82769800
4916.00 -407.01490853 193.03484284
4918.00 -407.28882730 193.24210687
4920.00 -407.56277686 193.44949008
4922.00 -407.83675714 193.65699245
4924.00 -408.11076808 193.86461398
4926.00 -408.38480962 194.07235464
4928.00 -408.65888170 194.28021444
4930.00 -408.93298426 194.48819335
4932.00 -409.20711723 194.69629137
4934.00 -409.48128055 194.90450848
4936.00 -409.75547415 195.11284467
4938.00 -410.02969798 195.32129993
4940.00 -410.30395197 195.52987425
4942.00 -410.57823606 195.73856761
4944.00 -410.85255019 195.94738001
4946.00 -411.12689429 196.15631142
4948.00 -411.40126830 196.36536184
4950.00 -411.67567216 196.57453126
4952.00 -411.95010581 196.78381966
4954.00 -412.22456919 196.99322703
4956.00 -412.49906223 197.20275335
4958.00 -412.77358486 197.41239862
4960.00 -413.04813704 197.62216283
4962.00 -413.32271869 197.83204596
4964.00 -413.59732976 198.04204799
4966.00 -413.87197018 198.25216892
4968.00 -414.14663988 198.46240873
4970.00 -414.42133882 198.67276741
4972.00 -414.69606692 198.88324494
4974.00 -414.97082412 199.09384132
4976.00 -415.24561036 199.30455653
4978.00 -415.52042558 199.51539057
4980.00 -415.79526972 199.72634340
4982.00 -416.07014272 199.93741503
4984.00 -416.34504451 200.14860544
4986.00 -416.61997502 200.35991461
4988.00 -416.89493421 200.57134254
4990.00 -417.16992201 200.78288921
4992.00 -417.44493835 200.99455461
4994.00 -417.71998317 201.20633872
4996.00 -417.99505642 201.41824153
4998.00 -418.27015803 201.63026303
5000.00 -418.54528793 201.84240320
