wavelength(nm)         real         imag
100.00   3.75619232   0.00137421
102.00   3.75038305   0.00145832
104.00   3.74445878   0.00154579
106.00   3.73841952   0.00163669
108.00   3.73226528   0.00173109
110.00   3.72599605   0.00182904
112.00   3.71961184   0.00193063
114.00   3.71311266   0.00203590
116.00   3.70649850   0.00214494
118.00   3.69976937   0.00225779
120.00   3.69292527   0.00237454
122.00   3.68596620   0.00249525
124.00   3.67889217   0.00261998
126.00   3.67170318   0.00274879
128.00   3.66439924   0.00288177
130.00   3.65698034   0.00301896
132.00   3.64944649   0.00316043
134.00   3.64179769   0.00330626
136.00   3.63403395   0.00345650
138.00   3.62615528   0.00361123
140.00   3.61816166   0.00377051
142.00   3.61005311   0.00393440
144.00   3.60182963   0.00410298
146.00   3.59349123   0.00427630
148.00   3.58503790   0.00445443
150.00   3.57646965   0.00463744
152.00   3.56778649   0.00482539
154.00   3.55898842   0.00501836
156.00   3.55007544   0.00521640
158.00   3.54104756   0.00541958
160.00   3.53190478   0.00562797
162.00   3.52264710   0.00584164
164.00   3.51327454   0.00606064
166.00   3.50378708   0.00628505
168.00   3.49418474   0.00651493
170.00   3.48446752   0.00675034
172.00   3.47463543   0.00699136
174.00   3.46468847   0.00723805
176.00   3.45462664   0.00749047
178.00   3.44444995   0.00774869
180.00   3.43415841   0.00801277
182.00   3.42375201   0.00828279
184.00   3.41323076   0.00855880
186.00   3.40259467   0.00884088
188.00   3.39184374   0.00912908
190.00   3.38097798   0.00942348
192.00   3.36999739   0.00972414
194.00   3.35890197   0.01003112
196.00   3.34769173   0.01034450
198.00   3.33636668   0.01066434
200.00   3.32492682   0.01099069
202.00   3.31337216   0.01132364
204.00   3.30170269   0.01166324
206.00   3.28991843   0.01200956
208.00   3.27801938   0.01236267
210.00   3.26600555   0.01272262
212.00   3.25387694   0.01308950
214.00   3.24163355   0.01346336
216.00   3.22927540   0.01384427
218.00   3.21680248   0.01423229
220.00   3.20421480   0.01462749
222.00   3.19151238   0.01502994
224.00   3.17869520   0.01543970
226.00   3.16576329   0.01585683
228.00   3.15271664   0.01628141
230.00   3.13955527   0.01671350
232.00   3.12627916   0.01715316
234.00   3.11288835   0.01760046
236.00   3.09938281   0.01805547
238.00   3.08576258   0.01851825
240.00   3.07202764   0.01898887
242.00   3.05817801   0.01946738
244.00   3.04421369   0.01995387
246.00   3.03013469   0.02044839
248.00   3.01594101   0.02095100
250.00   3.00163267   0.02146179
252.00   2.98720966   0.02198080
254.00   2.97267199   0.02250811
256.00   2.95801968   0.02304378
258.00   2.94325272   0.02358788
260.00   2.92837112   0.02414047
262.00   2.91337489   0.02470162
264.00   2.89826403   0.02527139
266.00   2.88303856   0.02584985
268.00   2.86769848   0.02643707
270.00   2.85224379   0.02703311
272.00   2.83667450   0.02763803
274.00   2.82099063   0.02825190
276.00   2.80519217   0.02887480
278.00   2.78927913   0.02950677
280.00   2.77325152   0.03014789
282.00   2.75710935   0.03079823
284.00   2.74085262   0.03145784
286.00   2.72448134   0.03212680
288.00   2.70799552   0.03280517
290.00   2.69139517   0.03349302
292.00   2.67468029   0.03419040
294.00   2.65785089   0.03489739
296.00   2.64090697   0.03561406
298.00   2.62384855   0.03634046
300.00   2.60667563   0.03707666
302.00   2.58938822   0.03782274
304.00   2.57198633   0.03857874
306.00   2.55446997   0.03934475
308.00   2.53683913   0.04012082
310.00   2.51909384   0.04090702
312.00   2.50123409   0.04170341
314.00   2.48325990   0.04251006
316.00   2.46517127   0.04332705
318.00   2.44696822   0.04415442
320.00   2.42865074   0.04499225
322.00   2.41021885   0.04584060
324.00   2.39167256   0.04669954
326.00   2.37301187   0.04756913
328.00   2.35423679   0.04844944
330.00   2.33534733   0.04934053
332.00   2.31634350   0.05024247
334.00   2.29722531   0.05115533
336.00   2.27799276   0.05207916
338.00   2.25864586   0.05301404
340.00   2.23918463   0.05396003
342.00   2.21960906   0.05491720
344.00   2.19991918   0.05588560
346.00   2.18011498   0.05686531
348.00   2.16019648   0.05785640
350.00   2.14016368   0.05885892
352.00   2.12001660   0.05987294
354.00   2.09975523   0.06089852
356.00   2.07937960   0.06193574
358.00   2.05888971   0.06298466
360.00   2.03828557   0.06404533
362.00   2.01756719   0.06511784
364.00   1.99673457   0.06620224
366.00   1.97578773   0.06729860
368.00   1.95472667   0.06840697
370.00   1.93355141   0.06952744
372.00   1.91226196   0.07066006
374.00   1.89085831   0.07180490
376.00   1.86934049   0.07296203
378.00   1.84770850   0.07413150
380.00   1.82596235   0.07531338
382.00   1.80410205   0.07650775
384.00   1.78212761   0.07771466
386.00   1.76003904   0.07893418
388.00   1.73783635   0.08016637
390.00   1.71551955   0.08141130
392.00   1.69308865   0.08266904
394.00   1.67054366   0.08393964
396.00   1.64788458   0.08522319
398.00   1.62511144   0.08651973
400.00   1.60222423   0.08782933
402.00   1.57922297   0.08915206
404.00   1.55610767   0.09048799
406.00   1.53287834   0.09183718
408.00   1.50953498   0.09319969
410.00   1.48607762   0.09457560
412.00   1.46250625   0.09596495
414.00   1.43882090   0.09736783
416.00   1.41502156   0.09878429
418.00   1.39110825   0.10021440
420.00   1.36708098   0.10165823
422.00   1.34293977   0.10311583
424.00   1.31868461   0.10458728
426.00   1.29431553   0.10607263
428.00   1.26983253   0.10757197
430.00   1.24523562   0.10908534
432.00   1.22052482   0.11061281
434.00   1.19570013   0.11215445
436.00   1.17076157   0.11371033
438.00   1.14570914   0.11528050
440.00   1.12054287   0.11686503
442.00   1.09526275   0.11846400
444.00   1.06986880   0.12007745
446.00   1.04436103   0.12170547
448.00   1.01873945   0.12334810
450.00   0.99300407   0.12500543
452.00   0.96715491   0.12667750
454.00   0.94119197   0.12836439
456.00   0.91511528   0.13006617
458.00   0.88892482   0.13178288
460.00   0.86262063   0.13351461
462.00   0.83620271   0.13526142
464.00   0.80967107   0.13702336
466.00   0.78302573   0.13880051
468.00   0.75626669   0.14059293
470.00   0.72939396   0.14240068
472.00   0.70240757   0.14422384
474.00   0.67530752   0.14606245
476.00   0.64809382   0.14791659
478.00   0.62076648   0.14978633
480.00   0.59332552   0.15167172
482.00   0.56577095   0.15357284
484.00   0.53810278   0.15548974
486.00   0.51032102   0.15742249
488.00   0.48242568   0.15937116
490.00   0.45441678   0.16133580
492.00   0.42629433   0.16331650
494.00   0.39805834   0.16531330
496.00   0.36970883   0.16732627
498.00   0.34124580   0.16935549
500.00   0.31266926   0.17140100
502.00   0.28397924   0.17346289
504.00   0.25517574   0.17554120
506.00   0.22625878   0.17763601
508.00   0.19722836   0.17974738
510.00   0.16808451   0.18187538
512.00   0.13882723   0.18402006
514.00   0.10945653   0.18618150
516.00   0.07997243   0.18835976
518.00   0.05037495   0.19055490
520.00   0.02066409   0.19276699
522.00  -0.00916014   0.19499609
524.00  -0.03909771   0.19724226
526.00  -0.06914862   0.19950558
528.00  -0.09931285   0.20178609
530.00  -0.12959040   0.20408388
532.00  -0.15998124   0.20639900
534.00  -0.19048536   0.20873152
536.00  -0.22110276   0.21108150
538.00  -0.25183341   0.21344900
540.00  -0.28267731   0.21583410
542.00  -0.31363443   0.21823685
544.00  -0.34470478   0.22065731
546.00  -0.37588833   0.22309556
548.00  -0.40718507   0.22555166
550.00  -0.43859498   0.22802567
552.00  -0.47011806   0.23051765
554.00  -0.50175428   0.23302767
556.00  -0.53350365   0.23555580
558.00  -0.56536613   0.23810209
560.00  -0.59734172   0.24066661
562.00  -0.62943041   0.24324944
564.00  -0.66163217   0.24585062
566.00  -0.69394700   0.24847022
568.00  -0.72637489   0.25110831
570.00  -0.75891581   0.25376496
572.00  -0.79156975   0.25644022
574.00  -0.82433670   0.25913416
576.00  -0.85721665   0.26184685
578.00  -0.89020958   0.26457834
580.00  -0.92331548   0.26732871
582.00  -0.95653433   0.27009801
584.00  -0.98986611   0.27288631
586.00  -1.02331082   0.27569368
588.00  -1.05686844   0.27852017
590.00  -1.09053895   0.28136586
592.00  -1.12432235   0.28423080
594.00  -1.15821860   0.28711506
596.00  -1.19222771   0.29001871
598.00  -1.22634965   0.29294180
600.00  -1.26058442   0.29588440
602.00  -1.29493199   0.29884658
604.00  -1.32939235   0.30182840
606.00  -1.36396548   0.30482992
608.00  -1.39865138   0.30785121
610.00  -1.43345002   0.31089232
612.00  -1.46836140   0.31395334
614.00  -1.50338549   0.31703430
616.00  -1.53852228   0.32013529
618.00  -1.57377175   0.32325637
620.00  -1.60913390   0.32639760
622.00  -1.64460870   0.32955903
624.00  -1.68019614   0.33274075
626.00  -1.71589620   0.33594280
628.00  -1.75170887   0.33916526
630.00  -1.78763413   0.34240818
632.00  -1.82367197   0.34567164
634.00  -1.85982237   0.34895569
636.00  -1.89608532   0.35226040
638.00  -1.93246080   0.35558583
640.00  -1.96894879   0.35893204
642.00  -2.00554928   0.36229910
644.00  -2.04226226   0.36568708
646.00  -2.07908770   0.36909603
648.00  -2.11602559   0.37252602
650.00  -2.15307591   0.37597712
652.00  -2.19023866   0.37944937
654.00  -2.22751381   0.38294286
656.00  -2.26490134   0.38645765
658.00  -2.30240125   0.38999378
660.00  -2.34001350   0.39355134
662.00  -2.37773810   0.39713038
664.00  -2.41557502   0.40073097
666.00  -2.45352424   0.40435317
668.00  -2.49158575   0.40799704
670.00  -2.52975954   0.41166265
672.00  -2.56804557   0.41535006
674.00  -2.60644385   0.41905933
676.00  -2.64495435   0.42279053
678.00  -2.68357706   0.42654372
680.00  -2.72231196   0.43031896
682.00  -2.76115902   0.43411632
684.00  -2.80011825   0.43793585
686.00  -2.83918961   0.44177763
688.00  -2.87837309   0.44564172
690.00  -2.91766868   0.44952817
692.00  -2.95707635   0.45343706
694.00  -2.99659610   0.45736844
696.00  -3.03622790   0.46132238
698.00  -3.07597174   0.46529895
700.00  -3.11582759   0.46929819
702.00  -3.15579545   0.47332019
704.00  -3.19587529   0.47736499
706.00  -3.23606710   0.48143267
708.00  -3.27637086   0.48552329
710.00  -3.31678656   0.48963690
712.00  -3.35731416   0.49377358
714.00  -3.39795367   0.49793339
716.00  -3.43870505   0.50211638
718.00  -3.47956830   0.50632263
720.00  -3.52054339   0.51055219
722.00  -3.56163031   0.51480512
724.00  -3.60282904   0.51908150
726.00  -3.64413956   0.52338138
728.00  -3.68556186   0.52770483
730.00  -3.72709591   0.53205190
732.00  -3.76874169   0.53642267
734.00  -3.81049920   0.54081719
736.00  -3.85236841   0.54523553
738.00  -3.89434930   0.54967775
740.00  -3.93644186   0.55414392
742.00  -3.97864607   0.55863408
744.00  -4.02096190   0.56314832
746.00  -4.06338935   0.56768669
748.00  -4.10592839   0.57224925
750.00  -4.14857900   0.57683607
752.00  -4.19134117   0.58144721
754.00  -4.23421487   0.58608272
756.00  -4.27720010   0.59074269
758.00  -4.32029682   0.59542716
760.00  -4.36350503   0.60013620
762.00  -4.40682470   0.60486987
764.00  -4.45025582   0.60962823
766.00  -4.49379836   0.61441136
768.00  -4.53745230   0.61921930
770.00  -4.58121764   0.62405213
772.00  -4.62509434   0.62890990
774.00  -4.66908240   0.63379267
776.00  -4.71318178   0.63870052
778.00  -4.75739248   0.64363350
780.00  -4.80171447   0.64859167
782.00  -4.84614773   0.65357510
784.00  -4.89069225   0.65858384
786.00  -4.93534801   0.66361797
788.00  -4.98011498   0.66867755
790.00  -5.02499315   0.67376263
792.00  -5.06998250   0.67887327
794.00  -5.11508301   0.68400955
796.00  -5.16029465   0.68917152
798.00  -5.20561741   0.69435925
800.00  -5.25105128   0.69957279
802.00  -5.29659622   0.70481221
804.00  -5.34225223   0.71007758
806.00  -5.38801928   0.71536895
808.00  -5.43389735   0.72068638
810.00  -5.47988642   0.72602994
812.00  -5.52598647   0.73139970
814.00  -5.57219748   0.73679570
816.00  -5.61851944   0.74221802
818.00  -5.66495232   0.74766671
820.00  -5.71149610   0.75314185
822.00  -5.75815076   0.75864348
824.00  -5.80491629   0.76417168
826.00  -5.85179265   0.76972650
828.00  -5.89877984   0.77530801
830.00  -5.94587783   0.78091627
832.00  -5.99308661   0.78655133
834.00  -6.04040614   0.79221327
836.00  -6.08783641   0.79790214
838.00  -6.13537741   0.80361801
840.00  -6.18302910   0.80936094
842.00  -6.23079148   0.81513098
844.00  -6.27866451   0.82092821
846.00  -6.32664818   0.82675268
848.00  -6.37474247   0.83260446
850.00  -6.42294736   0.83848360
852.00  -6.47126282   0.84439017
854.00  -6.51968884   0.85032423
856.00  -6.56822539   0.85628584
858.00  -6.61687246   0.86227507
860.00  -6.66563002   0.86829197
862.00  -6.71449805   0.87433661
864.00  -6.76347653   0.88040904
866.00  -6.81256544   0.88650934
868.00  -6.86176476   0.89263755
870.00  -6.91107447   0.89879375
872.00  -6.96049455   0.90497800
874.00  -7.01002497   0.91119035
876.00  -7.05966572   0.91743087
878.00  -7.10941676   0.92369961
880.00  -7.15927809   0.92999665
882.00  -7.20924968   0.93632204
884.00  -7.25933151   0.94267584
886.00  -7.30952356   0.94905812
888.00  -7.35982580   0.95546893
890.00  -7.41023822   0.96190835
892.00  -7.46076078   0.96837641
894.00  -7.51139348   0.97487320
896.00  -7.56213629   0.98139878
898.00  -7.61298919   0.98795319
900.00  -7.66395215   0.99453651
902.00  -7.71502515   1.00114879
904.00  -7.76620818   1.00779010
906.00  -7.81750120   1.01446049
908.00  -7.86890421   1.02116004
910.00  -7.92041716   1.02788879
912.00  -7.97204006   1.03464682
914.00  -8.02377286   1.04143417
916.00  -8.07561556   1.04825092
918.00  -8.12756812   1.05509713
920.00  -8.17963052   1.06197285
922.00  -8.23180275   1.06887814
924.00  -8.28408478   1.07581307
926.00  -8.33647659   1.08277770
928.00  -8.38897815   1.08977209
930.00  -8.44158945   1.09679630
932.00  -8.49431046   1.10385039
934.00  -8.54714115   1.11093442
936.00  -8.60008151   1.11804846
938.00  -8.65313151   1.12519256
940.00  -8.70629113   1.13236678
942.00  -8.75956035   1.13957119
944.00  -8.81293915   1.14680584
946.00  -8.86642749   1.15407080
948.00  -8.92002537   1.16136613
950.00  -8.97373275   1.16869188
952.00  -9.02754961   1.17604813
954.00  -9.08147593   1.18343492
956.00  -9.13551169   1.19085233
958.00  -9.18965687   1.19830040
960.00  -9.24391143   1.20577921
962.00  -9.29827536   1.21328881
964.00  -9.35274864   1.22082926
966.00  -9.40733123   1.22840062
968.00  -9.46202313   1.23600296
970.00  -9.51682430   1.24363633
972.00  -9.57173471   1.25130080
974.00  -9.62675436   1.25899642
976.00  -9.68188321   1.26672325
978.00  -9.73712124   1.27448137
980.00  -9.79246842   1.28227081
982.00  -9.84792474   1.29009166
984.00  -9.90349017   1.29794396
986.00  -9.95916469   1.30582778
988.00 -10.01494826   1.31374318
990.00 -10.07084088   1.32169021
992.00 -10.12684251   1.32966895
994.00 -10.18295312   1.33767944
996.00 -10.23917271   1.34572175
998.00 -10.29550124   1.35379594
1000.00 -10.35193868   1.36190207
1002.00 -10.40848502   1.37004019
1004.00 -10.46514023   1.37821038
1006.00 -10.52190429   1.38641269
1008.00 -10.57877717   1.39464717
1010.00 -10.63575884   1.40291390
1012.00 -10.69284929   1.41121292
1014.00 -10.75004849   1.41954430
1016.00 -10.80735641   1.42790811
1018.00 -10.86477303   1.43630439
1020.00 -10.92229833   1.44473321
1022.00 -10.97993228   1.45319463
1024.00 -11.03767486   1.46168871
1026.00 -11.09552603   1.47021551
1028.00 -11.15348579   1.47877509
1030.00 -11.21155410   1.48736750
1032.00 -11.26973093   1.49599282
1034.00 -11.32801627   1.50465109
1036.00 -11.38641009   1.51334238
1038.00 -11.44491236   1.52206675
1040.00 -11.50352306   1.53082426
1042.00 -11.56224216   1.53961496
1044.00 -11.62106965   1.54843892
1046.00 -11.68000548   1.55729620
1048.00 -11.73904965   1.56618686
1050.00 -11.79820211   1.57511094
1052.00 -11.85746286   1.58406853
1054.00 -11.91683186   1.59305967
1056.00 -11.97630909   1.60208442
1058.00 -12.03589451   1.61114285
1060.00 -12.09558812   1.62023501
1062.00 -12.15538988   1.62936096
1064.00 -12.21529977   1.63852077
1066.00 -12.27531775   1.64771448
1068.00 -12.33544381   1.65694217
1070.00 -12.39567793   1.66620389
1072.00 -12.45602006   1.67549970
1074.00 -12.51647020   1.68482965
1076.00 -12.57702830   1.69419382
1078.00 -12.63769436   1.70359225
1080.00 -12.69846834   1.71302501
1082.00 -12.75935021   1.72249215
1084.00 -12.82033995   1.73199374
1086.00 -12.88143754   1.74152984
1088.00 -12.94264294   1.75110050
1090.00 -13.00395614   1.76070578
1092.00 -13.06537710   1.77034574
1094.00 -13.12690580   1.78002044
1096.00 -13.18854222   1.78972994
1098.00 -13.25028633   1.79947430
1100.00 -13.31213809   1.80925358
1102.00 -13.37409749   1.81906784
1104.00 -13.43616450   1.82891713
1106.00 -13.49833910   1.83880151
1108.00 -13.56062125   1.84872105
1110.00 -13.62301093   1.85867580
1112.00 -13.68550811   1.86866582
1114.00 -13.74811277   1.87869117
1116.00 -13.81082488   1.88875191
1118.00 -13.87364442   1.89884810
1120.00 -13.93657135   1.90897980
1122.00 -13.99960566   1.91914706
1124.00 -14.06274730   1.92934994
1126.00 -14.12599627   1.93958850
1128.00 -14.18935252   1.94986281
1130.00 -14.25281604   1.96017291
1132.00 -14.31638680   1.97051888
1134.00 -14.38006477   1.98090076
1136.00 -14.44384992   1.99131862
1138.00 -14.50774222   2.00177250
1140.00 -14.57174165   2.01226249
1142.00 -14.63584819   2.02278862
1144.00 -14.70006180   2.03335096
1146.00 -14.76438246   2.04394957
1148.00 -14.82881014   2.05458451
1150.00 -14.89334481   2.06525583
1152.00 -14.95798645   2.07596359
1154.00 -15.02273503   2.08670785
1156.00 -15.08759051   2.09748868
1158.00 -15.15255289   2.10830612
1160.00 -15.21762211   2.11916023
1162.00 -15.28279817   2.13005109
1164.00 -15.34808103   2.14097873
1166.00 -15.41347066   2.15194322
1168.00 -15.47896704   2.16294462
1170.00 -15.54457014   2.17398299
1172.00 -15.61027992   2.18505839
1174.00 -15.67609637   2.19617086
1176.00 -15.74201946   2.20732048
1178.00 -15.80804915   2.21850729
1180.00 -15.87418543   2.22973137
1182.00 -15.94042825   2.24099275
1184.00 -16.00677760   2.25229151
1186.00 -16.07323344   2.26362771
1188.00 -16.13979575   2.27500138
1190.00 -16.20646451   2.28641261
1192.00 -16.27323967   2.29786144
1194.00 -16.34012121   2.30934793
1196.00 -16.40710912   2.32087214
1198.00 -16.47420334   2.33243413
1200.00 -16.54140387   2.34403396
1202.00 -16.60871067   2.35567167
1204.00 -16.67612371   2.36734734
1206.00 -16.74364296   2.37906102
1208.00 -16.81126840   2.39081276
1210.00 -16.87899999   2.40260262
1212.00 -16.94683771   2.41443067
1214.00 -17.01478154   2.42629695
1216.00 -17.08283143   2.43820154
1218.00 -17.15098736   2.45014447
1220.00 -17.21924931   2.46212581
1222.00 -17.28761725   2.47414563
1224.00 -17.35609114   2.48620397
1226.00 -17.42467095   2.49830089
1228.00 -17.49335667   2.51043645
1230.00 -17.56214825   2.52261071
1232.00 -17.63104568   2.53482373
1234.00 -17.70004892   2.54707556
1236.00 -17.76915794   2.55936626
1238.00 -17.83837271   2.57169588
1240.00 -17.90769321   2.58406449
1242.00 -17.97711940   2.59647214
1244.00 -18.04665126   2.60891889
1246.00 -18.11628876   2.62140479
1248.00 -18.18603186   2.63392991
1250.00 -18.25588054   2.64649429
1252.00 -18.32583478   2.65909801
1254.00 -18.39589453   2.67174110
1256.00 -18.46605977   2.68442364
1258.00 -18.53633047   2.69714567
1260.00 -18.60670660   2.70990726
1262.00 -18.67718814   2.72270846
1264.00 -18.74777505   2.73554933
1266.00 -18.81846730   2.74842992
1268.00 -18.88926486   2.76135030
1270.00 -18.96016771   2.77431051
1272.00 -19.03117581   2.78731062
1274.00 -19.10228913   2.80035068
1276.00 -19.17350765   2.81343075
1278.00 -19.24483133   2.82655088
1280.00 -19.31626014   2.83971114
1282.00 -19.38779406   2.85291157
1284.00 -19.45943305   2.86615224
1286.00 -19.53117709   2.87943321
1288.00 -19.60302614   2.89275452
1290.00 -19.67498018   2.90611623
1292.00 -19.74703917   2.91951841
1294.00 -19.81920308   2.93296110
1296.00 -19.89147189   2.94644437
1298.00 -19.96384556   2.95996827
1300.00 -20.03632406   2.97353286
1302.00 -20.10890737   2.98713819
1304.00 -20.18159545   3.00078432
1306.00 -20.25438827   3.01447130
1308.00 -20.32728580   3.02819920
1310.00 -20.40028801   3.04196806
1312.00 -20.47339487   3.05577795
1314.00 -20.54660635   3.06962892
1316.00 -20.61992242   3.08352103
1318.00 -20.69334305   3.09745433
1320.00 -20.76686821   3.11142888
1322.00 -20.84049786   3.12544473
1324.00 -20.91423198   3.13950195
1326.00 -20.98807054   3.15360058
1328.00 -21.06201350   3.16774069
1330.00 -21.13606084   3.18192232
1332.00 -21.21021251   3.19614554
1334.00 -21.28446850   3.21041040
1336.00 -21.35882877   3.22471695
1338.00 -21.43329329   3.23906526
1340.00 -21.50786203   3.25345538
1342.00 -21.58253495   3.26788736
1344.00 -21.65731204   3.28236126
1346.00 -21.73219324   3.29687713
1348.00 -21.80717855   3.31143504
1350.00 -21.88226791   3.32603503
1352.00 -21.95746131   3.34067717
1354.00 -22.03275870   3.35536150
1356.00 -22.10816006   3.37008809
1358.00 -22.18366537   3.38485698
1360.00 -22.25927457   3.39966824
1362.00 -22.33498765   3.41452192
1364.00 -22.41080458   3.42941808
1366.00 -22.48672531   3.44435677
1368.00 -22.56274983   3.45933804
1370.00 -22.63887809   3.47436195
1372.00 -22.71511007   3.48942856
1374.00 -22.79144573   3.50453793
1376.00 -22.86788505   3.51969010
1378.00 -22.94442798   3.53488513
1380.00 -23.02107451   3.55012308
1382.00 -23.09782459   3.56540401
1384.00 -23.17467820   3.58072796
1386.00 -23.25163530   3.59609500
1388.00 -23.32869586   3.61150517
1390.00 -23.40585985   3.62695854
1392.00 -23.48312724   3.64245515
1394.00 -23.56049799   3.65799507
1396.00 -23.63797207   3.67357835
1398.00 -23.71554946   3.68920505
1400.00 -23.79323011   3.70487521
1402.00 -23.87101400   3.72058889
1404.00 -23.94890110   3.73634615
1406.00 -24.02689136   3.75214705
1408.00 -24.10498476   3.76799163
1410.00 -24.18318127   3.78387995
1412.00 -24.26148086   3.79981208
1414.00 -24.33988348   3.81578805
1416.00 -24.41838912   3.83180793
1418.00 -24.49699773   3.84787178
1420.00 -24.57570928   3.86397963
1422.00 -24.65452375   3.88013156
1424.00 -24.73344109   3.89632762
1426.00 -24.81246128   3.91256785
1428.00 -24.89158428   3.92885232
1430.00 -24.97081007   3.94518107
1432.00 -25.05013860   3.96155417
1434.00 -25.12956984   3.97797167
1436.00 -25.20910377   3.99443362
1438.00 -25.28874034   4.01094007
1440.00 -25.36847953   4.02749109
1442.00 -25.44832131   4.04408671
1444.00 -25.52826563   4.06072701
1446.00 -25.60831247   4.07741203
1448.00 -25.68846179   4.09414183
1450.00 -25.76871356   4.11091646
1452.00 -25.84906775   4.12773598
1454.00 -25.92952432   4.14460043
1456.00 -26.01008324   4.16150988
1458.00 -26.09074448   4.17846438
1460.00 -26.17150800   4.19546398
1462.00 -26.25237378   4.21250874
1464.00 -26.33334177   4.22959870
1466.00 -26.41441194   4.24673393
1468.00 -26.49558426   4.26391448
1470.00 -26.57685870   4.28114039
1472.00 -26.65823522   4.29841174
1474.00 -26.73971379   4.31572856
1476.00 -26.82129438   4.33309091
1478.00 -26.90297695   4.35049886
1480.00 -26.98476146   4.36795244
1482.00 -27.06664789   4.38545171
1484.00 -27.14863620   4.40299674
1486.00 -27.23072636   4.42058756
1488.00 -27.31291833   4.43822424
1490.00 -27.39521207   4.45590683
1492.00 -27.47760757   4.47363538
1494.00 -27.56010477   4.49140994
1496.00 -27.64270365   4.50923057
1498.00 -27.72540417   4.52709733
1500.00 -27.80820630   4.54501026
1502.00 -27.89111001   4.56296942
1504.00 -27.97411526   4.58097486
1506.00 -28.05722201   4.59902664
1508.00 -28.14043023   4.61712481
1510.00 -28.22373989   4.63526942
1512.00 -28.30715096   4.65346052
1514.00 -28.39066339   4.67169817
1516.00 -28.47427716   4.68998243
1518.00 -28.55799223   4.70831334
1520.00 -28.64180856   4.72669095
1522.00 -28.72572613   4.74511533
1524.00 -28.80974489   4.76358652
1526.00 -28.89386481   4.78210458
1528.00 -28.97808586   4.80066956
1530.00 -29.06240801   4.81928151
1532.00 -29.14683121   4.83794048
1534.00 -29.23135543   4.85664654
1536.00 -29.31598065   4.87539972
1538.00 -29.40070681   4.89420009
1540.00 -29.48553390   4.91304770
1542.00 -29.57046187   4.93194259
1544.00 -29.65549069   4.95088483
1546.00 -29.74062033   4.96987446
1548.00 -29.82585074   4.98891154
1550.00 -29.91118190   5.00799612
1552.00 -29.99661377   5.02712826
1554.00 -30.08214631   5.04630800
1556.00 -30.16777949   5.06553539
1558.00 -30.25351328   5.08481050
1560.00 -30.33934763   5.10413337
1562.00 -30.42528252   5.12350405
1564.00 -30.51131791   5.14292260
1566.00 -30.59745376   5.16238907
1568.00 -30.68369003   5.18190351
1570.00 -30.77002670   5.20146598
1572.00 -30.85646373   5.22107652
1574.00 -30.94300108   5.24073520
1576.00 -31.02963872   5.26044205
1578.00 -31.11637660   5.28019714
1580.00 -31.20321470   5.30000051
1582.00 -31.29015299   5.31985222
1584.00 -31.37719141   5.33975231
1586.00 -31.46432994   5.35970085
1588.00 -31.55156855   5.37969789
1590.00 -31.63890720   5.39974346
1592.00 -31.72634584   5.41983764
1594.00 -31.81388445   5.43998046
1596.00 -31.90152299   5.46017199
1598.00 -31.98926143   5.48041227
1600.00 -32.07709972   5.50070135
1602.00 -32.16503784   5.52103929
1604.00 -32.25307574   5.54142614
1606.00 -32.34121339   5.56186194
1608.00 -32.42945075   5.58234676
1610.00 -32.51778780   5.60288064
1612.00 -32.60622449   5.62346364
1614.00 -32.69476078   5.64409580
1616.00 -32.78339664   5.66477718
1618.00 -32.87213204   5.68550783
1620.00 -32.96096693   5.70628780
1622.00 -33.04990129   5.72711714
1624.00 -33.13893506   5.74799591
1626.00 -33.22806823   5.76892415
1628.00 -33.31730075   5.78990191
1630.00 -33.40663259   5.81092926
1632.00 -33.49606371   5.83200623
1634.00 -33.58559407   5.85313288
1636.00 -33.67522363   5.87430927
1638.00 -33.76495237   5.89553543
1640.00 -33.85478024   5.91681143
1642.00 -33.94470720   5.93813732
1644.00 -34.03473323   5.95951314
1646.00 -34.12485828   5.98093894
1648.00 -34.21508232   6.00241479
1650.00 -34.30540531   6.02394072
1652.00 -34.39582721   6.04551679
1654.00 -34.48634798   6.06714305
1656.00 -34.57696760   6.08881956
1658.00 -34.66768602   6.11054635
1660.00 -34.75850321   6.13232349
1662.00 -34.84941912   6.15415103
1664.00 -34.94043373   6.17602900
1666.00 -35.03154699   6.19795748
1668.00 -35.12275888   6.21993649
1670.00 -35.21406934   6.24196611
1672.00 -35.30547834   6.26404637
1674.00 -35.39698586   6.28617733
1676.00 -35.48859184   6.30835904
1678.00 -35.58029626   6.33059154
1680.00 -35.67209907   6.35287490
1682.00 -35.76400023   6.37520915
1684.00 -35.85599972   6.39759436
1686.00 -35.94809750   6.42003056
1688.00 -36.04029352   6.44251782
1690.00 -36.13258774   6.46505617
1692.00 -36.22498014   6.48764568
1694.00 -36.31747068   6.51028639
1696.00 -36.41005930   6.53297835
1698.00 -36.50274599   6.55572161
1700.00 -36.59553070   6.57851622
1702.00 -36.68841339   6.60136224
1704.00 -36.78139403   6.62425971
1706.00 -36.87447258   6.64720868
1708.00 -36.96764900   6.67020920
1710.00 -37.06092325   6.69326132
1712.00 -37.15429529   6.71636509
1714.00 -37.24776510   6.73952057
1716.00 -37.34133262   6.76272780
1718.00 -37.43499782   6.78598683
1720.00 -37.52876067   6.80929771
1722.00 -37.62262113   6.83266049
1724.00 -37.71657915   6.85607522
1726.00 -37.81063470   6.87954196
1728.00 -37.90478775   6.90306074
1730.00 -37.99903824   6.92663162
1732.00 -38.09338616   6.95025465
1734.00 -38.18783145   6.97392988
1736.00 -38.28237408   6.99765736
1738.00 -38.37701401   7.02143714
1740.00 -38.47175121   7.04526926
1742.00 -38.56658563   7.06915378
1744.00 -38.66151724   7.09309074
1746.00 -38.75654600   7.11708020
1748.00 -38.85167186   7.14112221
1750.00 -38.94689480   7.16521680
1752.00 -39.04221477   7.18936404
1754.00 -39.13763174   7.21356398
1756.00 -39.23314566   7.23781665
1758.00 -39.32875651   7.26212212
1760.00 -39.42446423   7.28648042
1762.00 -39.52026879   7.31089161
1764.00 -39.61617015   7.33535575
1766.00 -39.71216828   7.35987286
1768.00 -39.80826313   7.38444302
1770.00 -39.90445467   7.40906625
1772.00 -40.00074286   7.43374262
1774.00 -40.09712765   7.45847218
1776.00 -40.19360902   7.48325496
1778.00 -40.29018692   7.50809102
1780.00 -40.38686131   7.53298041
1782.00 -40.48363215   7.55792318
1784.00 -40.58049941   7.58291938
1786.00 -40.67746304   7.60796905
1788.00 -40.77452301   7.63307224
1790.00 -40.87167928   7.65822900
1792.00 -40.96893181   7.68343939
1794.00 -41.06628055   7.70870344
1796.00 -41.16372548   7.73402121
1798.00 -41.26126655   7.75939275
1800.00 -41.35890372   7.78481809
1802.00 -41.45663696   7.81029731
1804.00 -41.55446621   7.83583043
1806.00 -41.65239146   7.86141751
1808.00 -41.75041265   7.88705860
1810.00 -41.84852974   7.91275374
1812.00 -41.94674270   7.93850299
1814.00 -42.04505149   7.96430639
1816.00 -42.14345607   7.99016399
1818.00 -42.24195640   8.01607584
1820.00 -42.34055243   8.04204198
1822.00 -42.43924414   8.06806246
1824.00 -42.53803147   8.09413734
1826.00 -42.63691440   8.12026666
1828.00 -42.73589287   8.14645047
1830.00 -42.83496686   8.17268881
1832.00 -42.93413632   8.19898173
1834.00 -43.03340121   8.22532929
1836.00 -43.13276150   8.25173152
1838.00 -43.23221714   8.27818849
1840.00 -43.33176809   8.30470022
1842.00 -43.43141431   8.33126678
1844.00 -43.53115577   8.35788821
1846.00 -43.63099242   8.38456455
1848.00 -43.73092422   8.41129586
1850.00 -43.83095114   8.43808218
1852.00 -43.93107313   8.46492356
1854.00 -44.03129015   8.49182005
1856.00 -44.13160217   8.51877169
1858.00 -44.23200914   8.54577854
1860.00 -44.33251103   8.57284063
1862.00 -44.43310779   8.59995802
1864.00 -44.53379938   8.62713076
1866.00 -44.63458577   8.65435888
1868.00 -44.73546691   8.68164244
1870.00 -44.83644276   8.70898149
1872.00 -44.93751329   8.73637607
1874.00 -45.03867845   8.76382623
1876.00 -45.13993819   8.79133202
1878.00 -45.24129250   8.81889347
1880.00 -45.34274131   8.84651065
1882.00 -45.44428459   8.87418360
1884.00 -45.54592231   8.90191236
1886.00 -45.64765441   8.92969698
1888.00 -45.74948087   8.95753751
1890.00 -45.85140163   8.98543400
1892.00 -45.95341666   9.01338648
1894.00 -46.05552592   9.04139502
1896.00 -46.15772937   9.06945965
1898.00 -46.26002697   9.09758042
1900.00 -46.36241867   9.12575738
1902.00 -46.46490444   9.15399057
1904.00 -46.56748423   9.18228004
1906.00 -46.67015800   9.21062584
1908.00 -46.77292572   9.23902802
1910.00 -46.87578734   9.26748662
1912.00 -46.97874283   9.29600168
1914.00 -47.08179213   9.32457325
1916.00 -47.18493522   9.35320139
1918.00 -47.28817204   9.38188613
1920.00 -47.39150256   9.41062752
1922.00 -47.49492674   9.43942562
1924.00 -47.59844453   9.46828045
1926.00 -47.70205590   9.49719208
1928.00 -47.80576081   9.52616054
1930.00 -47.90955921   9.55518589
1932.00 -48.01345106   9.58426816
1934.00 -48.11743632   9.61340741
1936.00 -48.22151495   9.64260368
1938.00 -48.32568690   9.67185701
1940.00 -48.42995215   9.70116746
1942.00 -48.53431064   9.73053507
1944.00 -48.63876234   9.75995988
1946.00 -48.74330720   9.78944194
1948.00 -48.84794518   9.81898129
1950.00 -48.95267624   9.84857799
1952.00 -49.05750034   9.87823207
1954.00 -49.16241744   9.90794358
1956.00 -49.26742750   9.93771258
1958.00 -49.37253047   9.96753909
1960.00 -49.47772631   9.99742318
1962.00 -49.58301499  10.02736488
1964.00 -49.68839645  10.05736424
1966.00 -49.79387067  10.08742131
1968.00 -49.89943759  10.11753612
1970.00 -50.00509718  10.14770873
1972.00 -50.11084939  10.17793919
1974.00 -50.21669418  10.20822753
1976.00 -50.32263152  10.23857380
1978.00 -50.42866135  10.26897804
1980.00 -50.53478364  10.29944031
1982.00 -50.64099835  10.32996065
1984.00 -50.74730542  10.36053910
1986.00 -50.85370483  10.39117571
1988.00 -50.96019653  10.42187051
1990.00 -51.06678048  10.45262357
1992.00 -51.17345663  10.48343492
1994.00 -51.28022495  10.51430460
1996.00 -51.38708538  10.54523266
1998.00 -51.49403790  10.57621916
2000.00 -51.60108246  10.60726412
2002.00 -51.70821901  10.63836760
2004.00 -51.81544751  10.66952964
2006.00 -51.92276792  10.70075028
2008.00 -52.03018021  10.73202958
2010.00 -52.13768432  10.76336757
2012.00 -52.24528021  10.79476429
2014.00 -52.35296785  10.82621981
2016.00 -52.46074719  10.85773415
2018.00 -52.56861819  10.88930736
2020.00 -52.67658080  10.92093949
2022.00 -52.78463498  10.95263057
2024.00 -52.89278070  10.98438067
2026.00 -53.00101790  11.01618981
2028.00 -53.10934655  11.04805805
2030.00 -53.21776661  11.07998543
2032.00 -53.32627802  11.11197199
2034.00 -53.43488075  11.14401777
2036.00 -53.54357476  11.17612283
2038.00 -53.65236001  11.20828720
2040.00 -53.76123644  11.24051092
2042.00 -53.87020402  11.27279406
2044.00 -53.97926271  11.30513663
2046.00 -54.08841246  11.33753870
2048.00 -54.19765323  11.37000030
2050.00 -54.30698498  11.40252148
2052.00 -54.41640766  11.43510228
2054.00 -54.52592124  11.46774275
2056.00 -54.63552566  11.50044292
2058.00 -54.74522089  11.53320285
2060.00 -54.85500689  11.56602258
2062.00 -54.96488360  11.59890214
2064.00 -55.07485100  11.63184159
2066.00 -55.18490903  11.66484097
2068.00 -55.29505764  11.69790031
2070.00 -55.40529681  11.73101967
2072.00 -55.51562649  11.76419909
2074.00 -55.62604663  11.79743861
2076.00 -55.73655718  11.83073827
2078.00 -55.84715812  11.86409812
2080.00 -55.95784939  11.89751820
2082.00 -56.06863094  11.93099856
2084.00 -56.17950275  11.96453923
2086.00 -56.29046476  11.99814026
2088.00 -56.40151693  12.03180170
2090.00 -56.51265922  12.06552358
2092.00 -56.62389158  12.09930595
2094.00 -56.73521398  12.13314885
2096.00 -56.84662636  12.16705233
2098.00 -56.95812869  12.20101643
2100.00 -57.06972092  12.23504119
2102.00 -57.18140300  12.26912665
2104.00 -57.29317490  12.30327286
2106.00 -57.40503658  12.33747985
2108.00 -57.51698797  12.37174768
2110.00 -57.62902906  12.40607639
2112.00 -57.74115978  12.44046601
2114.00 -57.85338010  12.47491660
2116.00 -57.96568998  12.50942818
2118.00 -58.07808936  12.54400081
2120.00 -58.19057821  12.57863453
2122.00 -58.30315649  12.61332938
2124.00 -58.41582414  12.64808540
2126.00 -58.52858112  12.68290263
2128.00 -58.64142740  12.71778113
2130.00 -58.75436293  12.75272092
2132.00 -58.86738766  12.78772205
2134.00 -58.98050155  12.82278457
2136.00 -59.09370456  12.85790852
2138.00 -59.20699664  12.89309393
2140.00 -59.32037775  12.92834085
2142.00 -59.43384784  12.96364933
2144.00 -59.54740688  12.99901940
2146.00 -59.66105481  13.03445111
2148.00 -59.77479160  13.06994449
2150.00 -59.88861719  13.10549960
2152.00 -60.00253155  13.14111646
2154.00 -60.11653464  13.17679514
2156.00 -60.23062639  13.21253565
2158.00 -60.34480679  13.24833806
2160.00 -60.45907577  13.28420239
2162.00 -60.57343329  13.32012870
2164.00 -60.68787932  13.35611702
2166.00 -60.80241380  13.39216739
2168.00 -60.91703670  13.42827986
2170.00 -61.03174796  13.46445446
2172.00 -61.14654755  13.50069125
2174.00 -61.26143541  13.53699025
2176.00 -61.37641151  13.57335152
2178.00 -61.49147581  13.60977509
2180.00 -61.60662825  13.64626100
2182.00 -61.72186879  13.68280930
2184.00 -61.83719739  13.71942003
2186.00 -61.95261400  13.75609322
2188.00 -62.06811859  13.79282893
2190.00 -62.18371110  13.82962718
2192.00 -62.29939148  13.86648803
2194.00 -62.41515971  13.90341150
2196.00 -62.53101572  13.94039766
2198.00 -62.64695948  13.97744652
2200.00 -62.76299095  14.01455815
2202.00 -62.87911007  14.05173256
2204.00 -62.99531680  14.08896982
2206.00 -63.11161111  14.12626995
2208.00 -63.22799293  14.16363301
2210.00 -63.34446224  14.20105902
2212.00 -63.46101898  14.23854803
2214.00 -63.57766311  14.27610009
2216.00 -63.69439458  14.31371522
2218.00 -63.81121335  14.35139348
2220.00 -63.92811938  14.38913490
2222.00 -64.04511262  14.42693952
2224.00 -64.16219303  14.46480739
2226.00 -64.27936055  14.50273854
2228.00 -64.39661516  14.54073302
2230.00 -64.51395679  14.57879086
2232.00 -64.63138541  14.61691211
2234.00 -64.74890097  14.65509680
2236.00 -64.86650342  14.69334498
2238.00 -64.98419273  14.73165668
2240.00 -65.10196884  14.77003195
2242.00 -65.21983171  14.80847083
2244.00 -65.33778130  14.84697335
2246.00 -65.45581756  14.88553956
2248.00 -65.57394045  14.92416950
2250.00 -65.69214992  14.96286320
2252.00 -65.81044592  15.00162071
2254.00 -65.92882841  15.04044206
2256.00 -66.04729735  15.07932730
2258.00 -66.16585269  15.11827647
2260.00 -66.28449438  15.15728960
2262.00 -66.40322238  15.19636674
2264.00 -66.52203665  15.23550792
2266.00 -66.64093713  15.27471319
2268.00 -66.75992379  15.31398258
2270.00 -66.87899657  15.35331613
2272.00 -66.99815544  15.39271389
2274.00 -67.11740035  15.43217589
2276.00 -67.23673125  15.47170218
2278.00 -67.35614809  15.51129278
2280.00 -67.47565084  15.55094775
2282.00 -67.59523944  15.59066712
2284.00 -67.71491385  15.63045092
2286.00 -67.83467402  15.67029921
2288.00 -67.95451992  15.71021201
2290.00 -68.07445149  15.75018938
2292.00 -68.19446868  15.79023133
2294.00 -68.31457146  15.83033793
2296.00 -68.43475977  15.87050920
2298.00 -68.55503358  15.91074518
2300.00 -68.67539283  15.95104591
2302.00 -68.79583748  15.99141144
2304.00 -68.91636748  16.03184179
2306.00 -69.03698280  16.07233702
2308.00 -69.15768337  16.11289716
2310.00 -69.27846916  16.15352224
2312.00 -69.39934012  16.19421230
2314.00 -69.52029621  16.23496739
2316.00 -69.64133738  16.27578755
2318.00 -69.76246358  16.31667281
2320.00 -69.88367476  16.35762320
2322.00 -70.00497089  16.39863878
2324.00 -70.12635192  16.43971957
2326.00 -70.24781779  16.48086562
2328.00 -70.36936847  16.52207696
2330.00 -70.49100390  16.56335364
2332.00 -70.61272405  16.60469568
2334.00 -70.73452886  16.64610314
2336.00 -70.85641829  16.68757604
2338.00 -70.97839230  16.72911443
2340.00 -71.10045083  16.77071834
2342.00 -71.22259385  16.81238782
2344.00 -71.34482130  16.85412289
2346.00 -71.46713313  16.89592361
2348.00 -71.58952932  16.93778999
2350.00 -71.71200979  16.97972210
2352.00 -71.83457452  17.02171995
2354.00 -71.95722346  17.06378360
2356.00 -72.07995655  17.10591307
2358.00 -72.20277375  17.14810841
2360.00 -72.32567502  17.19036966
2362.00 -72.44866031  17.23269684
2364.00 -72.57172957  17.27509001
2366.00 -72.69488276  17.31754919
2368.00 -72.81811982  17.36007442
2370.00 -72.94144072  17.40266575
2372.00 -73.06484541  17.44532321
2374.00 -73.18833384  17.48804683
2376.00 -73.31190597  17.53083666
2378.00 -73.43556174  17.57369273
2380.00 -73.55930111  17.61661507
2382.00 -73.68312404  17.65960374
2384.00 -73.80703048  17.70265876
2386.00 -73.93102038  17.74578017
2388.00 -74.05509369  17.78896801
2390.00 -74.17925038  17.83222231
2392.00 -74.30349038  17.87554312
2394.00 -74.42781366  17.91893047
2396.00 -74.55222017  17.96238439
2398.00 -74.67670987  18.00590493
2400.00 -74.80128270  18.04949212
2402.00 -74.92593861  18.09314600
2404.00 -75.05067757  18.13686660
2406.00 -75.17549953  18.18065396
2408.00 -75.30040443  18.22450813
2410.00 -75.42539224  18.26842912
2412.00 -75.55046290  18.31241699
2414.00 -75.67561637  18.35647177
2416.00 -75.80085260  18.40059350
2418.00 -75.92617155  18.44478220
2420.00 -76.05157316  18.48903793
2422.00 -76.17705739  18.53336071
2424.00 -76.30262420  18.57775058
2426.00 -76.42827354  18.62220758
2428.00 -76.55400536  18.66673174
2430.00 -76.67981960  18.71132311
2432.00 -76.80571624  18.75598171
2434.00 -76.93169522  18.80070758
2436.00 -77.05775648  18.84550077
2438.00 -77.18390000  18.89036130
2440.00 -77.31012571  18.93528922
2442.00 -77.43643357  18.98028455
2444.00 -77.56282353  19.02534734
2446.00 -77.68929556  19.07047761
2448.00 -77.81584959  19.11567542
2450.00 -77.94248558  19.16094079
2452.00 -78.06920350  19.20627375
2454.00 -78.19600327  19.25167435
2456.00 -78.32288487  19.29714262
2458.00 -78.44984825  19.34267860
2460.00 -78.57689335  19.38828232
2462.00 -78.70402013  19.43395381
2464.00 -78.83122854  19.47969312
2466.00 -78.95851854  19.52550028
2468.00 -79.08589007  19.57137533
2470.00 -79.21334310  19.61731829
2472.00 -79.34087757  19.66332921
2474.00 -79.46849343  19.70940812
2476.00 -79.59619064  19.75555506
2478.00 -79.72396916  19.80177006
2480.00 -79.85182892  19.84805315
2482.00 -79.97976989  19.89440438
2484.00 -80.10779202  19.94082378
2486.00 -80.23589527  19.98731138
2488.00 -80.36407957  20.03386722
2490.00 -80.49234489  20.08049134
2492.00 -80.62069118  20.12718376
2494.00 -80.74911839  20.17394453
2496.00 -80.87762648  20.22077367
2498.00 -81.00621539  20.26767123
2500.00 -81.13488508  20.31463724
2502.00 -81.26363550  20.36167174
2504.00 -81.39246660  20.40877475
2506.00 -81.52137834  20.45594632
2508.00 -81.65037066  20.50318647
2510.00 -81.77944353  20.55049525
2512.00 -81.90859689  20.59787269
2514.00 -82.03783069  20.64531882
2516.00 -82.16714489  20.69283367
2518.00 -82.29653944  20.74041729
2520.00 -82.42601429  20.78806971
2522.00 -82.55556940  20.83579095
2524.00 -82.68520471  20.88358107
2526.00 -82.81492018  20.93144008
2528.00 -82.94471576  20.97936802
2530.00 -83.07459140  21.02736494
2532.00 -83.20454706  21.07543086
2534.00 -83.33458269  21.12356582
2536.00 -83.46469823  21.17176984
2538.00 -83.59489364  21.22004298
2540.00 -83.72516888  21.26838525
2542.00 -83.85552390  21.31679670
2544.00 -83.98595864  21.36527736
2546.00 -84.11647306  21.41382726
2548.00 -84.24706711  21.46244643
2550.00 -84.37774074  21.51113492
2552.00 -84.50849391  21.55989275
2554.00 -84.63932657  21.60871995
2556.00 -84.77023867  21.65761658
2558.00 -84.90123015  21.70658264
2560.00 -85.03230099  21.75561819
2562.00 -85.16345111  21.80472324
2564.00 -85.29468049  21.85389785
2566.00 -85.42598906  21.90314204
2568.00 -85.55737678  21.95245584
2570.00 -85.68884361  22.00183928
2572.00 -85.82038949  22.05129241
2574.00 -85.95201437  22.10081526
2576.00 -86.08371822  22.15040785
2578.00 -86.21550097  22.20007022
2580.00 -86.34736259  22.24980241
2582.00 -86.47930301  22.29960445
2584.00 -86.61132221  22.34947637
2586.00 -86.74342012  22.39941820
2588.00 -86.87559670  22.44942998
2590.00 -87.00785190  22.49951174
2592.00 -87.14018567  22.54966352
2594.00 -87.27259796  22.59988534
2596.00 -87.40508873  22.65017724
2598.00 -87.53765793  22.70053926
2600.00 -87.67030550  22.75097142
2602.00 -87.80303141  22.80147376
2604.00 -87.93583559  22.85204632
2606.00 -88.06871801  22.90268911
2608.00 -88.20167862  22.95340219
2610.00 -88.33471736  23.00418558
2612.00 -88.46783419  23.05503930
2614.00 -88.60102905  23.10596341
2616.00 -88.73430191  23.15695792
2618.00 -88.86765271  23.20802288
2620.00 -89.00108141  23.25915830
2622.00 -89.13458795  23.31036424
2624.00 -89.26817228  23.36164071
2626.00 -89.40183437  23.41298775
2628.00 -89.53557415  23.46440539
2630.00 -89.66939158  23.51589367
2632.00 -89.80328662  23.56745262
2634.00 -89.93725921  23.61908227
2636.00 -90.07130931  23.67078265
2638.00 -90.20543686  23.72255380
2640.00 -90.33964182  23.77439574
2642.00 -90.47392413  23.82630851
2644.00 -90.60828376  23.87829214
2646.00 -90.74272065  23.93034666
2648.00 -90.87723475  23.98247211
2650.00 -91.01182602  24.03466851
2652.00 -91.14649440  24.08693590
2654.00 -91.28123985  24.13927432
2656.00 -91.41606232  24.19168378
2658.00 -91.55096175  24.24416433
2660.00 -91.68593810  24.29671599
2662.00 -91.82099133  24.34933881
2664.00 -91.95612138  24.40203280
2666.00 -92.09132820  24.45479800
2668.00 -92.22661174  24.50763444
2670.00 -92.36197197  24.56054216
2672.00 -92.49740881  24.61352118
2674.00 -92.63292224  24.66657154
2676.00 -92.76851220  24.71969326
2678.00 -92.90417863  24.77288639
2680.00 -93.03992150  24.82615094
2682.00 -93.17574075  24.87948696
2684.00 -93.31163633  24.93289447
2686.00 -93.44760819  24.98637350
2688.00 -93.58365629  25.03992409
2690.00 -93.71978058  25.09354627
2692.00 -93.85598101  25.14724006
2694.00 -93.99225752  25.20100550
2696.00 -94.12861007  25.25484263
2698.00 -94.26503861  25.30875146
2700.00 -94.40154309  25.36273203
2702.00 -94.53812346  25.41678438
2704.00 -94.67477968  25.47090853
2706.00 -94.81151169  25.52510451
2708.00 -94.94831944  25.57937236
2710.00 -95.08520289  25.63371210
2712.00 -95.22216199  25.68812377
2714.00 -95.35919668  25.74260739
2716.00 -95.49630692  25.79716300
2718.00 -95.63349265  25.85179063
2720.00 -95.77075384  25.90649031
2722.00 -95.90809043  25.96126207
2724.00 -96.04550236  26.01610593
2726.00 -96.18298960  26.07102194
2728.00 -96.32055209  26.12601011
2730.00 -96.45818979  26.18107049
2732.00 -96.59590264  26.23620309
2734.00 -96.73369059  26.29140796
2736.00 -96.87155359  26.34668512
2738.00 -97.00949161  26.40203459
2740.00 -97.14750457  26.45745642
2742.00 -97.28559245  26.51295063
2744.00 -97.42375518  26.56851725
2746.00 -97.56199272  26.62415631
2748.00 -97.70030502  26.67986784
2750.00 -97.83869203  26.73565187
2752.00 -97.97715370  26.79150844
2754.00 -98.11568998  26.84743756
2756.00 -98.25430083  26.90343927
2758.00 -98.39298618  26.95951361
2760.00 -98.53174599  27.01566059
2762.00 -98.67058022  27.07188025
2764.00 -98.80948881  27.12817262
2766.00 -98.94847172  27.18453773
2768.00 -99.08752889  27.24097560
2770.00 -99.22666027  27.29748628
2772.00 -99.36586582  27.35406978
2774.00 -99.50514548  27.41072613
2776.00 -99.64449921  27.46745538
2778.00 -99.78392696  27.52425753
2780.00 -99.92342868  27.58113263
2782.00 -100.06300431  27.63808070
2784.00 -100.20265381  27.69510178
2786.00 -100.34237712  27.75219589
2788.00 -100.48217421  27.80936306
2790.00 -100.62204501  27.86660331
2792.00 -100.76198949  27.92391669
2794.00 -100.90200758  27.98130321
2796.00 -101.04209924  28.03876291
2798.00 -101.18226443  28.09629582
2800.00 -101.32250308  28.15390196
2802.00 -101.46281516  28.21158136
2804.00 -101.60320060  28.26933406
2806.00 -101.74365937  28.32716008
2808.00 -101.88419141  28.38505944
2810.00 -102.02479667  28.44303219
2812.00 -102.16547510  28.50107834
2814.00 -102.30622666  28.55919792
2816.00 -102.44705128  28.61739097
2818.00 -102.58794893  28.67565751
2820.00 -102.72891956  28.73399758
2822.00 -102.86996310  28.79241119
2824.00 -103.01107952  28.85089838
2826.00 -103.15226877  28.90945917
2828.00 -103.29353078  28.96809360
2830.00 -103.43486553  29.02680169
2832.00 -103.57627294  29.08558347
2834.00 -103.71775298  29.14443897
2836.00 -103.85930559  29.20336822
2838.00 -104.00093073  29.26237124
2840.00 -104.14262834  29.32144807
2842.00 -104.28439838  29.38059872
2844.00 -104.42624079  29.43982324
2846.00 -104.56815552  29.49912164
2848.00 -104.71014253  29.55849396
2850.00 -104.85220176  29.61794021
2852.00 -104.99433317  29.67746044
2854.00 -105.13653671  29.73705467
2856.00 -105.27881231  29.79672292
2858.00 -105.42115995  29.85646523
2860.00 -105.56357955  29.91628162
2862.00 -105.70607109  29.97617211
2864.00 -105.84863449  30.03613674
2866.00 -105.99126972  30.09617554
2868.00 -106.13397673  30.15628853
2870.00 -106.27675546  30.21647573
2872.00 -106.41960587  30.27673718
2874.00 -106.56252790  30.33707291
2876.00 -106.70552150  30.39748293
2878.00 -106.84858663  30.45796729
2880.00 -106.99172323  30.51852599
2882.00 -107.13493125  30.57915909
2884.00 -107.27821065  30.63986658
2886.00 -107.42156138  30.70064852
2888.00 -107.56498337  30.76150492
2890.00 -107.70847659  30.82243581
2892.00 -107.85204099  30.88344122
2894.00 -107.99567650  30.94452117
2896.00 -108.13938309  31.00567570
2898.00 -108.28316071  31.06690482
2900.00 -108.42700929  31.12820856
2902.00 -108.57092880  31.18958696
2904.00 -108.71491918  31.25104004
2906.00 -108.85898038  31.31256782
2908.00 -109.00311235  31.37417034
2910.00 -109.14731504  31.43584761
2912.00 -109.29158841  31.49759967
2914.00 -109.43593239  31.55942654
2916.00 -109.58034695  31.62132824
2918.00 -109.72483202  31.68330481
2920.00 -109.86938757  31.74535628
2922.00 -110.01401354  31.80748266
2924.00 -110.15870987  31.86968398
2926.00 -110.30347653  31.93196027
2928.00 -110.44831345  31.99431156
2930.00 -110.59322059  32.05673787
2932.00 -110.73819790  32.11923923
2934.00 -110.88324533  32.18181567
2936.00 -111.02836282  32.24446720
2938.00 -111.17355033  32.30719386
2940.00 -111.31880781  32.36999568
2942.00 -111.46413520  32.43287267
2944.00 -111.60953246  32.49582487
2946.00 -111.75499954  32.55885230
2948.00 -111.90053638  32.62195498
2950.00 -112.04614293  32.68513294
2952.00 -112.19181915  32.74838622
2954.00 -112.33756499  32.81171482
2956.00 -112.48338038  32.87511879
2958.00 -112.62926529  32.93859814
2960.00 -112.77521966  33.00215290
2962.00 -112.92124345  33.06578310
2964.00 -113.06733659  33.12948876
2966.00 -113.21349905  33.19326990
2968.00 -113.35973076  33.25712656
2970.00 -113.50603169  33.32105875
2972.00 -113.65240177  33.38506651
2974.00 -113.79884097  33.44914985
2976.00 -113.94534922  33.51330881
2978.00 -114.09192648  33.57754341
2980.00 -114.23857270  33.64185367
2982.00 -114.38528783  33.70623962
2984.00 -114.53207181  33.77070129
2986.00 -114.67892459  33.83523869
2988.00 -114.82584614  33.89985186
2990.00 -114.97283638  33.96454082
2992.00 -115.11989528  34.02930559
2994.00 -115.26702279  34.09414620
2996.00 -115.41421884  34.15906267
2998.00 -115.56148340  34.22405503
3000.00 -115.70881641  34.28912331
3002.00 -115.85621782  34.35426752
3004.00 -116.00368759  34.41948770
3006.00 -116.15122565  34.48478386
3008.00 -116.29883196  34.55015604
3010.00 -116.44650647  34.61560425
3012.00 -116.59424912  34.68112853
3014.00 -116.74205988  34.74672889
3016.00 -116.88993868  34.81240536
3018.00 -117.03788547  34.87815796
3020.00 -117.18590021  34.94398672
3022.00 -117.33398285  35.00989167
3024.00 -117.48213333  35.07587282
3026.00 -117.63035160  35.14193021
3028.00 -117.77863761  35.20806385
3030.00 -117.92699132  35.27427377
3032.00 -118.07541267  35.34055999
3034.00 -118.22390160  35.40692254
3036.00 -118.37245808  35.47336145
3038.00 -118.52108205  35.53987673
3040.00 -118.66977345  35.60646841
3042.00 -118.81853224  35.67313652
3044.00 -118.96735836  35.73988107
3046.00 -119.11625178  35.80670210
3048.00 -119.26521242  35.87359962
3050.00 -119.41424025  35.94057366
3052.00 -119.56333522  36.00762424
3054.00 -119.71249726  36.07475139
3056.00 -119.86172634  36.14195513
3058.00 -120.01102240  36.20923548
3060.00 -120.16038539  36.27659248
3062.00 -120.30981526  36.34402613
3064.00 -120.45931195  36.41153646
3066.00 -120.60887543  36.47912351
3068.00 -120.75850563  36.54678728
3070.00 -120.90820251  36.61452781
3072.00 -121.05796601  36.68234512
3074.00 -121.20779608  36.75023923
3076.00 -121.35769268  36.81821017
3078.00 -121.50765575  36.88625795
3080.00 -121.65768525  36.95438260
3082.00 -121.80778111  37.02258414
3084.00 -121.95794330  37.09086261
3086.00 -122.10817175  37.15921801
3088.00 -122.25846642  37.22765037
3090.00 -122.40882726  37.29615972
3092.00 -122.55925421  37.36474608
3094.00 -122.70974723  37.43340948
3096.00 -122.86030626  37.50214992
3098.00 -123.01093126  37.57096744
3100.00 -123.16162217  37.63986207
3102.00 -123.31237894  37.70883381
3104.00 -123.46320153  37.77788270
3106.00 -123.61408987  37.84700876
3108.00 -123.76504392  37.91621201
3110.00 -123.91606363  37.98549247
3112.00 -124.06714894  38.05485016
3114.00 -124.21829982  38.12428512
3116.00 -124.36951619  38.19379735
3118.00 -124.52079802  38.26338689
3120.00 -124.67214526  38.33305375
3122.00 -124.82355784  38.40279796
3124.00 -124.97503573  38.47261954
3126.00 -125.12657887  38.54251851
3128.00 -125.27818720  38.61249489
3130.00 -125.42986068  38.68254871
3132.00 -125.58159927  38.75267999
3134.00 -125.73340289  38.82288875
3136.00 -125.88527151  38.89317501
3138.00 -126.03720508  38.96353879
3140.00 -126.18920354  39.03398012
3142.00 -126.34126684  39.10449902
3144.00 -126.49339493  39.17509551
3146.00 -126.64558776  39.24576961
3148.00 -126.79784528  39.31652134
3150.00 -126.95016744  39.38735073
3152.00 -127.10255419  39.45825780
3154.00 -127.25500547  39.52924256
3156.00 -127.40752123  39.60030504
3158.00 -127.56010143  39.67144527
3160.00 -127.71274601  39.74266326
3162.00 -127.86545492  39.81395903
3164.00 -128.01822811  39.88533261
3166.00 -128.17106554  39.95678401
3168.00 -128.32396713  40.02831327
3170.00 -128.47693286  40.09992039
3172.00 -128.62996266  40.17160541
3174.00 -128.78305649  40.24336833
3176.00 -128.93621429  40.31520920
3178.00 -129.08943602  40.38712801
3180.00 -129.24272161  40.45912480
3182.00 -129.39607103  40.53119959
3184.00 -129.54948421  40.60335240
3186.00 -129.70296111  40.67558325
3188.00 -129.85650168  40.74789216
3190.00 -130.01010587  40.82027915
3192.00 -130.16377362  40.89274424
3194.00 -130.31750488  40.96528745
3196.00 -130.47129961  41.03790880
3198.00 -130.62515775  41.11060833
3200.00 -130.77907925  41.18338603
3202.00 -130.93306405  41.25624194
3204.00 -131.08711212  41.32917608
3206.00 -131.24122339  41.40218847
3208.00 -131.39539781  41.47527912
3210.00 -131.54963535  41.54844806
3212.00 -131.70393593  41.62169531
3214.00 -131.85829952  41.69502088
3216.00 -132.01272605  41.76842481
3218.00 -132.16721549  41.84190711
3220.00 -132.32176777  41.91546779
3222.00 -132.47638286  41.98910689
3224.00 -132.63106069  42.06282442
3226.00 -132.78580121  42.13662039
3228.00 -132.94060438  42.21049484
3230.00 -133.09547013  42.28444778
3232.00 -133.25039844  42.35847923
3234.00 -133.40538923  42.43258921
3236.00 -133.56044246  42.50677775
3238.00 -133.71555807  42.58104485
3240.00 -133.87073603  42.65539054
3242.00 -134.02597627  42.72981485
3244.00 -134.18127874  42.80431778
3246.00 -134.33664339  42.87889937
3248.00 -134.49207018  42.95355963
3250.00 -134.64755905  43.02829857
3252.00 -134.80310995  43.10311623
3254.00 -134.95872282  43.17801261
3256.00 -135.11439762  43.25298775
3258.00 -135.27013430  43.32804165
3260.00 -135.42593280  43.40317434
3262.00 -135.58179307  43.47838583
3264.00 -135.73771507  43.55367616
3266.00 -135.89369873  43.62904533
3268.00 -136.04974402  43.70449336
3270.00 -136.20585087  43.78002028
3272.00 -136.36201924  43.85562611
3274.00 -136.51824907  43.93131085
3276.00 -136.67454032  44.00707454
3278.00 -136.83089293  44.08291720
3280.00 -136.98730686  44.15883883
3282.00 -137.14378204  44.23483946
3284.00 -137.30031843  44.31091911
3286.00 -137.45691598  44.38707780
3288.00 -137.61357464  44.46331555
3290.00 -137.77029435  44.53963237
3292.00 -137.92707507  44.61602828
3294.00 -138.08391674  44.69250331
3296.00 -138.24081931  44.76905747
3298.00 -138.39778273  44.84569079
3300.00 -138.55480694  44.92240327
3302.00 -138.71189191  44.99919494
3304.00 -138.86903757  45.07606582
3306.00 -139.02624388  45.15301592
3308.00 -139.18351078  45.23004527
3310.00 -139.34083823  45.30715388
3312.00 -139.49822616  45.38434177
3314.00 -139.65567454  45.46160896
3316.00 -139.81318330  45.53895547
3318.00 -139.97075240  45.61638132
3320.00 -140.12838179  45.69388652
3322.00 -140.28607141  45.77147109
3324.00 -140.44382121  45.84913506
3326.00 -140.60163115  45.92687843
3328.00 -140.75950117  46.00470123
3330.00 -140.91743121  46.08260348
3332.00 -141.07542124  46.16058519
3334.00 -141.23347119  46.23864638
3336.00 -141.39158102  46.31678708
3338.00 -141.54975067  46.39500729
3340.00 -141.70798009  46.47330703
3342.00 -141.86626924  46.55168633
3344.00 -142.02461805  46.63014520
3346.00 -142.18302649  46.70868366
3348.00 -142.34149449  46.78730173
3350.00 -142.50002201  46.86599942
3352.00 -142.65860899  46.94477676
3354.00 -142.81725539  47.02363375
3356.00 -142.97596115  47.10257043
3358.00 -143.13472622  47.18158679
3360.00 -143.29355055  47.26068288
3362.00 -143.45243408  47.33985869
3364.00 -143.61137678  47.41911424
3366.00 -143.77037858  47.49844957
3368.00 -143.92943944  47.57786467
3370.00 -144.08855929  47.65735958
3372.00 -144.24773810  47.73693430
3374.00 -144.40697581  47.81658886
3376.00 -144.56627237  47.89632327
3378.00 -144.72562773  47.97613755
3380.00 -144.88504183  48.05603171
3382.00 -145.04451463  48.13600578
3384.00 -145.20404608  48.21605976
3386.00 -145.36363611  48.29619369
3388.00 -145.52328469  48.37640757
3390.00 -145.68299175  48.45670142
3392.00 -145.84275726  48.53707525
3394.00 -146.00258115  48.61752909
3396.00 -146.16246338  48.69806296
3398.00 -146.32240389  48.77867686
3400.00 -146.48240263  48.85937081
3402.00 -146.64245956  48.94014484
3404.00 -146.80257462  49.02099896
3406.00 -146.96274775  49.10193318
3408.00 -147.12297892  49.18294752
3410.00 -147.28326806  49.26404200
3412.00 -147.44361512  49.34521664
3414.00 -147.60402006  49.42647145
3416.00 -147.76448282  49.50780644
3418.00 -147.92500336  49.58922164
3420.00 -148.08558161  49.67071706
3422.00 -148.24621753  49.75229272
3424.00 -148.40691107  49.83394862
3426.00 -148.56766217  49.91568480
3428.00 -148.72847079  49.99750126
3430.00 -148.88933687  50.07939803
3432.00 -149.05026037  50.16137511
3434.00 -149.21124122  50.24343253
3436.00 -149.37227939  50.32557029
3438.00 -149.53337481  50.40778842
3440.00 -149.69452744  50.49008694
3442.00 -149.85573722  50.57246585
3444.00 -150.01700411  50.65492517
3446.00 -150.17832805  50.73746492
3448.00 -150.33970899  50.82008512
3450.00 -150.50114688  50.90278578
3452.00 -150.66264167  50.98556691
3454.00 -150.82419331  51.06842854
3456.00 -150.98580174  51.15137068
3458.00 -151.14746692  51.23439334
3460.00 -151.30918879  51.31749654
3462.00 -151.47096731  51.40068029
3464.00 -151.63280241  51.48394461
3466.00 -151.79469405  51.56728952
3468.00 -151.95664219  51.65071503
3470.00 -152.11864675  51.73422116
3472.00 -152.28070771  51.81780791
3474.00 -152.44282500  51.90147532
3476.00 -152.60499857  51.98522338
3478.00 -152.76722837  52.06905213
3480.00 -152.92951435  52.15296156
3482.00 -153.09185647  52.23695171
3484.00 -153.25425466  52.32102258
3486.00 -153.41670887  52.40517418
3488.00 -153.57921906  52.48940654
3490.00 -153.74178518  52.57371967
3492.00 -153.90440717  52.65811358
3494.00 -154.06708497  52.74258828
3496.00 -154.22981855  52.82714380
3498.00 -154.39260785  52.91178015
3500.00 -154.55545282  52.99649734
3502.00 -154.71835340  53.08129538
3504.00 -154.88130954  53.16617430
3506.00 -155.04432120  53.25113411
3508.00 -155.20738832  53.33617481
3510.00 -155.37051085  53.42129643
3512.00 -155.53368874  53.50649899
3514.00 -155.69692194  53.59178248
3516.00 -155.86021040  53.67714694
3518.00 -156.02355406  53.76259237
3520.00 -156.18695288  53.84811878
3522.00 -156.35040680  53.93372620
3524.00 -156.51391577  54.01941464
3526.00 -156.67747975  54.10518411
3528.00 -156.84109867  54.19103462
3530.00 -157.00477249  54.27696619
3532.00 -157.16850116  54.36297884
3534.00 -157.33228462  54.44907257
3536.00 -157.49612283  54.53524741
3538.00 -157.66001573  54.62150336
3540.00 -157.82396327  54.70784044
3542.00 -157.98796540  54.79425867
3544.00 -158.15202208  54.88075805
3546.00 -158.31613324  54.96733861
3548.00 -158.48029883  55.05400035
3550.00 -158.64451882  55.14074329
3552.00 -158.80879314  55.22756745
3554.00 -158.97312174  55.31447283
3556.00 -159.13750457  55.40145945
3558.00 -159.30194158  55.48852733
3560.00 -159.46643273  55.57567647
3562.00 -159.63097795  55.66290690
3564.00 -159.79557720  55.75021862
3566.00 -159.96023042  55.83761165
3568.00 -160.12493757  55.92508601
3570.00 -160.28969859  56.01264169
3572.00 -160.45451344  56.10027873
3574.00 -160.61938205  56.18799713
3576.00 -160.78430439  56.27579691
3578.00 -160.94928039  56.36367807
3580.00 -161.11431001  56.45164064
3582.00 -161.27939320  56.53968463
3584.00 -161.44452991  56.62781004
3586.00 -161.60972007  56.71601689
3588.00 -161.77496365  56.80430520
3590.00 -161.94026059  56.89267498
3592.00 -162.10561084  56.98112624
3594.00 -162.27101435  57.06965899
3596.00 -162.43647107  57.15827325
3598.00 -162.60198094  57.24696903
3600.00 -162.76754392  57.33574634
3602.00 -162.93315996  57.42460520
3604.00 -163.09882900  57.51354562
3606.00 -163.26455099  57.60256761
3608.00 -163.43032588  57.69167118
3610.00 -163.59615362  57.78085635
3612.00 -163.76203416  57.87012313
3614.00 -163.92796744  57.95947153
3616.00 -164.09395343  58.04890156
3618.00 -164.25999205  58.13841324
3620.00 -164.42608328  58.22800658
3622.00 -164.59222704  58.31768160
3624.00 -164.75842330  58.40743829
3626.00 -164.92467200  58.49727669
3628.00 -165.09097308  58.58719679
3630.00 -165.25732651  58.67719862
3632.00 -165.42373222  58.76728218
3634.00 -165.59019017  58.85744748
3636.00 -165.75670030  58.94769454
3638.00 -165.92326257  59.03802338
3640.00 -166.08987692  59.12843399
3642.00 -166.25654331  59.21892640
3644.00 -166.42326167  59.30950062
3646.00 -166.59003196  59.40015665
3648.00 -166.75685413  59.49089452
3650.00 -166.92372813  59.58171423
3652.00 -167.09065391  59.67261579
3654.00 -167.25763141  59.76359922
3656.00 -167.42466059  59.85466452
3658.00 -167.59174138  59.94581172
3660.00 -167.75887375  60.03704082
3662.00 -167.92605765  60.12835183
3664.00 -168.09329301  60.21974476
3666.00 -168.26057979  60.31121963
3668.00 -168.42791794  60.40277645
3670.00 -168.59530740  60.49441523
3672.00 -168.76274813  60.58613599
3674.00 -168.93024008  60.67793872
3676.00 -169.09778319  60.76982345
3678.00 -169.26537741  60.86179018
3680.00 -169.43302270  60.95383893
3682.00 -169.60071899  61.04596971
3684.00 -169.76846625  61.13818253
3686.00 -169.93626441  61.23047740
3688.00 -170.10411343  61.32285433
3690.00 -170.27201326  61.41531333
3692.00 -170.43996385  61.50785442
3694.00 -170.60796514  61.60047760
3696.00 -170.77601708  61.69318289
3698.00 -170.94411963  61.78597030
3700.00 -171.11227272  61.87883983
3702.00 -171.28047632  61.97179151
3704.00 -171.44873037  62.06482533
3706.00 -171.61703482  62.15794132
3708.00 -171.78538961  62.25113948
3710.00 -171.95379471  62.34441982
3712.00 -172.12225005  62.43778235
3714.00 -172.29075558  62.53122709
3716.00 -172.45931126  62.62475405
3718.00 -172.62791703  62.71836323
3720.00 -172.79657284  62.81205464
3722.00 -172.96527865  62.90582831
3724.00 -173.13403440  62.99968423
3726.00 -173.30284003  63.09362242
3728.00 -173.47169551  63.18764288
3730.00 -173.64060077  63.28174564
3732.00 -173.80955577  63.37593070
3734.00 -173.97856046  63.47019806
3736.00 -174.14761478  63.56454775
3738.00 -174.31671869  63.65897976
3740.00 -174.48587213  63.75349412
3742.00 -174.65507505  63.84809082
3744.00 -174.82432740  63.94276989
3746.00 -174.99362914  64.03753133
3748.00 -175.16298020  64.13237515
3750.00 -175.33238055  64.22730136
3752.00 -175.50183012  64.32230997
3754.00 -175.67132887  64.41740099
3756.00 -175.84087675  64.51257444
3758.00 -176.01047370  64.60783031
3760.00 -176.18011968  64.70316863
3762.00 -176.34981463  64.79858940
3764.00 -176.51955851  64.89409262
3766.00 -176.68935126  64.98967832
3768.00 -176.85919283  65.08534650
3770.00 -177.02908317  65.18109717
3772.00 -177.19902224  65.27693034
3774.00 -177.36900997  65.37284601
3776.00 -177.53904632  65.46884421
3778.00 -177.70913124  65.56492493
3780.00 -177.87926468  65.66108819
3782.00 -178.04944658  65.75733400
3784.00 -178.21967690  65.85366237
3786.00 -178.38995559  65.95007330
3788.00 -178.56028258  66.04656680
3790.00 -178.73065785  66.14314290
3792.00 -178.90108132  66.23980158
3794.00 -179.07155296  66.33654287
3796.00 -179.24207271  66.43336677
3798.00 -179.41264052  66.53027330
3800.00 -179.58325634  66.62726245
3802.00 -179.75392012  66.72433424
3804.00 -179.92463181  66.82148869
3806.00 -180.09539136  66.91872579
3808.00 -180.26619871  67.01604556
3810.00 -180.43705382  67.11344800
3812.00 -180.60795664  67.21093313
3814.00 -180.77890711  67.30850095
3816.00 -180.94990519  67.40615148
3818.00 -181.12095082  67.50388472
3820.00 -181.29204396  67.60170067
3822.00 -181.46318455  67.69959936
3824.00 -181.63437254  67.79758078
3826.00 -181.80560788  67.89564496
3828.00 -181.97689052  67.99379188
3830.00 -182.14822042  68.09202157
3832.00 -182.31959751  68.19033403
3834.00 -182.49102176  68.28872928
3836.00 -182.66249310  68.38720731
3838.00 -182.83401149  68.48576814
3840.00 -183.00557688  68.58441178
3842.00 -183.17718921  68.68313823
3844.00 -183.34884844  68.78194750
3846.00 -183.52055452  68.88083961
3848.00 -183.69230739  68.97981455
3850.00 -183.86410701  69.07887234
3852.00 -184.03595333  69.17801299
3854.00 -184.20784628  69.27723651
3856.00 -184.37978583  69.37654289
3858.00 -184.55177192  69.47593216
3860.00 -184.72380451  69.57540431
3862.00 -184.89588354  69.67495936
3864.00 -185.06800896  69.77459731
3866.00 -185.24018071  69.87431818
3868.00 -185.41239876  69.97412197
3870.00 -185.58466305  70.07400868
3872.00 -185.75697353  70.17397833
3874.00 -185.92933015  70.27403093
3876.00 -186.10173286  70.37416648
3878.00 -186.27418161  70.47438498
3880.00 -186.44667634  70.57468646
3882.00 -186.61921701  70.67507090
3884.00 -186.79180357  70.77553833
3886.00 -186.96443596  70.87608876
3888.00 -187.13711415  70.97672217
3890.00 -187.30983806  71.07743860
3892.00 -187.48260766  71.17823803
3894.00 -187.65542290  71.27912049
3896.00 -187.82828372  71.38008597
3898.00 -188.00119008  71.48113449
3900.00 -188.17414192  71.58226605
3902.00 -188.34713920  71.68348066
3904.00 -188.52018185  71.78477832
3906.00 -188.69326985  71.88615905
3908.00 -188.86640312  71.98762285
3910.00 -189.03958163  72.08916973
3912.00 -189.21280531  72.19079969
3914.00 -189.38607413  72.29251275
3916.00 -189.55938804  72.39430891
3918.00 -189.73274697  72.49618817
3920.00 -189.90615088  72.59815055
3922.00 -190.07959973  72.70019605
3924.00 -190.25309345  72.80232467
3926.00 -190.42663201  72.90453643
3928.00 -190.60021535  73.00683133
3930.00 -190.77384341  73.10920938
3932.00 -190.94751616  73.21167058
3934.00 -191.12123353  73.31421495
3936.00 -191.29499549  73.41684248
3938.00 -191.46880197  73.51955319
3940.00 -191.64265293  73.62234708
3942.00 -191.81654832  73.72522415
3944.00 -191.99048809  73.82818443
3946.00 -192.16447219  73.93122790
3948.00 -192.33850056  74.03435458
3950.00 -192.51257316  74.13756447
3952.00 -192.68668995  74.24085759
3954.00 -192.86085085  74.34423393
3956.00 -193.03505584  74.44769351
3958.00 -193.20930485  74.55123633
3960.00 -193.38359785  74.65486239
3962.00 -193.55793476  74.75857170
3964.00 -193.73231556  74.86236427
3966.00 -193.90674018  74.96624011
3968.00 -194.08120858  75.07019922
3970.00 -194.25572071  75.17424160
3972.00 -194.43027651  75.27836727
3974.00 -194.60487594  75.38257623
3976.00 -194.77951895  75.48686848
3978.00 -194.95420549  75.59124403
3980.00 -195.12893550  75.69570289
3982.00 -195.30370894  75.80024506
3984.00 -195.47852575  75.90487055
3986.00 -195.65338589  76.00957937
3988.00 -195.82828931  76.11437152
3990.00 -196.00323596  76.21924700
3992.00 -196.17822578  76.32420582
3994.00 -196.35325873  76.42924799
3996.00 -196.52833476  76.53437351
3998.00 -196.70345381  76.63958240
4000.00 -196.87861584  76.74487464
4002.00 -197.05382080  76.85025026
4004.00 -197.22906863  76.95570925
4006.00 -197.40435930  77.06125162
4008.00 -197.57969274  77.16687738
4010.00 -197.75506890  77.27258653
4012.00 -197.93048775  77.37837908
4014.00 -198.10594922  77.48425503
4016.00 -198.28145327  77.59021439
4018.00 -198.45699985  77.69625716
4020.00 -198.63258891  77.80238335
4022.00 -198.80822040  77.90859296
4024.00 -198.98389426  78.01488600
4026.00 -199.15961046  78.12126248
4028.00 -199.33536893  78.22772239
4030.00 -199.51116963  78.33426575
4032.00 -199.68701251  78.44089256
4034.00 -199.86289753  78.54760282
4036.00 -200.03882462  78.65439653
4038.00 -200.21479374  78.76127372
4040.00 -200.39080484  78.86823437
4042.00 -200.56685788  78.97527850
4044.00 -200.74295279  79.08240610
4046.00 -200.91908954  79.18961719
4048.00 -201.09526806  79.29691176
4050.00 -201.27148832  79.40428983
4052.00 -201.44775026  79.51175139
4054.00 -201.62405384  79.61929646
4056.00 -201.80039899  79.72692503
4058.00 -201.97678568  79.83463712
4060.00 -202.15321386  79.94243272
4062.00 -202.32968346  80.05031184
4064.00 -202.50619446  80.15827449
4066.00 -202.68274678  80.26632066
4068.00 -202.85934039  80.37445037
4070.00 -203.03597524  80.48266362
4072.00 -203.21265127  80.59096040
4074.00 -203.38936844  80.69934074
4076.00 -203.56612670  80.80780463
4078.00 -203.74292599  80.91635207
4080.00 -203.91976627  81.02498307
4082.00 -204.09664749  81.13369763
4084.00 -204.27356960  81.24249577
4086.00 -204.45053255  81.35137747
4088.00 -204.62753628  81.46034275
4090.00 -204.80458076  81.56939161
4092.00 -204.98166593  81.67852406
4094.00 -205.15879173  81.78774009
4096.00 -205.33595813  81.89703971
4098.00 -205.51316507  82.00642293
4100.00 -205.69041251  82.11588975
4102.00 -205.86770039  82.22544017
4104.00 -206.04502866  82.33507420
4106.00 -206.22239727  82.44479185
4108.00 -206.39980618  82.55459310
4110.00 -206.57725534  82.66447798
4112.00 -206.75474469  82.77444647
4114.00 -206.93227419  82.88449860
4116.00 -207.10984379  82.99463435
4118.00 -207.28745344  83.10485373
4120.00 -207.46510308  83.21515675
4122.00 -207.64279267  83.32554342
4124.00 -207.82052217  83.43601372
4126.00 -207.99829151  83.54656767
4128.00 -208.17610066  83.65720528
4130.00 -208.35394956  83.76792653
4132.00 -208.53183816  83.87873144
4134.00 -208.70976641  83.98962002
4136.00 -208.88773427  84.10059225
4138.00 -209.06574169  84.21164816
4140.00 -209.24378861  84.32278773
4142.00 -209.42187499  84.43401098
4144.00 -209.60000077  84.54531790
4146.00 -209.77816591  84.65670850
4148.00 -209.95637037  84.76818279
4150.00 -210.13461408  84.87974076
4152.00 -210.31289700  84.99138242
4154.00 -210.49121909  85.10310777
4156.00 -210.66958028  85.21491682
4158.00 -210.84798055  85.32680956
4160.00 -211.02641982  85.43878600
4162.00 -211.20489806  85.55084615
4164.00 -211.38341522  85.66299000
4166.00 -211.56197124  85.77521756
4168.00 -211.74056608  85.88752883
4170.00 -211.91919969  85.99992382
4172.00 -212.09787202  86.11240252
4174.00 -212.27658302  86.22496494
4176.00 -212.45533264  86.33761108
4178.00 -212.63412083  86.45034095
4180.00 -212.81294755  86.56315455
4182.00 -212.99181274  86.67605187
4184.00 -213.17071636  86.78903293
4186.00 -213.34965835  86.90209772
4188.00 -213.52863867  87.01524625
4190.00 -213.70765727  87.12847852
4192.00 -213.88671410  87.24179453
4194.00 -214.06580911  87.35519428
4196.00 -214.24494225  87.46867778
4198.00 -214.42411348  87.58224502
4200.00 -214.60332274  87.69589602
4202.00 -214.78256998  87.80963077
4204.00 -214.96185516  87.92344928
4206.00 -215.14117823  88.03735154
4208.00 -215.32053913  88.15133756
4210.00 -215.49993783  88.26540735
4212.00 -215.67937427  88.37956089
4214.00 -215.85884839  88.49379820
4216.00 -216.03836017  88.60811928
4218.00 -216.21790953  88.72252413
4220.00 -216.39749644  88.83701275
4222.00 -216.57712085  88.95158514
4224.00 -216.75678271  89.06624131
4226.00 -216.93648196  89.18098125
4228.00 -217.11621857  89.29580497
4230.00 -217.29599248  89.41071247
4232.00 -217.47580364  89.52570375
4234.00 -217.65565200  89.64077881
4236.00 -217.83553753  89.75593766
4238.00 -218.01546015  89.87118030
4240.00 -218.19541984  89.98650672
4242.00 -218.37541654  90.10191693
4244.00 -218.55545019  90.21741094
4246.00 -218.73552076  90.33298873
4248.00 -218.91562820  90.44865032
4250.00 -219.09577244  90.56439571
4252.00 -219.27595346  90.68022489
4254.00 -219.45617119  90.79613787
4256.00 -219.63642559  90.91213465
4258.00 -219.81671662  91.02821523
4260.00 -219.99704421  91.14437961
4262.00 -220.17740833  91.26062779
4264.00 -220.35780893  91.37695978
4266.00 -220.53824595  91.49337557
4268.00 -220.71871935  91.60987517
4270.00 -220.89922908  91.72645858
4272.00 -221.07977509  91.84312580
4274.00 -221.26035733  91.95987682
4276.00 -221.44097576  92.07671166
4278.00 -221.62163032  92.19363030
4280.00 -221.80232097  92.31063276
4282.00 -221.98304767  92.42771903
4284.00 -222.16381035  92.54488912
4286.00 -222.34460897  92.66214302
4288.00 -222.52544349  92.77948073
4290.00 -222.70631385  92.89690227
4292.00 -222.88722001  93.01440762
4294.00 -223.06816192  93.13199678
4296.00 -223.24913953  93.24966977
4298.00 -223.43015279  93.36742657
4300.00 -223.61120165  93.48526720
4302.00 -223.79228607  93.60319164
4304.00 -223.97340600  93.72119991
4306.00 -224.15456139  93.83929200
4308.00 -224.33575219  93.95746790
4310.00 -224.51697835  94.07572763
4312.00 -224.69823982  94.19407119
4314.00 -224.87953656  94.31249856
4316.00 -225.06086852  94.43100976
4318.00 -225.24223565  94.54960478
4320.00 -225.42363790  94.66828363
4322.00 -225.60507523  94.78704630
4324.00 -225.78654758  94.90589279
4326.00 -225.96805490  95.02482311
4328.00 -226.14959716  95.14383726
4330.00 -226.33117429  95.26293523
4332.00 -226.51278626  95.38211702
4334.00 -226.69443302  95.50138264
4336.00 -226.87611451  95.62073208
4338.00 -227.05783069  95.74016535
4340.00 -227.23958151  95.85968244
4342.00 -227.42136692  95.97928336
4344.00 -227.60318687  96.09896810
4346.00 -227.78504133  96.21873667
4348.00 -227.96693023  96.33858906
4350.00 -228.14885353  96.45852527
4352.00 -228.33081118  96.57854531
4354.00 -228.51280314  96.69864918
4356.00 -228.69482936  96.81883686
4358.00 -228.87688978  96.93910837
4360.00 -229.05898437  97.05946371
4362.00 -229.24111307  97.17990286
4364.00 -229.42327583  97.30042584
4366.00 -229.60547261  97.42103264
4368.00 -229.78770336  97.54172326
4370.00 -229.96996803  97.66249770
4372.00 -230.15226657  97.78335596
4374.00 -230.33459894  97.90429804
4376.00 -230.51696509  98.02532393
4378.00 -230.69936497  98.14643365
4380.00 -230.88179853  98.26762718
4382.00 -231.06426573  98.38890454
4384.00 -231.24676651  98.51026570
4386.00 -231.42930083  98.63171069
4388.00 -231.61186864  98.75323948
4390.00 -231.79446990  98.87485209
4392.00 -231.97710455  98.99654852
4394.00 -232.15977255  99.11832875
4396.00 -232.34247385  99.24019280
4398.00 -232.52520841  99.36214066
4400.00 -232.70797617  99.48417233
4402.00 -232.89077708  99.60628780
4404.00 -233.07361111  99.72848708
4406.00 -233.25647820  99.85077017
4408.00 -233.43937830  99.97313707
4410.00 -233.62231138 100.09558776
4412.00 -233.80527737 100.21812226
4414.00 -233.98827623 100.34074057
4416.00 -234.17130792 100.46344267
4418.00 -234.35437238 100.58622857
4420.00 -234.53746958 100.70909827
4422.00 -234.72059946 100.83205177
4424.00 -234.90376197 100.95508906
4426.00 -235.08695707 101.07821014
4428.00 -235.27018471 101.20141502
4430.00 -235.45344484 101.32470369
4432.00 -235.63673741 101.44807615
4434.00 -235.82006239 101.57153240
4436.00 -236.00341971 101.69507243
4438.00 -236.18680933 101.81869625
4440.00 -236.37023122 101.94240385
4442.00 -236.55368530 102.06619523
4444.00 -236.73717155 102.19007040
4446.00 -236.92068992 102.31402934
4448.00 -237.10424034 102.43807206
4450.00 -237.28782279 102.56219856
4452.00 -237.47143721 102.68640882
4454.00 -237.65508355 102.81070286
4456.00 -237.83876177 102.93508067
4458.00 -238.02247182 103.05954225
4460.00 -238.20621365 103.18408760
4462.00 -238.38998722 103.30871670
4464.00 -238.57379248 103.43342957
4466.00 -238.75762937 103.55822620
4468.00 -238.94149786 103.68310659
4470.00 -239.12539789 103.80807074
4472.00 -239.30932943 103.93311864
4474.00 -239.49329242 104.05825029
4476.00 -239.67728681 104.18346569
4478.00 -239.86131256 104.30876484
4480.00 -240.04536962 104.43414773
4482.00 -240.22945794 104.55961437
4484.00 -240.41357748 104.68516475
4486.00 -240.59772820 104.81079887
4488.00 -240.78191003 104.93651673
4490.00 -240.96612294 105.06231831
4492.00 -241.15036688 105.18820364
4494.00 -241.33464180 105.31417269
4496.00 -241.51894765 105.44022546
4498.00 -241.70328439 105.56636197
4500.00 -241.88765197 105.69258219
4502.00 -242.07205035 105.81888614
4504.00 -242.25647948 105.94527380
4506.00 -242.44093930 106.07174518
4508.00 -242.62542978 106.19830026
4510.00 -242.80995086 106.32493906
4512.00 -242.99450250 106.45166157
4514.00 -243.17908466 106.57846778
4516.00 -243.36369728 106.70535769
4518.00 -243.54834032 106.83233129
4520.00 -243.73301373 106.95938860
4522.00 -243.91771747 107.08652960
4524.00 -244.10245149 107.21375428
4526.00 -244.28721573 107.34106266
4528.00 -244.47201017 107.46845472
4530.00 -244.65683474 107.59593046
4532.00 -244.84168940 107.72348988
4534.00 -245.02657411 107.85113298
4536.00 -245.21148882 107.97885974
4538.00 -245.39643348 108.10667018
4540.00 -245.58140805 108.23456429
4542.00 -245.76641247 108.36254205
4544.00 -245.95144670 108.49060348
4546.00 -246.13651070 108.61874857
4548.00 -246.32160442 108.74697731
4550.00 -246.50672781 108.87528970
4552.00 -246.69188083 109.00368573
4554.00 -246.87706342 109.13216542
4556.00 -247.06227555 109.26072874
4558.00 -247.24751717 109.38937570
4560.00 -247.43278822 109.51810629
4562.00 -247.61808867 109.64692052
4564.00 -247.80341846 109.77581837
4566.00 -247.98877755 109.90479985
4568.00 -248.17416590 110.03386495
4570.00 -248.35958345 110.16301366
4572.00 -248.54503017 110.29224599
4574.00 -248.73050600 110.42156193
4576.00 -248.91601090 110.55096148
4578.00 -249.10154482 110.68044463
4580.00 -249.28710771 110.81001137
4582.00 -249.47269953 110.93966172
4584.00 -249.65832024 111.06939565
4586.00 -249.84396978 111.19921317
4588.00 -250.02964812 111.32911428
4590.00 -250.21535519 111.45909897
4592.00 -250.40109097 111.58916723
4594.00 -250.58685540 111.71931907
4596.00 -250.77264843 111.84955448
4598.00 -250.95847002 111.97987345
4600.00 -251.14432012 112.11027598
4602.00 -251.33019869 112.24076207
4604.00 -251.51610568 112.37133171
4606.00 -251.70204105 112.50198491
4608.00 -251.88800474 112.63272164
4610.00 -252.07399672 112.76354192
4612.00 -252.26001693 112.89444574
4614.00 -252.44606533 113.02543309
4616.00 -252.63214188 113.15650396
4618.00 -252.81824652 113.28765837
4620.00 -253.00437922 113.41889629
4622.00 -253.19053992 113.55021773
4624.00 -253.37672858 113.68162268
4626.00 -253.56294515 113.81311114
4628.00 -253.74918960 113.94468310
4630.00 -253.93546186 114.07633856
4632.00 -254.12176190 114.20807751
4634.00 -254.30808967 114.33989996
4636.00 -254.49444513 114.47180589
4638.00 -254.68082822 114.60379530
4640.00 -254.86723891 114.73586819
4642.00 -255.05367714 114.86802455
4644.00 -255.24014287 115.00026437
4646.00 -255.42663606 115.13258767
4648.00 -255.61315666 115.26499442
4650.00 -255.79970462 115.39748462
4652.00 -255.98627990 115.53005827
4654.00 -256.17288245 115.66271537
4656.00 -256.35951222 115.79545590
4658.00 -256.54616918 115.92827988
4660.00 -256.73285327 116.06118728
4662.00 -256.91956445 116.19417811
4664.00 -257.10630267 116.32725235
4666.00 -257.29306789 116.46041002
4668.00 -257.47986006 116.59365109
4670.00 -257.66667914 116.72697557
4672.00 -257.85352508 116.86038345
4674.00 -258.04039783 116.99387473
4676.00 -258.22729736 117.12744940
4678.00 -258.41422360 117.26110746
4680.00 -258.60117653 117.39484889
4682.00 -258.78815609 117.52867370
4684.00 -258.97516223 117.66258189
4686.00 -259.16219492 117.79657343
4688.00 -259.34925411 117.93064834
4690.00 -259.53633974 118.06480661
4692.00 -259.72345178 118.19904822
4694.00 -259.91059018 118.33337318
4696.00 -260.09775490 118.46778148
4698.00 -260.28494588 118.60227311
4700.00 -260.47216309 118.73684807
4702.00 -260.65940647 118.87150636
4704.00 -260.84667599 119.00624796
4706.00 -261.03397160 119.14107288
4708.00 -261.22129325 119.27598110
4710.00 -261.40864089 119.41097263
4712.00 -261.59601449 119.54604745
4714.00 -261.78341399 119.68120557
4716.00 -261.97083936 119.81644696
4718.00 -262.15829054 119.95177164
4720.00 -262.34576749 120.08717960
4722.00 -262.53327017 120.22267082
4724.00 -262.72079852 120.35824530
4726.00 -262.90835252 120.49390304
4728.00 -263.09593210 120.62964404
4730.00 -263.28353723 120.76546828
4732.00 -263.47116785 120.90137576
4734.00 -263.65882394 121.03736647
4736.00 -263.84650543 121.17344041
4738.00 -264.03421228 121.30959758
4740.00 -264.22194446 121.44583796
4742.00 -264.40970191 121.58216155
4744.00 -264.59748459 121.71856835
4746.00 -264.78529245 121.85505834
4748.00 -264.97312545 121.99163153
4750.00 -265.16098355 122.12828791
4752.00 -265.34886670 122.26502747
4754.00 -265.53677485 122.40185020
4756.00 -265.72470796 122.53875610
4758.00 -265.91266598 122.67574517
4760.00 -266.10064888 122.81281739
4762.00 -266.28865660 122.94997276
4764.00 -266.47668909 123.08721127
4766.00 -266.66474633 123.22453293
4768.00 -266.85282825 123.36193771
4770.00 -267.04093482 123.49942562
4772.00 -267.22906600 123.63699666
4774.00 -267.41722172 123.77465080
4776.00 -267.60540196 123.91238805
4778.00 -267.79360667 124.05020840
4780.00 -267.98183579 124.18811184
4782.00 -268.17008930 124.32609838
4784.00 -268.35836713 124.46416799
4786.00 -268.54666925 124.60232067
4788.00 -268.73499562 124.74055643
4790.00 -268.92334619 124.87887525
4792.00 -269.11172090 125.01727712
4794.00 -269.30011973 125.15576204
4796.00 -269.48854262 125.29433000
4798.00 -269.67698954 125.43298099
4800.00 -269.86546042 125.57171502
4802.00 -270.05395524 125.71053207
4804.00 -270.24247395 125.84943213
4806.00 -270.43101649 125.98841520
4808.00 -270.61958284 126.12748127
4810.00 -270.80817294 126.26663033
4812.00 -270.99678674 126.40586239
4814.00 -271.18542421 126.54517742
4816.00 -271.37408530 126.68457543
4818.00 -271.56276997 126.82405641
4820.00 -271.75147816 126.96362034
4822.00 -271.94020984 127.10326723
4824.00 -272.12896497 127.24299707
4826.00 -272.31774349 127.38280985
4828.00 -272.50654537 127.52270555
4830.00 -272.69537055 127.66268419
4832.00 -272.88421900 127.80274574
4834.00 -273.07309067 127.94289020
4836.00 -273.26198552 128.08311757
4838.00 -273.45090350 128.22342783
4840.00 -273.63984456 128.36382099
4842.00 -273.82880868 128.50429702
4844.00 -274.01779579 128.64485593
4846.00 -274.20680585 128.78549771
4848.00 -274.39583883 128.92622235
4850.00 -274.58489467 129.06702984
4852.00 -274.77397334 129.20792018
4854.00 -274.96307479 129.34889336
4856.00 -275.15219897 129.48994937
4858.00 -275.34134584 129.63108820
4860.00 -275.53051536 129.77230985
4862.00 -275.71970749 129.91361431
4864.00 -275.90892217 130.05500157
4866.00 -276.09815936 130.19647162
4868.00 -276.28741903 130.33802446
4870.00 -276.47670113 130.47966008
4872.00 -276.66600560 130.62137847
4874.00 -276.85533242 130.76317962
4876.00 -277.04468153 130.90506353
4878.00 -277.23405290 131.04703019
4880.00 -277.42344647 131.18907959
4882.00 -277.61286220 131.33121172
4884.00 -277.80230006 131.47342657
4886.00 -277.99175999 131.61572415
4888.00 -278.18124195 131.75810443
4890.00 -278.37074590 131.90056742
4892.00 -278.56027180 132.04311309
4894.00 -278.74981959 132.18574146
4896.00 -278.93938925 132.32845250
4898.00 -279.12898072 132.47124622
4900.00 -279.31859395 132.61412259
4902.00 -279.50822892 132.75708162
4904.00 -279.69788557 132.90012330
4906.00 -279.88756385 133.04324761
4908.00 -280.07726373 133.18645456
4910.00 -280.26698517 133.32974413
4912.00 -280.45672811 133.47311631
4914.00 -280.64649251 133.61657109
4916.00 -280.83627834 133.76010848
4918.00 -281.02608555 133.90372845
4920.00 -281.21591409 134.04743101
4922.00 -281.40576392 134.19121614
4924.00 -281.59563499 134.33508383
4926.00 -281.78552728 134.47903408
4928.00 -281.97544072 134.62306688
4930.00 -282.16537527 134.76718222
4932.00 -282.35533091 134.91138010
4934.00 -282.54530757 135.05566049
4936.00 -282.73530522 135.20002340
4938.00 -282.92532381 135.34446882
4940.00 -283.11536330 135.48899673
4942.00 -283.30542365 135.63360714
4944.00 -283.49550481 135.77830002
4946.00 -283.68560675 135.92307538
4948.00 -283.87572941 136.06793320
4950.00 -284.06587275 136.21287348
4952.00 -284.25603673 136.35789621
4954.00 -284.44622132 136.50300137
4956.00 -284.63642645 136.64818896
4958.00 -284.82665210 136.79345898
4960.00 -285.01689821 136.93881140
4962.00 -285.20716475 137.08424623
4964.00 -285.39745167 137.22976346
4966.00 -285.58775893 137.37536307
4968.00 -285.77808649 137.52104506
4970.00 -285.96843430 137.66680942
4972.00 -286.15880232 137.81265613
4974.00 -286.34919050 137.95858520
4976.00 -286.53959881 138.10459661
4978.00 -286.73002719 138.25069035
4980.00 -286.92047562 138.39686642
4982.00 -287.11094404 138.54312480
4984.00 -287.30143241 138.68946549
4986.00 -287.49194069 138.83588848
4988.00 -287.68246884 138.98239375
4990.00 -287.87301681 139.12898131
4992.00 -288.06358456 139.27565113
4994.00 -288.25417205 139.42240322
4996.00 -288.44477923 139.56923755
4998.00 -288.63540606 139.71615413
5000.00 -288.82605250 139.86315294
