wavelength(nm)         real         imag
100.00   3.80575795   0.00090057
102.00   3.80195093   0.00095569
104.00   3.79806856   0.00101301
106.00   3.79411083   0.00107258
108.00   3.79007774   0.00113444
110.00   3.78596931   0.00119863
112.00   3.78178552   0.00126520
114.00   3.77752638   0.00133420
116.00   3.77319190   0.00140565
118.00   3.76878207   0.00147961
120.00   3.76429690   0.00155612
122.00   3.75973639   0.00163522
124.00   3.75510054   0.00171696
126.00   3.75038935   0.00180138
128.00   3.74560283   0.00188852
130.00   3.74074097   0.00197842
132.00   3.73580378   0.00207114
134.00   3.73079127   0.00216670
136.00   3.72570343   0.00226516
138.00   3.72054026   0.00236656
140.00   3.71530177   0.00247094
142.00   3.70998797   0.00257835
144.00   3.70459884   0.00268882
146.00   3.69913440   0.00280240
148.00   3.69359465   0.00291914
150.00   3.68797959   0.00303907
152.00   3.68228922   0.00316224
154.00   3.67652354   0.00328870
156.00   3.67068257   0.00341848
158.00   3.66476629   0.00355164
160.00   3.65877471   0.00368820
162.00   3.65270784   0.00382822
164.00   3.64656568   0.00397174
166.00   3.64034823   0.00411881
168.00   3.63405549   0.00426945
170.00   3.62768747   0.00442373
172.00   3.62124417   0.00458168
174.00   3.61472559   0.00474334
176.00   3.60813173   0.00490876
178.00   3.60146260   0.00507798
180.00   3.59471820   0.00525104
182.00   3.58789853   0.00542799
184.00   3.58100360   0.00560887
186.00   3.57403341   0.00579373
188.00   3.56698796   0.00598260
190.00   3.55986726   0.00617553
192.00   3.55267131   0.00637256
194.00   3.54540010   0.00657374
196.00   3.53805365   0.00677910
198.00   3.53063196   0.00698870
200.00   3.52313503   0.00720257
202.00   3.51556287   0.00742076
204.00   3.50791547   0.00764332
206.00   3.50019285   0.00787027
208.00   3.49239500   0.00810167
210.00   3.48452193   0.00833757
212.00   3.47657363   0.00857799
214.00   3.46855013   0.00882300
216.00   3.46045141   0.00907262
218.00   3.45227748   0.00932690
220.00   3.44402835   0.00958589
222.00   3.43570402   0.00984963
224.00   3.42730450   0.01011816
226.00   3.41882977   0.01039152
228.00   3.41027986   0.01066976
230.00   3.40165477   0.01095292
232.00   3.39295449   0.01124105
234.00   3.38417903   0.01153418
236.00   3.37532840   0.01183236
238.00   3.36640259   0.01213564
240.00   3.35740162   0.01244405
242.00   3.34832549   0.01275764
244.00   3.33917420   0.01307645
246.00   3.32994775   0.01340052
248.00   3.32064615   0.01372990
250.00   3.31126941   0.01406464
252.00   3.30181752   0.01440476
254.00   3.29229049   0.01475033
256.00   3.28268833   0.01510137
258.00   3.27301104   0.01545794
260.00   3.26325863   0.01582007
262.00   3.25343109   0.01618781
264.00   3.24352843   0.01656120
266.00   3.23355067   0.01694028
268.00   3.22349779   0.01732511
270.00   3.21336981   0.01771571
272.00   3.20316673   0.01811214
274.00   3.19288855   0.01851443
276.00   3.18253528   0.01892263
278.00   3.17210693   0.01933679
280.00   3.16160349   0.01975694
282.00   3.15102498   0.02018312
284.00   3.14037139   0.02061539
286.00   3.12964274   0.02105378
288.00   3.11883902   0.02149834
290.00   3.10796025   0.02194911
292.00   3.09700642   0.02240613
294.00   3.08597754   0.02286945
296.00   3.07487362   0.02333910
298.00   3.06369466   0.02381514
300.00   3.05244066   0.02429760
302.00   3.04111164   0.02478652
304.00   3.02970759   0.02528196
306.00   3.01822852   0.02578395
308.00   3.00667443   0.02629253
310.00   2.99504534   0.02680776
312.00   2.98334124   0.02732966
314.00   2.97156215   0.02785829
316.00   2.95970805   0.02839368
318.00   2.94777897   0.02893589
320.00   2.93577491   0.02948495
322.00   2.92369587   0.03004090
324.00   2.91154185   0.03060379
326.00   2.89931287   0.03117366
328.00   2.88700892   0.03175056
330.00   2.87463002   0.03233452
332.00   2.86217617   0.03292560
334.00   2.84964736   0.03352382
336.00   2.83704362   0.03412924
338.00   2.82436495   0.03474190
340.00   2.81161134   0.03536184
342.00   2.79878281   0.03598910
344.00   2.78587936   0.03662373
346.00   2.77290099   0.03726577
348.00   2.75984772   0.03791526
350.00   2.74671955   0.03857224
352.00   2.73351648   0.03923677
354.00   2.72023853   0.03990887
356.00   2.70688568   0.04058859
358.00   2.69345796   0.04127598
360.00   2.67995537   0.04197108
362.00   2.66637791   0.04267393
364.00   2.65272559   0.04338457
366.00   2.63899841   0.04410305
368.00   2.62519639   0.04482941
370.00   2.61131952   0.04556369
372.00   2.59736782   0.04630594
374.00   2.58334128   0.04705619
376.00   2.56923993   0.04781449
378.00   2.55506375   0.04858089
380.00   2.54081276   0.04935542
382.00   2.52648696   0.05013812
384.00   2.51208637   0.05092905
386.00   2.49761098   0.05172824
388.00   2.48306080   0.05253574
390.00   2.46843585   0.05335159
392.00   2.45373612   0.05417583
394.00   2.43896162   0.05500850
396.00   2.42411236   0.05584964
398.00   2.40918834   0.05669931
400.00   2.39418958   0.05755754
402.00   2.37911607   0.05842437
404.00   2.36396783   0.05929985
406.00   2.34874486   0.06018402
408.00   2.33344717   0.06107692
410.00   2.31807476   0.06197860
412.00   2.30262765   0.06288909
414.00   2.28710583   0.06380844
416.00   2.27150932   0.06473670
418.00   2.25583811   0.06567390
420.00   2.24009223   0.06662008
422.00   2.22427167   0.06757530
424.00   2.20837645   0.06853959
426.00   2.19240656   0.06951300
428.00   2.17636202   0.07049556
430.00   2.16024283   0.07148732
432.00   2.14404901   0.07248833
434.00   2.12778055   0.07349862
436.00   2.11143746   0.07451823
438.00   2.09501975   0.07554722
440.00   2.07852744   0.07658562
442.00   2.06196052   0.07763348
444.00   2.04531900   0.07869083
446.00   2.02860289   0.07975772
448.00   2.01181220   0.08083420
450.00   1.99494694   0.08192030
452.00   1.97800711   0.08301607
454.00   1.96099271   0.08412154
456.00   1.94390377   0.08523677
458.00   1.92674028   0.08636180
460.00   1.90950225   0.08749666
462.00   1.89218969   0.08864140
464.00   1.87480260   0.08979606
466.00   1.85734100   0.09096068
468.00   1.83980490   0.09213532
470.00   1.82219429   0.09332000
472.00   1.80450919   0.09451477
474.00   1.78674961   0.09571968
476.00   1.76891555   0.09693476
478.00   1.75100702   0.09816006
480.00   1.73302402   0.09939562
482.00   1.71496658   0.10064149
484.00   1.69683469   0.10189770
486.00   1.67862836   0.10316430
488.00   1.66034760   0.10444133
490.00   1.64199242   0.10572883
492.00   1.62356282   0.10702684
494.00   1.60505882   0.10833541
496.00   1.58648042   0.10965458
498.00   1.56782763   0.11098440
500.00   1.54910046   0.11232489
502.00   1.53029891   0.11367611
504.00   1.51142300   0.11503810
506.00   1.49247274   0.11641090
508.00   1.47344812   0.11779456
510.00   1.45434916   0.11918911
512.00   1.43517587   0.12059459
514.00   1.41592826   0.12201106
516.00   1.39660633   0.12343854
518.00   1.37721009   0.12487709
520.00   1.35773956   0.12632675
522.00   1.33819473   0.12778755
524.00   1.31857562   0.12925955
526.00   1.29888224   0.13074277
528.00   1.27911460   0.13223727
530.00   1.25927270   0.13374309
532.00   1.23935655   0.13526027
534.00   1.21936616   0.13678885
536.00   1.19930154   0.13832887
538.00   1.17916270   0.13988037
540.00   1.15894965   0.14144341
542.00   1.13866239   0.14301801
544.00   1.11830094   0.14460422
546.00   1.09786531   0.14620209
548.00   1.07735549   0.14781165
550.00   1.05677151   0.14943296
552.00   1.03611337   0.15106604
554.00   1.01538107   0.15271094
556.00   0.99457464   0.15436771
558.00   0.97369407   0.15603638
560.00   0.95273938   0.15771700
562.00   0.93171058   0.15940961
564.00   0.91060767   0.16111425
566.00   0.88943067   0.16283097
568.00   0.86817957   0.16455980
570.00   0.84685440   0.16630079
572.00   0.82545517   0.16805398
574.00   0.80398187   0.16981941
576.00   0.78243452   0.17159712
578.00   0.76081314   0.17338716
580.00   0.73911772   0.17518957
582.00   0.71734828   0.17700439
584.00   0.69550483   0.17883166
586.00   0.67358738   0.18067142
588.00   0.65159593   0.18252372
590.00   0.62953050   0.18438859
592.00   0.60739110   0.18626609
594.00   0.58517773   0.18815624
596.00   0.56289041   0.19005910
598.00   0.54052914   0.19197470
600.00   0.51809394   0.19390309
602.00   0.49558481   0.19584430
604.00   0.47300177   0.19779839
606.00   0.45034482   0.19976539
608.00   0.42761398   0.20174534
610.00   0.40480925   0.20373829
612.00   0.38193064   0.20574427
614.00   0.35897816   0.20776334
616.00   0.33595183   0.20979552
618.00   0.31285166   0.21184087
620.00   0.28967764   0.21389942
622.00   0.26642980   0.21597122
624.00   0.24310815   0.21805630
626.00   0.21971269   0.22015472
628.00   0.19624343   0.22226650
630.00   0.17270038   0.22439170
632.00   0.14908356   0.22653035
634.00   0.12539298   0.22868250
636.00   0.10162864   0.23084819
638.00   0.07779055   0.23302746
640.00   0.05387873   0.23522034
642.00   0.02989319   0.23742689
644.00   0.00583393   0.23964715
646.00  -0.01829903   0.24188115
648.00  -0.04250568   0.24412894
650.00  -0.06678602   0.24639056
652.00  -0.09114002   0.24866605
654.00  -0.11556769   0.25095545
656.00  -0.14006901   0.25325881
658.00  -0.16464397   0.25557616
660.00  -0.18929256   0.25790755
662.00  -0.21401477   0.26025302
664.00  -0.23881058   0.26261260
666.00  -0.26368000   0.26498635
668.00  -0.28862300   0.26737431
670.00  -0.31363957   0.26977650
672.00  -0.33872971   0.27219299
674.00  -0.36389341   0.27462380
676.00  -0.38913065   0.27706898
678.00  -0.41444142   0.27952857
680.00  -0.43982571   0.28200261
682.00  -0.46528351   0.28449115
684.00  -0.49081481   0.28699422
686.00  -0.51641960   0.28951187
688.00  -0.54209786   0.29204414
690.00  -0.56784960   0.29459106
692.00  -0.59367478   0.29715269
694.00  -0.61957341   0.29972906
696.00  -0.64554548   0.30232021
698.00  -0.67159096   0.30492619
700.00  -0.69770986   0.30754703
702.00  -0.72390215   0.31018278
704.00  -0.75016783   0.31283348
706.00  -0.77650689   0.31549916
708.00  -0.80291931   0.31817988
710.00  -0.82940508   0.32087568
712.00  -0.85596420   0.32358658
714.00  -0.88259664   0.32631264
716.00  -0.90930241   0.32905390
718.00  -0.93608148   0.33181040
720.00  -0.96293385   0.33458217
722.00  -0.98985950   0.33736926
724.00  -1.01685843   0.34017172
726.00  -1.04393061   0.34298958
728.00  -1.07107605   0.34582288
730.00  -1.09829472   0.34867166
732.00  -1.12558662   0.35153598
734.00  -1.15295173   0.35441586
736.00  -1.18039004   0.35731134
738.00  -1.20790155   0.36022248
740.00  -1.23548623   0.36314931
742.00  -1.26314408   0.36609187
744.00  -1.29087508   0.36905020
746.00  -1.31867922   0.37202435
748.00  -1.34655650   0.37501435
750.00  -1.37450689   0.37802025
752.00  -1.40253039   0.38104208
754.00  -1.43062699   0.38407989
756.00  -1.45879666   0.38713373
758.00  -1.48703941   0.39020362
760.00  -1.51535521   0.39328961
762.00  -1.54374406   0.39639175
764.00  -1.57220594   0.39951007
766.00  -1.60074085   0.40264461
768.00  -1.62934876   0.40579542
770.00  -1.65802967   0.40896253
772.00  -1.68678356   0.41214599
774.00  -1.71561043   0.41534584
776.00  -1.74451025   0.41856212
778.00  -1.77348302   0.42179487
780.00  -1.80252872   0.42504413
782.00  -1.83164735   0.42830994
784.00  -1.86083889   0.43159234
786.00  -1.89010332   0.43489137
788.00  -1.91944063   0.43820708
790.00  -1.94885082   0.44153951
792.00  -1.97833387   0.44488869
794.00  -2.00788976   0.44825467
796.00  -2.03751848   0.45163748
798.00  -2.06722003   0.45503717
800.00  -2.09699438   0.45845379
802.00  -2.12684153   0.46188736
804.00  -2.15676146   0.46533793
806.00  -2.18675416   0.46880554
808.00  -2.21681961   0.47229024
810.00  -2.24695781   0.47579205
812.00  -2.27716874   0.47931104
814.00  -2.30745238   0.48284722
816.00  -2.33780873   0.48640065
818.00  -2.36823777   0.48997137
820.00  -2.39873949   0.49355941
822.00  -2.42931388   0.49716481
824.00  -2.45996091   0.50078763
826.00  -2.49068059   0.50442789
828.00  -2.52147289   0.50808564
830.00  -2.55233780   0.51176092
832.00  -2.58327531   0.51545377
834.00  -2.61428540   0.51916423
836.00  -2.64536807   0.52289235
838.00  -2.67652330   0.52663815
840.00  -2.70775107   0.53040168
842.00  -2.73905137   0.53418299
844.00  -2.77042420   0.53798211
846.00  -2.80186952   0.54179908
848.00  -2.83338734   0.54563395
850.00  -2.86497764   0.54948675
852.00  -2.89664040   0.55335753
854.00  -2.92837562   0.55724632
856.00  -2.96018326   0.56115316
858.00  -2.99206334   0.56507811
860.00  -3.02401582   0.56902119
862.00  -3.05604070   0.57298244
864.00  -3.08813796   0.57696192
866.00  -3.12030759   0.58095965
868.00  -3.15254958   0.58497567
870.00  -3.18486390   0.58901004
872.00  -3.21725055   0.59306279
874.00  -3.24970952   0.59713395
876.00  -3.28224078   0.60122357
878.00  -3.31484433   0.60533170
880.00  -3.34752016   0.60945836
882.00  -3.38026823   0.61360360
884.00  -3.41308855   0.61776746
886.00  -3.44598111   0.62194999
888.00  -3.47894587   0.62615121
890.00  -3.51198284   0.63037117
892.00  -3.54509199   0.63460992
894.00  -3.57827332   0.63886749
896.00  -3.61152680   0.64314391
898.00  -3.64485243   0.64743924
900.00  -3.67825018   0.65175351
902.00  -3.71172006   0.65608677
904.00  -3.74526203   0.66043904
906.00  -3.77887609   0.66481038
908.00  -3.81256222   0.66920082
910.00  -3.84632041   0.67361040
912.00  -3.88015065   0.67803916
914.00  -3.91405291   0.68248715
916.00  -3.94802718   0.68695439
918.00  -3.98207346   0.69144094
920.00  -4.01619172   0.69594684
922.00  -4.05038195   0.70047211
924.00  -4.08464414   0.70501681
926.00  -4.11897827   0.70958097
928.00  -4.15338433   0.71416463
930.00  -4.18786229   0.71876783
932.00  -4.22241216   0.72339061
934.00  -4.25703390   0.72803302
936.00  -4.29172752   0.73269509
938.00  -4.32649298   0.73737686
940.00  -4.36133029   0.74207837
942.00  -4.39623941   0.74679966
944.00  -4.43122035   0.75154078
946.00  -4.46627308   0.75630175
948.00  -4.50139758   0.76108263
950.00  -4.53659385   0.76588344
952.00  -4.57186187   0.77070424
954.00  -4.60720162   0.77554506
956.00  -4.64261308   0.78040593
958.00  -4.67809625   0.78528691
960.00  -4.71365111   0.79018802
962.00  -4.74927764   0.79510932
964.00  -4.78497582   0.80005083
966.00  -4.82074565   0.80501260
968.00  -4.85658710   0.80999467
970.00  -4.89250017   0.81499708
972.00  -4.92848483   0.82001987
974.00  -4.96454107   0.82506307
976.00  -5.00066887   0.83012673
978.00  -5.03686823   0.83521088
980.00  -5.07313912   0.84031557
982.00  -5.10948153   0.84544084
984.00  -5.14589544   0.85058672
986.00  -5.18238083   0.85575325
988.00  -5.21893770   0.86094048
990.00  -5.25556603   0.86614844
992.00  -5.29226580   0.87137717
994.00  -5.32903699   0.87662672
996.00  -5.36587959   0.88189712
998.00  -5.40279359   0.88718841
1000.00  -5.43977896   0.89250063
1002.00  -5.47683569   0.89783382
1004.00  -5.51396378   0.90318802
1006.00  -5.55116319   0.90856327
1008.00  -5.58843391   0.91395961
1010.00  -5.62577594   0.91937707
1012.00  -5.66318925   0.92481571
1014.00  -5.70067382   0.93027554
1016.00  -5.73822965   0.93575663
1018.00  -5.77585671   0.94125900
1020.00  -5.81355499   0.94678269
1022.00  -5.85132447   0.95232775
1024.00  -5.88916514   0.95789420
1026.00  -5.92707698   0.96348210
1028.00  -5.96505997   0.96909149
1030.00  -6.00311411   0.97472239
1032.00  -6.04123936   0.98037485
1034.00  -6.07943572   0.98604891
1036.00  -6.11770317   0.99174461
1038.00  -6.15604169   0.99746198
1040.00  -6.19445127   1.00320108
1042.00  -6.23293189   1.00896192
1044.00  -6.27148354   1.01474456
1046.00  -6.31010619   1.02054904
1048.00  -6.34879984   1.02637538
1050.00  -6.38756445   1.03222364
1052.00  -6.42640003   1.03809385
1054.00  -6.46530655   1.04398605
1056.00  -6.50428400   1.04990028
1058.00  -6.54333235   1.05583657
1060.00  -6.58245160   1.06179497
1062.00  -6.62164172   1.06777552
1064.00  -6.66090270   1.07377825
1066.00  -6.70023452   1.07980321
1068.00  -6.73963717   1.08585042
1070.00  -6.77911063   1.09191994
1072.00  -6.81865487   1.09801180
1074.00  -6.85826990   1.10412604
1076.00  -6.89795568   1.11026269
1078.00  -6.93771221   1.11642180
1080.00  -6.97753945   1.12260341
1082.00  -7.01743741   1.12880755
1084.00  -7.05740606   1.13503426
1086.00  -7.09744538   1.14128359
1088.00  -7.13755536   1.14755557
1090.00  -7.17773598   1.15385023
1092.00  -7.21798722   1.16016763
1094.00  -7.25830906   1.16650779
1096.00  -7.29870150   1.17287075
1098.00  -7.33916450   1.17925656
1100.00  -7.37969807   1.18566526
1102.00  -7.42030216   1.19209687
1104.00  -7.46097678   1.19855144
1106.00  -7.50172190   1.20502902
1108.00  -7.54253751   1.21152963
1110.00  -7.58342358   1.21805331
1112.00  -7.62438011   1.22460011
1114.00  -7.66540707   1.23117007
1116.00  -7.70650444   1.23776321
1118.00  -7.74767221   1.24437959
1120.00  -7.78891037   1.25101923
1122.00  -7.83021889   1.25768218
1124.00  -7.87159775   1.26436847
1126.00  -7.91304694   1.27107815
1128.00  -7.95456645   1.27781125
1130.00  -7.99615624   1.28456782
1132.00  -8.03781632   1.29134788
1134.00  -8.07954665   1.29815148
1136.00  -8.12134722   1.30497865
1138.00  -8.16321802   1.31182944
1140.00  -8.20515902   1.31870388
1142.00  -8.24717020   1.32560201
1144.00  -8.28925156   1.33252387
1146.00  -8.33140307   1.33946950
1148.00  -8.37362472   1.34643894
1150.00  -8.41591648   1.35343221
1152.00  -8.45827834   1.36044937
1154.00  -8.50071027   1.36749045
1156.00  -8.54321228   1.37455549
1158.00  -8.58578432   1.38164453
1160.00  -8.62842640   1.38875760
1162.00  -8.67113848   1.39589474
1164.00  -8.71392055   1.40305600
1166.00  -8.75677259   1.41024140
1168.00  -8.79969459   1.41745100
1170.00  -8.84268653   1.42468481
1172.00  -8.88574838   1.43194289
1174.00  -8.92888013   1.43922528
1176.00  -8.97208177   1.44653200
1178.00  -9.01535327   1.45386310
1180.00  -9.05869461   1.46121862
1182.00  -9.10210578   1.46859858
1184.00  -9.14558676   1.47600305
1186.00  -9.18913753   1.48343204
1188.00  -9.23275807   1.49088559
1190.00  -9.27644836   1.49836376
1192.00  -9.32020839   1.50586656
1194.00  -9.36403814   1.51339405
1196.00  -9.40793758   1.52094626
1198.00  -9.45190671   1.52852322
1200.00  -9.49594549   1.53612498
1202.00  -9.54005392   1.54375157
1204.00  -9.58423197   1.55140303
1206.00  -9.62847963   1.55907940
1208.00  -9.67279687   1.56678072
1210.00  -9.71718369   1.57450702
1212.00  -9.76164005   1.58225834
1214.00  -9.80616594   1.59003471
1216.00  -9.85076134   1.59783619
1218.00  -9.89542624   1.60566280
1220.00  -9.94016061   1.61351458
1222.00  -9.98496444   1.62139157
1224.00 -10.02983770   1.62929381
1226.00 -10.07478038   1.63722134
1228.00 -10.11979246   1.64517418
1230.00 -10.16487392   1.65315239
1232.00 -10.21002474   1.66115599
1234.00 -10.25524490   1.66918503
1236.00 -10.30053439   1.67723954
1238.00 -10.34589318   1.68531956
1240.00 -10.39132125   1.69342513
1242.00 -10.43681859   1.70155629
1244.00 -10.48238518   1.70971306
1246.00 -10.52802099   1.71789550
1248.00 -10.57372602   1.72610363
1250.00 -10.61950023   1.73433750
1252.00 -10.66534361   1.74259714
1254.00 -10.71125614   1.75088259
1256.00 -10.75723780   1.75919389
1258.00 -10.80328858   1.76753107
1260.00 -10.84940845   1.77589417
1262.00 -10.89559739   1.78428323
1264.00 -10.94185538   1.79269829
1266.00 -10.98818241   1.80113938
1268.00 -11.03457846   1.80960654
1270.00 -11.08104350   1.81809980
1272.00 -11.12757752   1.82661922
1274.00 -11.17418049   1.83516481
1276.00 -11.22085240   1.84373662
1278.00 -11.26759323   1.85233469
1280.00 -11.31440295   1.86095905
1282.00 -11.36128156   1.86960975
1284.00 -11.40822902   1.87828681
1286.00 -11.45524532   1.88699027
1288.00 -11.50233044   1.89572018
1290.00 -11.54948437   1.90447657
1292.00 -11.59670707   1.91325947
1294.00 -11.64399853   1.92206892
1296.00 -11.69135873   1.93090497
1298.00 -11.73878765   1.93976764
1300.00 -11.78628527   1.94865697
1302.00 -11.83385157   1.95757300
1304.00 -11.88148654   1.96651577
1306.00 -11.92919014   1.97548532
1308.00 -11.97696237   1.98448168
1310.00 -12.02480319   1.99350488
1312.00 -12.07271260   2.00255497
1314.00 -12.12069057   2.01163198
1316.00 -12.16873708   2.02073595
1318.00 -12.21685211   2.02986691
1320.00 -12.26503564   2.03902491
1322.00 -12.31328765   2.04820997
1324.00 -12.36160812   2.05742214
1326.00 -12.40999703   2.06666146
1328.00 -12.45845436   2.07592795
1330.00 -12.50698009   2.08522165
1332.00 -12.55557420   2.09454261
1334.00 -12.60423667   2.10389086
1336.00 -12.65296748   2.11326643
1338.00 -12.70176660   2.12266936
1340.00 -12.75063403   2.13209969
1342.00 -12.79956973   2.14155746
1344.00 -12.84857369   2.15104270
1346.00 -12.89764588   2.16055544
1348.00 -12.94678630   2.17009573
1350.00 -12.99599490   2.17966360
1352.00 -13.04527169   2.18925909
1354.00 -13.09461663   2.19888223
1356.00 -13.14402970   2.20853306
1358.00 -13.19351088   2.21821162
1360.00 -13.24306016   2.22791794
1362.00 -13.29267751   2.23765206
1364.00 -13.34236292   2.24741402
1366.00 -13.39211635   2.25720385
1368.00 -13.44193779   2.26702159
1370.00 -13.49182723   2.27686727
1372.00 -13.54178463   2.28674093
1374.00 -13.59180998   2.29664261
1376.00 -13.64190325   2.30657234
1378.00 -13.69206444   2.31653016
1380.00 -13.74229351   2.32651610
1382.00 -13.79259044   2.33653021
1384.00 -13.84295521   2.34657252
1386.00 -13.89338781   2.35664306
1388.00 -13.94388821   2.36674187
1390.00 -13.99445639   2.37686899
1392.00 -14.04509234   2.38702444
1394.00 -14.09579601   2.39720828
1396.00 -14.14656741   2.40742053
1398.00 -14.19740650   2.41766123
1400.00 -14.24831327   2.42793042
1402.00 -14.29928769   2.43822813
1404.00 -14.35032975   2.44855440
1406.00 -14.40143941   2.45890926
1408.00 -14.45261667   2.46929276
1410.00 -14.50386150   2.47970491
1412.00 -14.55517387   2.49014577
1414.00 -14.60655377   2.50061537
1416.00 -14.65800118   2.51111374
1418.00 -14.70951607   2.52164093
1420.00 -14.76109842   2.53219695
1422.00 -14.81274821   2.54278186
1424.00 -14.86446543   2.55339568
1426.00 -14.91625004   2.56403846
1428.00 -14.96810202   2.57471022
1430.00 -15.02002137   2.58541101
1432.00 -15.07200805   2.59614086
1434.00 -15.12406203   2.60689980
1436.00 -15.17618332   2.61768787
1438.00 -15.22837186   2.62850511
1440.00 -15.28062766   2.63935155
1442.00 -15.33295068   2.65022723
1444.00 -15.38534091   2.66113218
1446.00 -15.43779832   2.67206644
1448.00 -15.49032289   2.68303005
1450.00 -15.54291460   2.69402303
1452.00 -15.59557342   2.70504543
1454.00 -15.64829934   2.71609728
1456.00 -15.70109234   2.72717862
1458.00 -15.75395239   2.73828948
1460.00 -15.80687946   2.74942989
1462.00 -15.85987355   2.76059990
1464.00 -15.91293462   2.77179953
1466.00 -15.96606265   2.78302883
1468.00 -16.01925763   2.79428782
1470.00 -16.07251953   2.80557655
1472.00 -16.12584832   2.81689505
1474.00 -16.17924399   2.82824335
1476.00 -16.23270652   2.83962149
1478.00 -16.28623588   2.85102950
1480.00 -16.33983205   2.86246743
1482.00 -16.39349500   2.87393530
1484.00 -16.44722472   2.88543315
1486.00 -16.50102119   2.89696101
1488.00 -16.55488437   2.90851892
1490.00 -16.60881426   2.92010692
1492.00 -16.66281082   2.93172504
1494.00 -16.71687404   2.94337332
1496.00 -16.77100388   2.95505178
1498.00 -16.82520034   2.96676048
1500.00 -16.87946339   2.97849943
1502.00 -16.93379300   2.99026867
1504.00 -16.98818915   3.00206825
1506.00 -17.04265183   3.01389819
1508.00 -17.09718100   3.02575854
1510.00 -17.15177665   3.03764931
1512.00 -17.20643875   3.04957056
1514.00 -17.26116728   3.06152232
1516.00 -17.31596222   3.07350461
1518.00 -17.37082354   3.08551747
1520.00 -17.42575123   3.09756095
1522.00 -17.48074526   3.10963507
1524.00 -17.53580560   3.12173987
1526.00 -17.59093224   3.13387538
1528.00 -17.64612516   3.14604164
1530.00 -17.70138432   3.15823868
1532.00 -17.75670971   3.17046654
1534.00 -17.81210130   3.18272525
1536.00 -17.86755907   3.19501485
1538.00 -17.92308300   3.20733537
1540.00 -17.97867307   3.21968685
1542.00 -18.03432925   3.23206931
1544.00 -18.09005152   3.24448280
1546.00 -18.14583986   3.25692735
1548.00 -18.20169424   3.26940300
1550.00 -18.25761465   3.28190977
1552.00 -18.31360105   3.29444771
1554.00 -18.36965343   3.30701684
1556.00 -18.42577175   3.31961721
1558.00 -18.48195601   3.33224884
1560.00 -18.53820618   3.34491177
1562.00 -18.59452223   3.35760603
1564.00 -18.65090413   3.37033167
1566.00 -18.70735188   3.38308871
1568.00 -18.76386544   3.39587718
1570.00 -18.82044479   3.40869713
1572.00 -18.87708990   3.42154859
1574.00 -18.93380076   3.43443158
1576.00 -18.99057735   3.44734615
1578.00 -19.04741963   3.46029233
1580.00 -19.10432758   3.47327015
1582.00 -19.16130119   3.48627965
1584.00 -19.21834042   3.49932086
1586.00 -19.27544526   3.51239381
1588.00 -19.33261568   3.52549855
1590.00 -19.38985165   3.53863509
1592.00 -19.44715316   3.55180349
1594.00 -19.50452018   3.56500377
1596.00 -19.56195269   3.57823596
1598.00 -19.61945067   3.59150010
1600.00 -19.67701408   3.60479622
1602.00 -19.73464291   3.61812436
1604.00 -19.79233713   3.63148456
1606.00 -19.85009673   3.64487683
1608.00 -19.90792167   3.65830123
1610.00 -19.96581193   3.67175778
1612.00 -20.02376749   3.68524652
1614.00 -20.08178833   3.69876747
1616.00 -20.13987442   3.71232068
1618.00 -20.19802573   3.72590618
1620.00 -20.25624225   3.73952400
1622.00 -20.31452395   3.75317417
1624.00 -20.37287081   3.76685674
1626.00 -20.43128280   3.78057172
1628.00 -20.48975990   3.79431916
1630.00 -20.54830208   3.80809910
1632.00 -20.60690932   3.82191155
1634.00 -20.66558161   3.83575656
1636.00 -20.72431890   3.84963417
1638.00 -20.78312119   3.86354439
1640.00 -20.84198844   3.87748728
1642.00 -20.90092063   3.89146285
1644.00 -20.95991774   3.90547115
1646.00 -21.01897974   3.91951221
1648.00 -21.07810661   3.93358606
1650.00 -21.13729833   3.94769273
1652.00 -21.19655487   3.96183227
1654.00 -21.25587621   3.97600469
1656.00 -21.31526232   3.99021004
1658.00 -21.37471318   4.00444834
1660.00 -21.43422876   4.01871964
1662.00 -21.49380905   4.03302397
1664.00 -21.55345401   4.04736135
1666.00 -21.61316362   4.06173182
1668.00 -21.67293786   4.07613541
1670.00 -21.73277670   4.09057217
1672.00 -21.79268013   4.10504211
1674.00 -21.85264810   4.11954528
1676.00 -21.91268061   4.13408171
1678.00 -21.97277763   4.14865142
1680.00 -22.03293912   4.16325446
1682.00 -22.09316508   4.17789086
1684.00 -22.15345546   4.19256064
1686.00 -22.21381026   4.20726385
1688.00 -22.27422944   4.22200051
1690.00 -22.33471298   4.23677066
1692.00 -22.39526085   4.25157433
1694.00 -22.45587303   4.26641155
1696.00 -22.51654950   4.28128236
1698.00 -22.57729024   4.29618679
1700.00 -22.63809520   4.31112488
1702.00 -22.69896438   4.32609665
1704.00 -22.75989775   4.34110213
1706.00 -22.82089528   4.35614137
1708.00 -22.88195695   4.37121439
1710.00 -22.94308273   4.38632123
1712.00 -23.00427260   4.40146192
1714.00 -23.06552653   4.41663649
1716.00 -23.12684450   4.43184497
1718.00 -23.18822649   4.44708740
1720.00 -23.24967247   4.46236382
1722.00 -23.31118241   4.47767424
1724.00 -23.37275629   4.49301871
1726.00 -23.43439408   4.50839725
1728.00 -23.49609577   4.52380991
1730.00 -23.55786131   4.53925671
1732.00 -23.61969070   4.55473768
1734.00 -23.68158391   4.57025286
1736.00 -23.74354090   4.58580228
1738.00 -23.80556166   4.60138598
1740.00 -23.86764616   4.61700398
1742.00 -23.92979437   4.63265631
1744.00 -23.99200628   4.64834302
1746.00 -24.05428185   4.66406412
1748.00 -24.11662105   4.67981967
1750.00 -24.17902388   4.69560967
1752.00 -24.24149029   4.71143418
1754.00 -24.30402026   4.72729322
1756.00 -24.36661378   4.74318682
1758.00 -24.42927081   4.75911501
1760.00 -24.49199132   4.77507784
1762.00 -24.55477530   4.79107532
1764.00 -24.61762272   4.80710749
1766.00 -24.68053355   4.82317439
1768.00 -24.74350777   4.83927605
1770.00 -24.80654535   4.85541249
1772.00 -24.86964626   4.87158375
1774.00 -24.93281049   4.88778987
1776.00 -24.99603800   4.90403087
1778.00 -25.05932877   4.92030678
1780.00 -25.12268278   4.93661764
1782.00 -25.18610000   4.95296349
1784.00 -25.24958040   4.96934434
1786.00 -25.31312396   4.98576024
1788.00 -25.37673065   5.00221121
1790.00 -25.44040045   5.01869729
1792.00 -25.50413333   5.03521851
1794.00 -25.56792927   5.05177491
1796.00 -25.63178823   5.06836650
1798.00 -25.69571020   5.08499333
1800.00 -25.75969516   5.10165542
1802.00 -25.82374306   5.11835281
1804.00 -25.88785389   5.13508553
1806.00 -25.95202763   5.15185362
1808.00 -26.01626424   5.16865709
1810.00 -26.08056370   5.18549599
1812.00 -26.14492598   5.20237035
1814.00 -26.20935107   5.21928019
1816.00 -26.27383893   5.23622555
1818.00 -26.33838953   5.25320646
1820.00 -26.40300286   5.27022296
1822.00 -26.46767888   5.28727507
1824.00 -26.53241758   5.30436282
1826.00 -26.59721891   5.32148625
1828.00 -26.66208287   5.33864538
1830.00 -26.72700941   5.35584026
1832.00 -26.79199852   5.37307091
1834.00 -26.85705017   5.39033735
1836.00 -26.92216434   5.40763963
1838.00 -26.98734099   5.42497778
1840.00 -27.05258011   5.44235182
1842.00 -27.11788166   5.45976178
1844.00 -27.18324562   5.47720771
1846.00 -27.24867196   5.49468962
1848.00 -27.31416067   5.51220756
1850.00 -27.37971170   5.52976154
1852.00 -27.44532504   5.54735161
1854.00 -27.51100065   5.56497779
1856.00 -27.57673852   5.58264012
1858.00 -27.64253862   5.60033862
1860.00 -27.70840091   5.61807333
1862.00 -27.77432538   5.63584427
1864.00 -27.84031200   5.65365149
1866.00 -27.90636074   5.67149500
1868.00 -27.97247157   5.68937484
1870.00 -28.03864448   5.70729105
1872.00 -28.10487942   5.72524365
1874.00 -28.17117638   5.74323267
1876.00 -28.23753533   5.76125814
1878.00 -28.30395624   5.77932010
1880.00 -28.37043909   5.79741858
1882.00 -28.43698385   5.81555360
1884.00 -28.50359049   5.83372520
1886.00 -28.57025899   5.85193340
1888.00 -28.63698932   5.87017825
1890.00 -28.70378146   5.88845976
1892.00 -28.77063537   5.90677797
1894.00 -28.83755103   5.92513291
1896.00 -28.90452842   5.94352462
1898.00 -28.97156750   5.96195311
1900.00 -29.03866826   5.98041843
1902.00 -29.10583066   5.99892060
1904.00 -29.17305468   6.01745965
1906.00 -29.24034029   6.03603561
1908.00 -29.30768746   6.05464852
1910.00 -29.37509617   6.07329841
1912.00 -29.44256639   6.09198530
1914.00 -29.51009810   6.11070922
1916.00 -29.57769126   6.12947021
1918.00 -29.64534585   6.14826829
1920.00 -29.71306185   6.16710350
1922.00 -29.78083922   6.18597587
1924.00 -29.84867795   6.20488542
1926.00 -29.91657799   6.22383219
1928.00 -29.98453933   6.24281621
1930.00 -30.05256195   6.26183750
1932.00 -30.12064580   6.28089610
1934.00 -30.18879087   6.29999204
1936.00 -30.25699713   6.31912534
1938.00 -30.32526454   6.33829605
1940.00 -30.39359310   6.35750418
1942.00 -30.46198276   6.37674977
1944.00 -30.53043350   6.39603284
1946.00 -30.59894529   6.41535344
1948.00 -30.66751811   6.43471158
1950.00 -30.73615193   6.45410730
1952.00 -30.80484672   6.47354062
1954.00 -30.87360245   6.49301159
1956.00 -30.94241911   6.51252022
1958.00 -31.01129665   6.53206655
1960.00 -31.08023505   6.55165060
1962.00 -31.14923430   6.57127242
1964.00 -31.21829435   6.59093201
1966.00 -31.28741518   6.61062943
1968.00 -31.35659676   6.63036469
1970.00 -31.42583908   6.65013782
1972.00 -31.49514209   6.66994887
1974.00 -31.56450577   6.68979784
1976.00 -31.63393010   6.70968478
1978.00 -31.70341505   6.72960972
1980.00 -31.77296059   6.74957268
1982.00 -31.84256669   6.76957369
1984.00 -31.91223332   6.78961278
1986.00 -31.98196046   6.80968999
1988.00 -32.05174809   6.82980534
1990.00 -32.12159616   6.84995886
1992.00 -32.19150467   6.87015058
1994.00 -32.26147357   6.89038053
1996.00 -32.33150284   6.91064874
1998.00 -32.40159245   6.93095524
2000.00 -32.47174238   6.95130006
2002.00 -32.54195259   6.97168323
2004.00 -32.61222307   6.99210477
2006.00 -32.68255378   7.01256472
2008.00 -32.75294469   7.03306310
2010.00 -32.82339578   7.05359995
2012.00 -32.89390703   7.07417529
2014.00 -32.96447839   7.09478915
2016.00 -33.03510985   7.11544157
2018.00 -33.10580137   7.13613256
2020.00 -33.17655293   7.15686217
2022.00 -33.24736450   7.17763042
2024.00 -33.31823606   7.19843733
2026.00 -33.38916757   7.21928294
2028.00 -33.46015901   7.24016728
2030.00 -33.53121035   7.26109037
2032.00 -33.60232156   7.28205225
2034.00 -33.67349262   7.30305294
2036.00 -33.74472349   7.32409247
2038.00 -33.81601415   7.34517088
2040.00 -33.88736457   7.36628818
2042.00 -33.95877473   7.38744441
2044.00 -34.03024459   7.40863960
2046.00 -34.10177412   7.42987377
2048.00 -34.17336330   7.45114696
2050.00 -34.24501211   7.47245919
2052.00 -34.31672051   7.49381050
2054.00 -34.38848847   7.51520090
2056.00 -34.46031596   7.53663044
2058.00 -34.53220297   7.55809913
2060.00 -34.60414946   7.57960701
2062.00 -34.67615540   7.60115410
2064.00 -34.74822076   7.62274044
2066.00 -34.82034552   7.64436605
2068.00 -34.89252965   7.66603096
2070.00 -34.96477312   7.68773520
2072.00 -35.03707590   7.70947880
2074.00 -35.10943796   7.73126178
2076.00 -35.18185928   7.75308418
2078.00 -35.25433982   7.77494603
2080.00 -35.32687956   7.79684734
2082.00 -35.39947848   7.81878815
2084.00 -35.47213653   7.84076849
2086.00 -35.54485370   7.86278839
2088.00 -35.61762996   7.88484787
2090.00 -35.69046527   7.90694696
2092.00 -35.76335961   7.92908569
2094.00 -35.83631296   7.95126410
2096.00 -35.90932527   7.97348220
2098.00 -35.98239653   7.99574002
2100.00 -36.05552670   8.01803760
2102.00 -36.12871576   8.04037496
2104.00 -36.20196368   8.06275213
2106.00 -36.27527043   8.08516914
2108.00 -36.34863598   8.10762601
2110.00 -36.42206030   8.13012277
2112.00 -36.49554337   8.15265946
2114.00 -36.56908515   8.17523609
2116.00 -36.64268563   8.19785271
2118.00 -36.71634476   8.22050933
2120.00 -36.79006252   8.24320598
2122.00 -36.86383888   8.26594269
2124.00 -36.93767381   8.28871949
2126.00 -37.01156729   8.31153640
2128.00 -37.08551929   8.33439346
2130.00 -37.15952977   8.35729069
2132.00 -37.23359871   8.38022812
2134.00 -37.30772608   8.40320578
2136.00 -37.38191185   8.42622369
2138.00 -37.45615600   8.44928189
2140.00 -37.53045849   8.47238039
2142.00 -37.60481929   8.49551924
2144.00 -37.67923838   8.51869844
2146.00 -37.75371572   8.54191804
2148.00 -37.82825130   8.56517806
2150.00 -37.90284507   8.58847853
2152.00 -37.97749702   8.61181947
2154.00 -38.05220710   8.63520092
2156.00 -38.12697530   8.65862289
2158.00 -38.20180159   8.68208542
2160.00 -38.27668593   8.70558854
2162.00 -38.35162829   8.72913226
2164.00 -38.42662866   8.75271663
2166.00 -38.50168699   8.77634166
2168.00 -38.57680326   8.80000739
2170.00 -38.65197745   8.82371383
2172.00 -38.72720951   8.84746103
2174.00 -38.80249943   8.87124900
2176.00 -38.87784717   8.89507777
2178.00 -38.95325270   8.91894737
2180.00 -39.02871600   8.94285783
2182.00 -39.10423704   8.96680917
2184.00 -39.17981579   8.99080142
2186.00 -39.25545221   9.01483461
2188.00 -39.33114628   9.03890876
2190.00 -39.40689797   9.06302390
2192.00 -39.48270726   9.08718007
2194.00 -39.55857410   9.11137727
2196.00 -39.63449848   9.13561556
2198.00 -39.71048036   9.15989493
2200.00 -39.78651971   9.18421544
2202.00 -39.86261651   9.20857710
2204.00 -39.93877073   9.23297993
2206.00 -40.01498233   9.25742398
2208.00 -40.09125129   9.28190925
2210.00 -40.16757758   9.30643579
2212.00 -40.24396117   9.33100361
2214.00 -40.32040202   9.35561275
2216.00 -40.39690012   9.38026322
2218.00 -40.47345542   9.40495506
2220.00 -40.55006791   9.42968830
2222.00 -40.62673755   9.45446295
2224.00 -40.70346431   9.47927905
2226.00 -40.78024817   9.50413662
2228.00 -40.85708908   9.52903569
2230.00 -40.93398704   9.55397628
2232.00 -41.01094199   9.57895843
2234.00 -41.08795393   9.60398215
2236.00 -41.16502281   9.62904748
2238.00 -41.24214860   9.65415444
2240.00 -41.31933129   9.67930306
2242.00 -41.39657083   9.70449336
2244.00 -41.47386719   9.72972537
2246.00 -41.55122036   9.75499911
2248.00 -41.62863029   9.78031462
2250.00 -41.70609697   9.80567192
2252.00 -41.78362035   9.83107103
2254.00 -41.86120042   9.85651198
2256.00 -41.93883713   9.88199479
2258.00 -42.01653047   9.90751950
2260.00 -42.09428039   9.93308613
2262.00 -42.17208688   9.95869471
2264.00 -42.24994990   9.98434525
2266.00 -42.32786942  10.01003779
2268.00 -42.40584541  10.03577236
2270.00 -42.48387785  10.06154897
2272.00 -42.56196670  10.08736766
2274.00 -42.64011193  10.11322845
2276.00 -42.71831352  10.13913136
2278.00 -42.79657143  10.16507643
2280.00 -42.87488563  10.19106367
2282.00 -42.95325610  10.21709312
2284.00 -43.03168280  10.24316480
2286.00 -43.11016571  10.26927874
2288.00 -43.18870479  10.29543495
2290.00 -43.26730001  10.32163347
2292.00 -43.34595135  10.34787432
2294.00 -43.42465878  10.37415754
2296.00 -43.50342226  10.40048313
2298.00 -43.58224176  10.42685114
2300.00 -43.66111726  10.45326157
2302.00 -43.74004873  10.47971447
2304.00 -43.81903613  10.50620986
2306.00 -43.89807944  10.53274775
2308.00 -43.97717862  10.55932819
2310.00 -44.05633365  10.58595118
2312.00 -44.13554449  10.61261676
2314.00 -44.21481112  10.63932495
2316.00 -44.29413350  10.66607579
2318.00 -44.37351161  10.69286928
2320.00 -44.45294541  10.71970547
2322.00 -44.53243488  10.74658436
2324.00 -44.61197998  10.77350600
2326.00 -44.69158069  10.80047040
2328.00 -44.77123697  10.82747759
2330.00 -44.85094880  10.85452760
2332.00 -44.93071614  10.88162045
2334.00 -45.01053897  10.90875616
2336.00 -45.09041725  10.93593476
2338.00 -45.17035095  10.96315627
2340.00 -45.25034005  10.99042073
2342.00 -45.33038451  11.01772815
2344.00 -45.41048431  11.04507856
2346.00 -45.49063940  11.07247198
2348.00 -45.57084978  11.09990845
2350.00 -45.65111539  11.12738798
2352.00 -45.73143621  11.15491060
2354.00 -45.81181222  11.18247633
2356.00 -45.89224338  11.21008521
2358.00 -45.97272966  11.23773725
2360.00 -46.05327103  11.26543247
2362.00 -46.13386746  11.29317091
2364.00 -46.21451892  11.32095259
2366.00 -46.29522539  11.34877753
2368.00 -46.37598682  11.37664576
2370.00 -46.45680319  11.40455730
2372.00 -46.53767447  11.43251218
2374.00 -46.61860063  11.46051042
2376.00 -46.69958163  11.48855205
2378.00 -46.78061745  11.51663708
2380.00 -46.86170806  11.54476556
2382.00 -46.94285343  11.57293749
2384.00 -47.02405352  11.60115290
2386.00 -47.10530831  11.62941183
2388.00 -47.18661776  11.65771428
2390.00 -47.26798185  11.68606030
2392.00 -47.34940054  11.71444989
2394.00 -47.43087381  11.74288309
2396.00 -47.51240161  11.77135992
2398.00 -47.59398393  11.79988041
2400.00 -47.67562073  11.82844457
2402.00 -47.75731198  11.85705244
2404.00 -47.83905766  11.88570403
2406.00 -47.92085772  11.91439938
2408.00 -48.00271214  11.94313850
2410.00 -48.08462089  11.97192142
2412.00 -48.16658394  12.00074816
2414.00 -48.24860125  12.02961875
2416.00 -48.33067280  12.05853321
2418.00 -48.41279856  12.08749157
2420.00 -48.49497849  12.11649385
2422.00 -48.57721257  12.14554007
2424.00 -48.65950076  12.17463026
2426.00 -48.74184303  12.20376444
2428.00 -48.82423936  12.23294264
2430.00 -48.90668970  12.26216487
2432.00 -48.98919404  12.29143117
2434.00 -49.07175234  12.32074155
2436.00 -49.15436456  12.35009605
2438.00 -49.23703069  12.37949467
2440.00 -49.31975068  12.40893746
2442.00 -49.40252451  12.43842443
2444.00 -49.48535214  12.46795560
2446.00 -49.56823355  12.49753101
2448.00 -49.65116870  12.52715066
2450.00 -49.73415756  12.55681459
2452.00 -49.81720011  12.58652282
2454.00 -49.90029630  12.61627537
2456.00 -49.98344612  12.64607228
2458.00 -50.06664953  12.67591355
2460.00 -50.14990649  12.70579921
2462.00 -50.23321699  12.73572929
2464.00 -50.31658097  12.76570381
2466.00 -50.39999843  12.79572280
2468.00 -50.48346932  12.82578627
2470.00 -50.56699361  12.85589425
2472.00 -50.65057127  12.88604677
2474.00 -50.73420228  12.91624384
2476.00 -50.81788659  12.94648550
2478.00 -50.90162419  12.97677175
2480.00 -50.98541503  13.00710264
2482.00 -51.06925909  13.03747817
2484.00 -51.15315634  13.06789838
2486.00 -51.23710674  13.09836328
2488.00 -51.32111026  13.12887290
2490.00 -51.40516688  13.15942727
2492.00 -51.48927656  13.19002639
2494.00 -51.57343926  13.22067031
2496.00 -51.65765497  13.25135904
2498.00 -51.74192365  13.28209260
2500.00 -51.82624526  13.31287102
2502.00 -51.91061978  13.34369432
2504.00 -51.99504717  13.37456252
2506.00 -52.07952741  13.40547565
2508.00 -52.16406045  13.43643373
2510.00 -52.24864628  13.46743678
2512.00 -52.33328486  13.49848482
2514.00 -52.41797616  13.52957788
2516.00 -52.50272014  13.56071597
2518.00 -52.58751678  13.59189913
2520.00 -52.67236604  13.62312738
2522.00 -52.75726790  13.65440073
2524.00 -52.84222232  13.68571921
2526.00 -52.92722926  13.71708285
2528.00 -53.01228871  13.74849166
2530.00 -53.09740063  13.77994566
2532.00 -53.18256498  13.81144489
2534.00 -53.26778174  13.84298936
2536.00 -53.35305087  13.87457910
2538.00 -53.43837234  13.90621412
2540.00 -53.52374612  13.93789445
2542.00 -53.60917218  13.96962012
2544.00 -53.69465050  14.00139113
2546.00 -53.78018102  14.03320753
2548.00 -53.86576374  14.06506933
2550.00 -53.95139860  14.09697654
2552.00 -54.03708559  14.12892920
2554.00 -54.12282467  14.16092733
2556.00 -54.20861581  14.19297094
2558.00 -54.29445897  14.22506007
2560.00 -54.38035414  14.25719472
2562.00 -54.46630126  14.28937493
2564.00 -54.55230033  14.32160072
2566.00 -54.63835129  14.35387211
2568.00 -54.72445412  14.38618911
2570.00 -54.81060879  14.41855176
2572.00 -54.89681527  14.45096008
2574.00 -54.98307352  14.48341408
2576.00 -55.06938352  14.51591378
2578.00 -55.15574523  14.54845922
2580.00 -55.24215862  14.58105041
2582.00 -55.32862366  14.61368738
2584.00 -55.41514032  14.64637014
2586.00 -55.50170856  14.67909871
2588.00 -55.58832836  14.71187313
2590.00 -55.67499968  14.74469341
2592.00 -55.76172249  14.77755957
2594.00 -55.84849675  14.81047163
2596.00 -55.93532245  14.84342962
2598.00 -56.02219954  14.87643356
2600.00 -56.10912800  14.90948347
2602.00 -56.19610779  14.94257937
2604.00 -56.28313888  14.97572128
2606.00 -56.37022124  15.00890922
2608.00 -56.45735483  15.04214322
2610.00 -56.54453963  15.07542330
2612.00 -56.63177560  15.10874947
2614.00 -56.71906272  15.14212176
2616.00 -56.80640095  15.17554020
2618.00 -56.89379025  15.20900479
2620.00 -56.98123060  15.24251557
2622.00 -57.06872197  15.27607256
2624.00 -57.15626431  15.30967577
2626.00 -57.24385761  15.34332523
2628.00 -57.33150183  15.37702096
2630.00 -57.41919693  15.41076297
2632.00 -57.50694289  15.44455130
2634.00 -57.59473968  15.47838596
2636.00 -57.68258725  15.51226698
2638.00 -57.77048559  15.54619436
2640.00 -57.85843465  15.58016815
2642.00 -57.94643441  15.61418834
2644.00 -58.03448483  15.64825498
2646.00 -58.12258589  15.68236808
2648.00 -58.21073754  15.71652765
2650.00 -58.29893977  15.75073373
2652.00 -58.38719253  15.78498632
2654.00 -58.47549579  15.81928546
2656.00 -58.56384953  15.85363116
2658.00 -58.65225370  15.88802344
2660.00 -58.74070829  15.92246233
2662.00 -58.82921325  15.95694785
2664.00 -58.91776855  15.99148001
2666.00 -59.00637417  16.02605883
2668.00 -59.09503007  16.06068435
2670.00 -59.18373621  16.09535657
2672.00 -59.27249257  16.13007552
2674.00 -59.36129912  16.16484122
2676.00 -59.45015582  16.19965369
2678.00 -59.53906264  16.23451294
2680.00 -59.62801954  16.26941902
2682.00 -59.71702650  16.30437192
2684.00 -59.80608349  16.33937167
2686.00 -59.89519047  16.37441830
2688.00 -59.98434740  16.40951181
2690.00 -60.07355427  16.44465225
2692.00 -60.16281102  16.47983961
2694.00 -60.25211765  16.51507393
2696.00 -60.34147410  16.55035522
2698.00 -60.43088035  16.58568351
2700.00 -60.52033637  16.62105881
2702.00 -60.60984212  16.65648114
2704.00 -60.69939758  16.69195054
2706.00 -60.78900270  16.72746700
2708.00 -60.87865746  16.76303056
2710.00 -60.96836183  16.79864124
2712.00 -61.05811577  16.83429905
2714.00 -61.14791926  16.87000402
2716.00 -61.23777225  16.90575616
2718.00 -61.32767472  16.94155550
2720.00 -61.41762663  16.97740206
2722.00 -61.50762795  17.01329585
2724.00 -61.59767866  17.04923690
2726.00 -61.68777871  17.08522522
2728.00 -61.77792808  17.12126083
2730.00 -61.86812673  17.15734377
2732.00 -61.95837463  17.19347403
2734.00 -62.04867175  17.22965165
2736.00 -62.13901805  17.26587665
2738.00 -62.22941351  17.30214904
2740.00 -62.31985809  17.33846884
2742.00 -62.41035176  17.37483608
2744.00 -62.50089449  17.41125077
2746.00 -62.59148624  17.44771294
2748.00 -62.68212699  17.48422259
2750.00 -62.77281669  17.52077976
2752.00 -62.86355532  17.55738446
2754.00 -62.95434284  17.59403672
2756.00 -63.04517923  17.63073654
2758.00 -63.13606445  17.66748395
2760.00 -63.22699846  17.70427897
2762.00 -63.31798124  17.74112162
2764.00 -63.40901275  17.77801192
2766.00 -63.50009297  17.81494989
2768.00 -63.59122185  17.85193555
2770.00 -63.68239936  17.88896891
2772.00 -63.77362548  17.92605000
2774.00 -63.86490017  17.96317883
2776.00 -63.95622340  18.00035543
2778.00 -64.04759513  18.03757981
2780.00 -64.13901534  18.07485199
2782.00 -64.23048399  18.11217199
2784.00 -64.32200104  18.14953984
2786.00 -64.41356647  18.18695554
2788.00 -64.50518025  18.22441913
2790.00 -64.59684233  18.26193061
2792.00 -64.68855269  18.29949001
2794.00 -64.78031130  18.33709735
2796.00 -64.87211812  18.37475264
2798.00 -64.96397312  18.41245590
2800.00 -65.05587627  18.45020716
2802.00 -65.14782753  18.48800643
2804.00 -65.23982687  18.52585373
2806.00 -65.33187427  18.56374908
2808.00 -65.42396968  18.60169250
2810.00 -65.51611308  18.63968401
2812.00 -65.60830443  18.67772362
2814.00 -65.70054370  18.71581136
2816.00 -65.79283086  18.75394724
2818.00 -65.88516587  18.79213128
2820.00 -65.97754870  18.83036350
2822.00 -66.06997932  18.86864392
2824.00 -66.16245770  18.90697256
2826.00 -66.25498380  18.94534944
2828.00 -66.34755759  18.98377457
2830.00 -66.44017904  19.02224797
2832.00 -66.53284812  19.06076967
2834.00 -66.62556479  19.09933967
2836.00 -66.71832902  19.13795801
2838.00 -66.81114078  19.17662469
2840.00 -66.90400003  19.21533974
2842.00 -66.99690674  19.25410317
2844.00 -67.08986089  19.29291500
2846.00 -67.18286243  19.33177526
2848.00 -67.27591133  19.37068395
2850.00 -67.36900757  19.40964110
2852.00 -67.46215110  19.44864673
2854.00 -67.55534190  19.48770085
2856.00 -67.64857994  19.52680348
2858.00 -67.74186517  19.56595464
2860.00 -67.83519757  19.60515434
2862.00 -67.92857711  19.64440262
2864.00 -68.02200374  19.68369948
2866.00 -68.11547745  19.72304494
2868.00 -68.20899819  19.76243902
2870.00 -68.30256594  19.80188173
2872.00 -68.39618066  19.84137311
2874.00 -68.48984231  19.88091316
2876.00 -68.58355087  19.92050189
2878.00 -68.67730630  19.96013934
2880.00 -68.77110857  19.99982552
2882.00 -68.86495765  20.03956044
2884.00 -68.95885350  20.07934412
2886.00 -69.05279610  20.11917659
2888.00 -69.14678540  20.15905785
2890.00 -69.24082137  20.19898793
2892.00 -69.33490399  20.23896685
2894.00 -69.42903322  20.27899461
2896.00 -69.52320902  20.31907125
2898.00 -69.61743137  20.35919677
2900.00 -69.71170023  20.39937119
2902.00 -69.80601556  20.43959454
2904.00 -69.90037734  20.47986683
2906.00 -69.99478553  20.52018807
2908.00 -70.08924011  20.56055829
2910.00 -70.18374102  20.60097750
2912.00 -70.27828825  20.64144571
2914.00 -70.37288177  20.68196296
2916.00 -70.46752152  20.72252925
2918.00 -70.56220750  20.76314460
2920.00 -70.65693965  20.80380903
2922.00 -70.75171795  20.84452255
2924.00 -70.84654237  20.88528519
2926.00 -70.94141287  20.92609696
2928.00 -71.03632942  20.96695787
2930.00 -71.13129199  21.00786795
2932.00 -71.22630054  21.04882721
2934.00 -71.32135504  21.08983567
2936.00 -71.41645545  21.13089335
2938.00 -71.51160176  21.17200026
2940.00 -71.60679391  21.21315642
2942.00 -71.70203188  21.25436185
2944.00 -71.79731564  21.29561656
2946.00 -71.89264515  21.33692057
2948.00 -71.98802038  21.37827390
2950.00 -72.08344129  21.41967656
2952.00 -72.17890786  21.46112858
2954.00 -72.27442005  21.50262996
2956.00 -72.36997783  21.54418073
2958.00 -72.46558116  21.58578090
2960.00 -72.56123001  21.62743050
2962.00 -72.65692435  21.66912952
2964.00 -72.75266414  21.71087800
2966.00 -72.84844936  21.75267595
2968.00 -72.94427997  21.79452338
2970.00 -73.04015593  21.83642032
2972.00 -73.13607721  21.87836677
2974.00 -73.23204378  21.92036276
2976.00 -73.32805561  21.96240831
2978.00 -73.42411266  22.00450342
2980.00 -73.52021490  22.04664811
2982.00 -73.61636230  22.08884241
2984.00 -73.71255483  22.13108633
2986.00 -73.80879244  22.17337988
2988.00 -73.90507511  22.21572308
2990.00 -74.00140281  22.25811595
2992.00 -74.09777549  22.30055850
2994.00 -74.19419314  22.34305075
2996.00 -74.29065571  22.38559272
2998.00 -74.38716317  22.42818442
3000.00 -74.48371549  22.47082587
3002.00 -74.58031264  22.51351708
3004.00 -74.67695458  22.55625808
3006.00 -74.77364127  22.59904887
3008.00 -74.87037270  22.64188947
3010.00 -74.96714881  22.68477991
3012.00 -75.06396959  22.72772019
3014.00 -75.16083499  22.77071033
3016.00 -75.25774498  22.81375035
3018.00 -75.35469954  22.85684026
3020.00 -75.45169862  22.89998008
3022.00 -75.54874220  22.94316983
3024.00 -75.64583023  22.98640952
3026.00 -75.74296269  23.02969916
3028.00 -75.84013955  23.07303878
3030.00 -75.93736077  23.11642839
3032.00 -76.03462631  23.15986800
3034.00 -76.13193615  23.20335763
3036.00 -76.22929025  23.24689730
3038.00 -76.32668858  23.29048702
3040.00 -76.42413110  23.33412681
3042.00 -76.52161778  23.37781668
3044.00 -76.61914859  23.42155665
3046.00 -76.71672349  23.46534674
3048.00 -76.81434246  23.50918695
3050.00 -76.91200545  23.55307731
3052.00 -77.00971244  23.59701783
3054.00 -77.10746339  23.64100853
3056.00 -77.20525827  23.68504942
3058.00 -77.30309704  23.72914052
3060.00 -77.40097967  23.77328184
3062.00 -77.49890614  23.81747340
3064.00 -77.59687639  23.86171522
3066.00 -77.69489041  23.90600730
3068.00 -77.79294816  23.95034967
3070.00 -77.89104960  23.99474234
3072.00 -77.98919471  24.03918532
3074.00 -78.08738344  24.08367863
3076.00 -78.18561577  24.12822229
3078.00 -78.28389166  24.17281631
3080.00 -78.38221107  24.21746071
3082.00 -78.48057398  24.26215549
3084.00 -78.57898036  24.30690069
3086.00 -78.67743016  24.35169630
3088.00 -78.77592336  24.39654235
3090.00 -78.87445992  24.44143885
3092.00 -78.97303980  24.48638582
3094.00 -79.07166298  24.53138327
3096.00 -79.17032943  24.57643122
3098.00 -79.26903910  24.62152968
3100.00 -79.36779197  24.66667866
3102.00 -79.46658799  24.71187818
3104.00 -79.56542715  24.75712826
3106.00 -79.66430940  24.80242891
3108.00 -79.76323471  24.84778015
3110.00 -79.86220305  24.89318199
3112.00 -79.96121438  24.93863444
3114.00 -80.06026868  24.98413752
3116.00 -80.15936590  25.02969125
3118.00 -80.25850601  25.07529563
3120.00 -80.35768899  25.12095069
3122.00 -80.45691480  25.16665644
3124.00 -80.55618339  25.21241288
3126.00 -80.65549475  25.25822005
3128.00 -80.75484884  25.30407795
3130.00 -80.85424562  25.34998660
3132.00 -80.95368506  25.39594600
3134.00 -81.05316713  25.44195618
3136.00 -81.15269179  25.48801715
3138.00 -81.25225901  25.53412893
3140.00 -81.35186875  25.58029152
3142.00 -81.45152099  25.62650495
3144.00 -81.55121569  25.67276922
3146.00 -81.65095282  25.71908436
3148.00 -81.75073234  25.76545037
3150.00 -81.85055422  25.81186727
3152.00 -81.95041842  25.85833508
3154.00 -82.05032492  25.90485380
3156.00 -82.15027367  25.95142346
3158.00 -82.25026465  25.99804406
3160.00 -82.35029783  26.04471562
3162.00 -82.45037316  26.09143816
3164.00 -82.55049061  26.13821169
3166.00 -82.65065016  26.18503622
3168.00 -82.75085177  26.23191177
3170.00 -82.85109540  26.27883834
3172.00 -82.95138102  26.32581597
3174.00 -83.05170860  26.37284465
3176.00 -83.15207810  26.41992440
3178.00 -83.25248950  26.46705524
3180.00 -83.35294275  26.51423718
3182.00 -83.45343782  26.56147024
3184.00 -83.55397469  26.60875442
3186.00 -83.65455331  26.65608975
3188.00 -83.75517365  26.70347623
3190.00 -83.85583569  26.75091388
3192.00 -83.95653938  26.79840271
3194.00 -84.05728469  26.84594274
3196.00 -84.15807159  26.89353398
3198.00 -84.25890005  26.94117644
3200.00 -84.35977003  26.98887014
3202.00 -84.46068150  27.03661509
3204.00 -84.56163442  27.08441130
3206.00 -84.66262877  27.13225880
3208.00 -84.76366450  27.18015758
3210.00 -84.86474159  27.22810767
3212.00 -84.96585999  27.27610908
3214.00 -85.06701969  27.32416182
3216.00 -85.16822064  27.37226590
3218.00 -85.26946281  27.42042134
3220.00 -85.37074616  27.46862816
3222.00 -85.47207067  27.51688635
3224.00 -85.57343630  27.56519595
3226.00 -85.67484302  27.61355696
3228.00 -85.77629078  27.66196939
3230.00 -85.87777957  27.71043326
3232.00 -85.97930934  27.75894858
3234.00 -86.08088007  27.80751537
3236.00 -86.18249171  27.85613363
3238.00 -86.28414424  27.90480338
3240.00 -86.38583761  27.95352464
3242.00 -86.48757181  28.00229741
3244.00 -86.58934679  28.05112171
3246.00 -86.69116252  28.09999756
3248.00 -86.79301897  28.14892495
3250.00 -86.89491610  28.19790392
3252.00 -86.99685388  28.24693447
3254.00 -87.09883227  28.29601661
3256.00 -87.20085125  28.34515036
3258.00 -87.30291078  28.39433573
3260.00 -87.40501082  28.44357273
3262.00 -87.50715135  28.49286137
3264.00 -87.60933232  28.54220168
3266.00 -87.71155371  28.59159365
3268.00 -87.81381548  28.64103731
3270.00 -87.91611760  28.69053266
3272.00 -88.01846003  28.74007972
3274.00 -88.12084274  28.78967851
3276.00 -88.22326570  28.83932902
3278.00 -88.32572887  28.88903129
3280.00 -88.42823222  28.93878531
3282.00 -88.53077571  28.98859110
3284.00 -88.63335932  29.03844868
3286.00 -88.73598301  29.08835805
3288.00 -88.83864674  29.13831923
3290.00 -88.94135049  29.18833223
3292.00 -89.04409421  29.23839707
3294.00 -89.14687788  29.28851375
3296.00 -89.24970145  29.33868229
3298.00 -89.35256491  29.38890270
3300.00 -89.45546821  29.43917499
3302.00 -89.55841132  29.48949918
3304.00 -89.66139420  29.53987527
3306.00 -89.76441683  29.59030329
3308.00 -89.86747916  29.64078323
3310.00 -89.97058118  29.69131512
3312.00 -90.07372283  29.74189897
3314.00 -90.17690409  29.79253478
3316.00 -90.28012493  29.84322257
3318.00 -90.38338531  29.89396235
3320.00 -90.48668519  29.94475414
3322.00 -90.59002455  29.99559794
3324.00 -90.69340335  30.04649377
3326.00 -90.79682155  30.09744165
3328.00 -90.90027913  30.14844157
3330.00 -91.00377605  30.19949355
3332.00 -91.10731227  30.25059761
3334.00 -91.21088777  30.30175376
3336.00 -91.31450250  30.35296201
3338.00 -91.41815644  30.40422237
3340.00 -91.52184955  30.45553485
3342.00 -91.62558180  30.50689946
3344.00 -91.72935315  30.55831622
3346.00 -91.83316357  30.60978514
3348.00 -91.93701303  30.66130623
3350.00 -92.04090149  30.71287950
3352.00 -92.14482892  30.76450496
3354.00 -92.24879529  30.81618262
3356.00 -92.35280056  30.86791250
3358.00 -92.45684469  30.91969461
3360.00 -92.56092767  30.97152895
3362.00 -92.66504944  31.02341555
3364.00 -92.76920998  31.07535440
3366.00 -92.87340925  31.12734553
3368.00 -92.97764723  31.17938895
3370.00 -93.08192387  31.23148466
3372.00 -93.18623915  31.28363267
3374.00 -93.29059302  31.33583301
3376.00 -93.39498546  31.38808567
3378.00 -93.49941643  31.44039067
3380.00 -93.60388590  31.49274803
3382.00 -93.70839384  31.54515775
3384.00 -93.81294021  31.59761984
3386.00 -93.91752497  31.65013432
3388.00 -94.02214810  31.70270120
3390.00 -94.12680956  31.75532048
3392.00 -94.23150931  31.80799218
3394.00 -94.33624733  31.86071631
3396.00 -94.44102358  31.91349289
3398.00 -94.54583802  31.96632191
3400.00 -94.65069063  32.01920340
3402.00 -94.75558136  32.07213736
3404.00 -94.86051019  32.12512381
3406.00 -94.96547708  32.17816275
3408.00 -95.07048200  32.23125419
3410.00 -95.17552491  32.28439816
3412.00 -95.28060579  32.33759465
3414.00 -95.38572458  32.39084368
3416.00 -95.49088128  32.44414527
3418.00 -95.59607583  32.49749941
3420.00 -95.70130821  32.55090612
3422.00 -95.80657837  32.60436542
3424.00 -95.91188630  32.65787730
3426.00 -96.01723196  32.71144179
3428.00 -96.12261530  32.76505890
3430.00 -96.22803630  32.81872863
3432.00 -96.33349493  32.87245099
3434.00 -96.43899114  32.92622600
3436.00 -96.54452491  32.98005366
3438.00 -96.65009621  33.03393399
3440.00 -96.75570500  33.08786700
3442.00 -96.86135124  33.14185269
3444.00 -96.96703490  33.19589109
3446.00 -97.07275595  33.24998219
3448.00 -97.17851436  33.30412601
3450.00 -97.28431008  33.35832255
3452.00 -97.39014310  33.41257184
3454.00 -97.49601337  33.46687388
3456.00 -97.60192086  33.52122867
3458.00 -97.70786553  33.57563624
3460.00 -97.81384736  33.63009658
3462.00 -97.91986631  33.68460972
3464.00 -98.02592235  33.73917565
3466.00 -98.13201543  33.79379440
3468.00 -98.23814554  33.84846597
3470.00 -98.34431263  33.90319037
3472.00 -98.45051667  33.95796760
3474.00 -98.55675763  34.01279769
3476.00 -98.66303547  34.06768064
3478.00 -98.76935017  34.12261646
3480.00 -98.87570168  34.17760516
3482.00 -98.98208997  34.23264675
3484.00 -99.08851502  34.28774125
3486.00 -99.19497678  34.34288865
3488.00 -99.30147522  34.39808897
3490.00 -99.40801031  34.45334222
3492.00 -99.51458201  34.50864841
3494.00 -99.62119030  34.56400756
3496.00 -99.72783514  34.61941966
3498.00 -99.83451649  34.67488473
3500.00 -99.94123432  34.73040277
3502.00 -100.04798859  34.78597381
3504.00 -100.15477929  34.84159785
3506.00 -100.26160636  34.89727489
3508.00 -100.36846977  34.95300495
3510.00 -100.47536950  35.00878804
3512.00 -100.58230551  35.06462416
3514.00 -100.68927777  35.12051333
3516.00 -100.79628623  35.17645555
3518.00 -100.90333087  35.23245084
3520.00 -101.01041166  35.28849920
3522.00 -101.11752856  35.34460065
3524.00 -101.22468154  35.40075519
3526.00 -101.33187056  35.45696283
3528.00 -101.43909559  35.51322358
3530.00 -101.54635660  35.56953746
3532.00 -101.65365355  35.62590446
3534.00 -101.76098641  35.68232461
3536.00 -101.86835515  35.73879790
3538.00 -101.97575973  35.79532436
3540.00 -102.08320011  35.85190397
3542.00 -102.19067628  35.90853677
3544.00 -102.29818818  35.96522275
3546.00 -102.40573579  36.02196193
3548.00 -102.51331908  36.07875431
3550.00 -102.62093800  36.13559990
3552.00 -102.72859254  36.19249871
3554.00 -102.83628264  36.24945076
3556.00 -102.94400829  36.30645604
3558.00 -103.05176945  36.36351458
3560.00 -103.15956607  36.42062637
3562.00 -103.26739814  36.47779143
3564.00 -103.37526561  36.53500976
3566.00 -103.48316846  36.59228138
3568.00 -103.59110664  36.64960629
3570.00 -103.69908013  36.70698450
3572.00 -103.80708889  36.76441603
3574.00 -103.91513288  36.82190087
3576.00 -104.02321209  36.87943904
3578.00 -104.13132646  36.93703055
3580.00 -104.23947597  36.99467541
3582.00 -104.34766058  37.05237362
3584.00 -104.45588027  37.11012519
3586.00 -104.56413499  37.16793013
3588.00 -104.67242471  37.22578846
3590.00 -104.78074941  37.28370017
3592.00 -104.88910903  37.34166528
3594.00 -104.99750357  37.39968380
3596.00 -105.10593297  37.45775573
3598.00 -105.21439720  37.51588109
3600.00 -105.32289624  37.57405987
3602.00 -105.43143005  37.63229209
3604.00 -105.53999859  37.69057777
3606.00 -105.64860183  37.74891690
3608.00 -105.75723974  37.80730949
3610.00 -105.86591229  37.86575556
3612.00 -105.97461943  37.92425511
3614.00 -106.08336114  37.98280814
3616.00 -106.19213739  38.04141468
3618.00 -106.30094814  38.10007472
3620.00 -106.40979335  38.15878828
3622.00 -106.51867300  38.21755536
3624.00 -106.62758704  38.27637597
3626.00 -106.73653545  38.33525011
3628.00 -106.84551820  38.39417781
3630.00 -106.95453524  38.45315906
3632.00 -107.06358655  38.51219387
3634.00 -107.17267209  38.57128225
3636.00 -107.28179183  38.63042422
3638.00 -107.39094574  38.68961976
3640.00 -107.50013378  38.74886891
3642.00 -107.60935591  38.80817165
3644.00 -107.71861211  38.86752801
3646.00 -107.82790234  38.92693799
3648.00 -107.93722657  38.98640159
3650.00 -108.04658477  39.04591882
3652.00 -108.15597689  39.10548970
3654.00 -108.26540291  39.16511423
3656.00 -108.37486280  39.22479241
3658.00 -108.48435651  39.28452426
3660.00 -108.59388403  39.34430979
3662.00 -108.70344530  39.40414899
3664.00 -108.81304031  39.46404188
3666.00 -108.92266901  39.52398847
3668.00 -109.03233138  39.58398876
3670.00 -109.14202737  39.64404276
3672.00 -109.25175697  39.70415048
3674.00 -109.36152012  39.76431193
3676.00 -109.47131681  39.82452711
3678.00 -109.58114699  39.88479603
3680.00 -109.69101063  39.94511870
3682.00 -109.80090770  40.00549512
3684.00 -109.91083817  40.06592531
3686.00 -110.02080200  40.12640927
3688.00 -110.13079916  40.18694701
3690.00 -110.24082961  40.24753853
3692.00 -110.35089333  40.30818384
3694.00 -110.46099027  40.36888296
3696.00 -110.57112041  40.42963588
3698.00 -110.68128371  40.49044261
3700.00 -110.79148014  40.55130317
3702.00 -110.90170967  40.61221756
3704.00 -111.01197226  40.67318578
3706.00 -111.12226787  40.73420785
3708.00 -111.23259648  40.79528376
3710.00 -111.34295805  40.85641353
3712.00 -111.45335255  40.91759717
3714.00 -111.56377994  40.97883468
3716.00 -111.67424020  41.04012606
3718.00 -111.78473328  41.10147134
3720.00 -111.89525916  41.16287050
3722.00 -112.00581780  41.22432356
3724.00 -112.11640916  41.28583053
3726.00 -112.22703322  41.34739141
3728.00 -112.33768995  41.40900622
3730.00 -112.44837930  41.47067495
3732.00 -112.55910124  41.53239761
3734.00 -112.66985574  41.59417421
3736.00 -112.78064278  41.65600476
3738.00 -112.89146230  41.71788926
3740.00 -113.00231429  41.77982773
3742.00 -113.11319871  41.84182016
3744.00 -113.22411552  41.90386656
3746.00 -113.33506469  41.96596695
3748.00 -113.44604619  42.02812132
3750.00 -113.55705998  42.09032969
3752.00 -113.66810604  42.15259206
3754.00 -113.77918432  42.21490843
3756.00 -113.89029479  42.27727882
3758.00 -114.00143743  42.33970322
3760.00 -114.11261220  42.40218166
3762.00 -114.22381906  42.46471412
3764.00 -114.33505798  42.52730063
3766.00 -114.44632893  42.58994118
3768.00 -114.55763187  42.65263578
3770.00 -114.66896678  42.71538444
3772.00 -114.78033361  42.77818717
3774.00 -114.89173234  42.84104397
3776.00 -115.00316293  42.90395484
3778.00 -115.11462535  42.96691980
3780.00 -115.22611956  43.02993885
3782.00 -115.33764554  43.09301199
3784.00 -115.44920324  43.15613924
3786.00 -115.56079264  43.21932059
3788.00 -115.67241370  43.28255606
3790.00 -115.78406639  43.34584565
3792.00 -115.89575068  43.40918937
3794.00 -116.00746653  43.47258721
3796.00 -116.11921390  43.53603920
3798.00 -116.23099278  43.59954533
3800.00 -116.34280311  43.66310562
3802.00 -116.45464488  43.72672006
3804.00 -116.56651804  43.79038866
3806.00 -116.67842257  43.85411143
3808.00 -116.79035842  43.91788838
3810.00 -116.90232557  43.98171950
3812.00 -117.01432399  44.04560482
3814.00 -117.12635363  44.10954432
3816.00 -117.23841447  44.17353802
3818.00 -117.35050648  44.23758593
3820.00 -117.46262961  44.30168805
3822.00 -117.57478385  44.36584438
3824.00 -117.68696915  44.43005493
3826.00 -117.79918548  44.49431971
3828.00 -117.91143280  44.55863872
3830.00 -118.02371110  44.62301197
3832.00 -118.13602032  44.68743946
3834.00 -118.24836044  44.75192120
3836.00 -118.36073143  44.81645720
3838.00 -118.47313325  44.88104745
3840.00 -118.58556587  44.94569197
3842.00 -118.69802926  45.01039077
3844.00 -118.81052338  45.07514384
3846.00 -118.92304820  45.13995119
3848.00 -119.03560368  45.20481283
3850.00 -119.14818980  45.26972876
3852.00 -119.26080652  45.33469899
3854.00 -119.37345380  45.39972353
3856.00 -119.48613163  45.46480237
3858.00 -119.59883995  45.52993553
3860.00 -119.71157874  45.59512300
3862.00 -119.82434796  45.66036481
3864.00 -119.93714759  45.72566094
3866.00 -120.04997758  45.79101140
3868.00 -120.16283791  45.85641621
3870.00 -120.27572855  45.92187537
3872.00 -120.38864945  45.98738887
3874.00 -120.50160059  46.05295673
3876.00 -120.61458194  46.11857895
3878.00 -120.72759345  46.18425554
3880.00 -120.84063510  46.24998650
3882.00 -120.95370686  46.31577183
3884.00 -121.06680868  46.38161155
3886.00 -121.17994055  46.44750565
3888.00 -121.29310242  46.51345414
3890.00 -121.40629426  46.57945703
3892.00 -121.51951605  46.64551432
3894.00 -121.63276773  46.71162602
3896.00 -121.74604930  46.77779212
3898.00 -121.85936070  46.84401265
3900.00 -121.97270191  46.91028759
3902.00 -122.08607289  46.97661696
3904.00 -122.19947361  47.04300075
3906.00 -122.31290405  47.10943898
3908.00 -122.42636416  47.17593166
3910.00 -122.53985391  47.24247877
3912.00 -122.65337327  47.30908033
3914.00 -122.76692220  47.37573635
3916.00 -122.88050068  47.44244683
3918.00 -122.99410867  47.50921176
3920.00 -123.10774614  47.57603117
3922.00 -123.22141306  47.64290505
3924.00 -123.33510938  47.70983340
3926.00 -123.44883508  47.77681623
3928.00 -123.56259013  47.84385355
3930.00 -123.67637450  47.91094536
3932.00 -123.79018814  47.97809166
3934.00 -123.90403103  48.04529246
3936.00 -124.01790313  48.11254777
3938.00 -124.13180442  48.17985758
3940.00 -124.24573485  48.24722190
3942.00 -124.35969440  48.31464074
3944.00 -124.47368303  48.38211410
3946.00 -124.58770071  48.44964199
3948.00 -124.70174741  48.51722440
3950.00 -124.81582309  48.58486134
3952.00 -124.92992773  48.65255283
3954.00 -125.04406128  48.72029885
3956.00 -125.15822372  48.78809942
3958.00 -125.27241501  48.85595454
3960.00 -125.38663512  48.92386422
3962.00 -125.50088402  48.99182845
3964.00 -125.61516167  49.05984724
3966.00 -125.72946804  49.12792061
3968.00 -125.84380310  49.19604854
3970.00 -125.95816682  49.26423104
3972.00 -126.07255916  49.33246812
3974.00 -126.18698009  49.40075979
3976.00 -126.30142958  49.46910604
3978.00 -126.41590759  49.53750688
3980.00 -126.53041410  49.60596231
3982.00 -126.64494906  49.67447235
3984.00 -126.75951245  49.74303698
3986.00 -126.87410424  49.81165622
3988.00 -126.98872438  49.88033007
3990.00 -127.10337285  49.94905853
3992.00 -127.21804962  50.01784161
3994.00 -127.33275465  50.08667931
3996.00 -127.44748791  50.15557163
3998.00 -127.56224937  50.22451858
4000.00 -127.67703899  50.29352016
4002.00 -127.79185674  50.36257638
4004.00 -127.90670260  50.43168723
4006.00 -128.02157651  50.50085273
4008.00 -128.13647847  50.57007287
4010.00 -128.25140842  50.63934767
4012.00 -128.36636634  50.70867711
4014.00 -128.48135220  50.77806121
4016.00 -128.59636596  50.84749998
4018.00 -128.71140759  50.91699340
4020.00 -128.82647705  50.98654149
4022.00 -128.94157433  51.05614426
4024.00 -129.05669937  51.12580169
4026.00 -129.17185215  51.19551381
4028.00 -129.28703264  51.26528060
4030.00 -129.40224081  51.33510208
4032.00 -129.51747662  51.40497824
4034.00 -129.63274003  51.47490909
4036.00 -129.74803102  51.54489464
4038.00 -129.86334956  51.61493489
4040.00 -129.97869561  51.68502983
4042.00 -130.09406913  51.75517948
4044.00 -130.20947010  51.82538383
4046.00 -130.32489849  51.89564289
4048.00 -130.44035426  51.96595667
4050.00 -130.55583737  52.03632516
4052.00 -130.67134780  52.10674837
4054.00 -130.78688551  52.17722630
4056.00 -130.90245048  52.24775896
4058.00 -131.01804266  52.31834634
4060.00 -131.13366203  52.38898845
4062.00 -131.24930855  52.45968530
4064.00 -131.36498219  52.53043689
4066.00 -131.48068292  52.60124321
4068.00 -131.59641071  52.67210428
4070.00 -131.71216551  52.74302009
4072.00 -131.82794731  52.81399065
4074.00 -131.94375607  52.88501596
4076.00 -132.05959175  52.95609602
4078.00 -132.17545433  53.02723085
4080.00 -132.29134376  53.09842043
4082.00 -132.40726003  53.16966477
4084.00 -132.52320309  53.24096388
4086.00 -132.63917291  53.31231775
4088.00 -132.75516946  53.38372640
4090.00 -132.87119271  53.45518982
4092.00 -132.98724263  53.52670801
4094.00 -133.10331918  53.59828098
4096.00 -133.21942234  53.66990873
4098.00 -133.33555206  53.74159127
4100.00 -133.45170831  53.81332859
4102.00 -133.56789108  53.88512070
4104.00 -133.68410031  53.95696760
4106.00 -133.80033598  54.02886929
4108.00 -133.91659806  54.10082578
4110.00 -134.03288651  54.17283706
4112.00 -134.14920131  54.24490315
4114.00 -134.26554241  54.31702404
4116.00 -134.38190979  54.38919974
4118.00 -134.49830342  54.46143024
4120.00 -134.61472326  54.53371555
4122.00 -134.73116928  54.60605568
4124.00 -134.84764144  54.67845061
4126.00 -134.96413973  54.75090037
4128.00 -135.08066409  54.82340494
4130.00 -135.19721451  54.89596434
4132.00 -135.31379095  54.96857856
4134.00 -135.43039337  55.04124760
4136.00 -135.54702175  55.11397148
4138.00 -135.66367604  55.18675018
4140.00 -135.78035623  55.25958371
4142.00 -135.89706228  55.33247208
4144.00 -136.01379415  55.40541528
4146.00 -136.13055181  55.47841332
4148.00 -136.24733524  55.55146620
4150.00 -136.36414439  55.62457393
4152.00 -136.48097924  55.69773649
4154.00 -136.59783975  55.77095391
4156.00 -136.71472589  55.84422617
4158.00 -136.83163764  55.91755328
4160.00 -136.94857495  55.99093524
4162.00 -137.06553779  56.06437206
4164.00 -137.18252614  56.13786373
4166.00 -137.29953996  56.21141025
4168.00 -137.41657922  56.28501164
4170.00 -137.53364388  56.35866789
4172.00 -137.65073392  56.43237900
4174.00 -137.76784930  56.50614497
4176.00 -137.88499000  56.57996581
4178.00 -138.00215597  56.65384152
4180.00 -138.11934718  56.72777210
4182.00 -138.23656361  56.80175754
4184.00 -138.35380522  56.87579786
4186.00 -138.47107198  56.94989306
4188.00 -138.58836386  57.02404313
4190.00 -138.70568082  57.09824807
4192.00 -138.82302283  57.17250790
4194.00 -138.94038987  57.24682260
4196.00 -139.05778190  57.32119219
4198.00 -139.17519888  57.39561666
4200.00 -139.29264079  57.47009602
4202.00 -139.41010759  57.54463026
4204.00 -139.52759925  57.61921939
4206.00 -139.64511574  57.69386340
4208.00 -139.76265702  57.76856231
4210.00 -139.88022308  57.84331611
4212.00 -139.99781386  57.91812480
4214.00 -140.11542935  57.99298839
4216.00 -140.23306950  58.06790687
4218.00 -140.35073429  58.14288025
4220.00 -140.46842369  58.21790852
4222.00 -140.58613766  58.29299170
4224.00 -140.70387617  58.36812977
4226.00 -140.82163919  58.44332275
4228.00 -140.93942668  58.51857063
4230.00 -141.05723862  58.59387341
4232.00 -141.17507498  58.66923110
4234.00 -141.29293571  58.74464369
4236.00 -141.41082080  58.82011120
4238.00 -141.52873020  58.89563360
4240.00 -141.64666389  58.97121092
4242.00 -141.76462183  59.04684315
4244.00 -141.88260400  59.12253029
4246.00 -142.00061035  59.19827234
4248.00 -142.11864086  59.27406931
4250.00 -142.23669550  59.34992118
4252.00 -142.35477423  59.42582798
4254.00 -142.47287703  59.50178968
4256.00 -142.59100385  59.57780631
4258.00 -142.70915468  59.65387785
4260.00 -142.82732947  59.73000431
4262.00 -142.94552819  59.80618569
4264.00 -143.06375083  59.88242199
4266.00 -143.18199733  59.95871321
4268.00 -143.30026767  60.03505935
4270.00 -143.41856182  60.11146041
4272.00 -143.53687975  60.18791639
4274.00 -143.65522142  60.26442730
4276.00 -143.77358680  60.34099313
4278.00 -143.89197586  60.41761389
4280.00 -144.01038858  60.49428957
4282.00 -144.12882491  60.57102018
4284.00 -144.24728483  60.64780571
4286.00 -144.36576830  60.72464617
4288.00 -144.48427529  60.80154155
4290.00 -144.60280578  60.87849187
4292.00 -144.72135972  60.95549711
4294.00 -144.83993710  61.03255728
4296.00 -144.95853786  61.10967238
4298.00 -145.07716200  61.18684241
4300.00 -145.19580946  61.26406737
4302.00 -145.31448022  61.34134726
4304.00 -145.43317426  61.41868208
4306.00 -145.55189153  61.49607183
4308.00 -145.67063201  61.57351651
4310.00 -145.78939566  61.65101613
4312.00 -145.90818245  61.72857067
4314.00 -146.02699236  61.80618015
4316.00 -146.14582534  61.88384456
4318.00 -146.26468138  61.96156390
4320.00 -146.38356043  62.03933817
4322.00 -146.50246246  62.11716738
4324.00 -146.62138745  62.19505152
4326.00 -146.74033536  62.27299060
4328.00 -146.85930616  62.35098460
4330.00 -146.97829981  62.42903354
4332.00 -147.09731630  62.50713741
4334.00 -147.21635558  62.58529622
4336.00 -147.33541762  62.66350996
4338.00 -147.45450240  62.74177863
4340.00 -147.57360988  62.82010224
4342.00 -147.69274003  62.89848078
4344.00 -147.81189281  62.97691425
4346.00 -147.93106821  63.05540265
4348.00 -148.05026618  63.13394599
4350.00 -148.16948669  63.21254426
4352.00 -148.28872971  63.29119747
4354.00 -148.40799522  63.36990560
4356.00 -148.52728317  63.44866867
4358.00 -148.64659355  63.52748667
4360.00 -148.76592631  63.60635961
4362.00 -148.88528142  63.68528747
4364.00 -149.00465886  63.76427027
4366.00 -149.12405859  63.84330799
4368.00 -149.24348058  63.92240065
4370.00 -149.36292481  64.00154824
4372.00 -149.48239123  64.08075076
4374.00 -149.60187982  64.16000821
4376.00 -149.72139054  64.23932058
4378.00 -149.84092337  64.31868789
4380.00 -149.96047827  64.39811012
4382.00 -150.08005521  64.47758729
4384.00 -150.19965417  64.55711938
4386.00 -150.31927510  64.63670640
4388.00 -150.43891798  64.71634834
4390.00 -150.55858278  64.79604521
4392.00 -150.67826947  64.87579701
4394.00 -150.79797801  64.95560373
4396.00 -150.91770837  65.03546537
4398.00 -151.03746052  65.11538194
4400.00 -151.15723443  65.19535343
4402.00 -151.27703008  65.27537984
4404.00 -151.39684742  65.35546118
4406.00 -151.51668643  65.43559744
4408.00 -151.63654707  65.51578861
4410.00 -151.75642932  65.59603471
4412.00 -151.87633314  65.67633573
4414.00 -151.99625850  65.75669166
4416.00 -152.11620538  65.83710251
4418.00 -152.23617373  65.91756828
4420.00 -152.35616354  65.99808896
4422.00 -152.47617476  66.07866456
4424.00 -152.59620737  66.15929507
4426.00 -152.71626133  66.23998050
4428.00 -152.83633662  66.32072083
4430.00 -152.95643320  66.40151608
4432.00 -153.07655105  66.48236624
4434.00 -153.19669012  66.56327130
4436.00 -153.31685039  66.64423128
4438.00 -153.43703184  66.72524616
4440.00 -153.55723442  66.80631595
4442.00 -153.67745811  66.88744065
4444.00 -153.79770287  66.96862024
4446.00 -153.91796868  67.04985474
4448.00 -154.03825551  67.13114415
4450.00 -154.15856331  67.21248845
4452.00 -154.27889207  67.29388765
4454.00 -154.39924175  67.37534176
4456.00 -154.51961232  67.45685075
4458.00 -154.64000375  67.53841465
4460.00 -154.76041600  67.62003344
4462.00 -154.88084906  67.70170712
4464.00 -155.00130288  67.78343570
4466.00 -155.12177743  67.86521916
4468.00 -155.24227269  67.94705752
4470.00 -155.36278862  68.02895076
4472.00 -155.48332520  68.11089889
4474.00 -155.60388239  68.19290191
4476.00 -155.72446015  68.27495981
4478.00 -155.84505847  68.35707259
4480.00 -155.96567731  68.43924026
4482.00 -156.08631663  68.52146280
4484.00 -156.20697641  68.60374023
4486.00 -156.32765662  68.68607253
4488.00 -156.44835723  68.76845970
4490.00 -156.56907820  68.85090175
4492.00 -156.68981950  68.93339868
4494.00 -156.81058111  69.01595047
4496.00 -156.93136299  69.09855713
4498.00 -157.05216511  69.18121866
4500.00 -157.17298744  69.26393506
4502.00 -157.29382995  69.34670632
4504.00 -157.41469261  69.42953244
4506.00 -157.53557540  69.51241342
4508.00 -157.65647826  69.59534927
4510.00 -157.77740119  69.67833997
4512.00 -157.89834414  69.76138552
4514.00 -158.01930709  69.84448593
4516.00 -158.14029001  69.92764120
4518.00 -158.26129286  70.01085131
4520.00 -158.38231561  70.09411627
4522.00 -158.50335823  70.17743608
4524.00 -158.62442070  70.26081074
4526.00 -158.74550298  70.34424024
4528.00 -158.86660505  70.42772457
4530.00 -158.98772686  70.51126375
4532.00 -159.10886839  70.59485777
4534.00 -159.23002962  70.67850662
4536.00 -159.35121050  70.76221030
4538.00 -159.47241101  70.84596882
4540.00 -159.59363111  70.92978217
4542.00 -159.71487079  71.01365034
4544.00 -159.83613000  71.09757334
4546.00 -159.95740872  71.18155116
4548.00 -160.07870691  71.26558380
4550.00 -160.20002455  71.34967127
4552.00 -160.32136161  71.43381355
4554.00 -160.44271804  71.51801064
4556.00 -160.56409384  71.60226255
4558.00 -160.68548895  71.68656927
4560.00 -160.80690336  71.77093079
4562.00 -160.92833703  71.85534713
4564.00 -161.04978993  71.93981826
4566.00 -161.17126203  72.02434420
4568.00 -161.29275330  72.10892494
4570.00 -161.41426372  72.19356047
4572.00 -161.53579324  72.27825080
4574.00 -161.65734185  72.36299592
4576.00 -161.77890950  72.44779584
4578.00 -161.90049617  72.53265054
4580.00 -162.02210183  72.61756002
4582.00 -162.14372645  72.70252429
4584.00 -162.26537000  72.78754334
4586.00 -162.38703244  72.87261717
4588.00 -162.50871375  72.95774577
4590.00 -162.63041390  73.04292915
4592.00 -162.75213286  73.12816729
4594.00 -162.87387059  73.21346021
4596.00 -162.99562707  73.29880789
4598.00 -163.11740226  73.38421033
4600.00 -163.23919614  73.46966753
4602.00 -163.36100867  73.55517950
4604.00 -163.48283983  73.64074621
4606.00 -163.60468958  73.72636768
4608.00 -163.72655790  73.81204390
4610.00 -163.84844475  73.89777487
4612.00 -163.97035011  73.98356058
4614.00 -164.09227394  74.06940104
4616.00 -164.21421621  74.15529623
4618.00 -164.33617690  74.24124616
4620.00 -164.45815597  74.32725082
4622.00 -164.58015339  74.41331022
4624.00 -164.70216914  74.49942434
4626.00 -164.82420318  74.58559319
4628.00 -164.94625548  74.67181676
4630.00 -165.06832602  74.75809505
4632.00 -165.19041475  74.84442805
4634.00 -165.31252166  74.93081577
4636.00 -165.43464672  75.01725820
4638.00 -165.55678988  75.10375534
4640.00 -165.67895113  75.19030719
4642.00 -165.80113043  75.27691374
4644.00 -165.92332775  75.36357498
4646.00 -166.04554306  75.45029092
4648.00 -166.16777634  75.53706156
4650.00 -166.29002755  75.62388688
4652.00 -166.41229666  75.71076690
4654.00 -166.53458364  75.79770159
4656.00 -166.65688846  75.88469097
4658.00 -166.77921110  75.97173503
4660.00 -166.90155152  76.05883376
4662.00 -167.02390969  76.14598716
4664.00 -167.14628558  76.23319523
4666.00 -167.26867917  76.32045796
4668.00 -167.39109041  76.40777536
4670.00 -167.51351929  76.49514741
4672.00 -167.63596578  76.58257413
4674.00 -167.75842983  76.67005549
4676.00 -167.88091143  76.75759150
4678.00 -168.00341054  76.84518216
4680.00 -168.12592714  76.93282746
4682.00 -168.24846119  77.02052740
4684.00 -168.37101266  77.10828197
4686.00 -168.49358153  77.19609118
4688.00 -168.61616775  77.28395502
4690.00 -168.73877132  77.37187348
4692.00 -168.86139219  77.45984656
4694.00 -168.98403033  77.54787427
4696.00 -169.10668572  77.63595659
4698.00 -169.22935832  77.72409352
4700.00 -169.35204811  77.81228505
4702.00 -169.47475505  77.90053120
4704.00 -169.59747912  77.98883194
4706.00 -169.72022029  78.07718728
4708.00 -169.84297852  78.16559722
4710.00 -169.96575379  78.25406175
4712.00 -170.08854606  78.34258086
4714.00 -170.21135531  78.43115456
4716.00 -170.33418152  78.51978284
4718.00 -170.45702463  78.60846569
4720.00 -170.57988464  78.69720312
4722.00 -170.70276151  78.78599511
4724.00 -170.82565520  78.87484167
4726.00 -170.94856570  78.96374279
4728.00 -171.07149296  79.05269847
4730.00 -171.19443697  79.14170870
4732.00 -171.31739768  79.23077348
4734.00 -171.44037508  79.31989281
4736.00 -171.56336913  79.40906668
4738.00 -171.68637980  79.49829509
4740.00 -171.80940706  79.58757804
4742.00 -171.93245089  79.67691551
4744.00 -172.05551125  79.76630751
4746.00 -172.17858812  79.85575404
4748.00 -172.30168146  79.94525508
4750.00 -172.42479124  80.03481064
4752.00 -172.54791744  80.12442072
4754.00 -172.67106003  80.21408529
4756.00 -172.79421897  80.30380438
4758.00 -172.91739424  80.39357796
4760.00 -173.04058581  80.48340604
4762.00 -173.16379365  80.57328860
4764.00 -173.28701772  80.66322566
4766.00 -173.41025801  80.75321720
4768.00 -173.53351448  80.84326322
4770.00 -173.65678709  80.93336371
4772.00 -173.78007583  81.02351867
4774.00 -173.90338066  81.11372810
4776.00 -174.02670156  81.20399200
4778.00 -174.15003849  81.29431035
4780.00 -174.27339142  81.38468315
4782.00 -174.39676033  81.47511041
4784.00 -174.52014518  81.56559211
4786.00 -174.64354595  81.65612825
4788.00 -174.76696261  81.74671883
4790.00 -174.89039512  81.83736385
4792.00 -175.01384347  81.92806329
4794.00 -175.13730761  82.01881716
4796.00 -175.26078753  82.10962544
4798.00 -175.38428318  82.20048814
4800.00 -175.50779455  82.29140526
4802.00 -175.63132160  82.38237678
4804.00 -175.75486430  82.47340270
4806.00 -175.87842263  82.56448302
4808.00 -176.00199655  82.65561774
4810.00 -176.12558604  82.74680684
4812.00 -176.24919107  82.83805033
4814.00 -176.37281160  82.92934820
4816.00 -176.49644762  83.02070044
4818.00 -176.62009908  83.11210706
4820.00 -176.74376596  83.20356804
4822.00 -176.86744824  83.29508339
4824.00 -176.99114587  83.38665309
4826.00 -177.11485884  83.47827715
4828.00 -177.23858712  83.56995555
4830.00 -177.36233067  83.66168830
4832.00 -177.48608947  83.75347538
4834.00 -177.60986348  83.84531680
4836.00 -177.73365268  83.93721256
4838.00 -177.85745704  84.02916263
4840.00 -177.98127653  84.12116703
4842.00 -178.10511113  84.21322574
4844.00 -178.22896079  84.30533876
4846.00 -178.35282550  84.39750609
4848.00 -178.47670523  84.48972772
4850.00 -178.60059993  84.58200365
4852.00 -178.72450960  84.67433387
4854.00 -178.84843420  84.76671838
4856.00 -178.97237369  84.85915716
4858.00 -179.09632805  84.95165023
4860.00 -179.22029726  85.04419757
4862.00 -179.34428127  85.13679917
4864.00 -179.46828007  85.22945504
4866.00 -179.59229363  85.32216517
4868.00 -179.71632191  85.41492955
4870.00 -179.84036489  85.50774817
4872.00 -179.96442253  85.60062104
4874.00 -180.08849482  85.69354815
4876.00 -180.21258172  85.78652949
4878.00 -180.33668320  85.87956505
4880.00 -180.46079923  85.97265484
4882.00 -180.58492979  86.06579885
4884.00 -180.70907484  86.15899707
4886.00 -180.83323436  86.25224950
4888.00 -180.95740832  86.34555613
4890.00 -181.08159669  86.43891696
4892.00 -181.20579944  86.53233198
4894.00 -181.33001654  86.62580119
4896.00 -181.45424797  86.71932457
4898.00 -181.57849369  86.81290214
4900.00 -181.70275368  86.90653388
4902.00 -181.82702790  87.00021978
4904.00 -181.95131634  87.09395984
4906.00 -182.07561896  87.18775406
4908.00 -182.19993573  87.28160243
4910.00 -182.32426662  87.37550495
4912.00 -182.44861160  87.46946160
4914.00 -182.57297066  87.56347239
4916.00 -182.69734375  87.65753731
4918.00 -182.82173085  87.75165635
4920.00 -182.94613193  87.84582951
4922.00 -183.07054697  87.94005679
4924.00 -183.19497593  88.03433817
4926.00 -183.31941878  88.12867365
4928.00 -183.44387550  88.22306323
4930.00 -183.56834606  88.31750690
4932.00 -183.69283043  88.41200466
4934.00 -183.81732859  88.50655650
4936.00 -183.94184049  88.60116241
4938.00 -184.06636612  88.69582239
4940.00 -184.19090545  88.79053644
4942.00 -184.31545844  88.88530454
4944.00 -184.44002508  88.98012670
4946.00 -184.56460532  89.07500290
4948.00 -184.68919915  89.16993315
4950.00 -184.81380654  89.26491743
4952.00 -184.93842745  89.35995574
4954.00 -185.06306186  89.45504808
4956.00 -185.18770974  89.55019444
4958.00 -185.31237106  89.64539481
4960.00 -185.43704579  89.74064918
4962.00 -185.56173391  89.83595756
4964.00 -185.68643539  89.93131994
4966.00 -185.81115019  90.02673630
4968.00 -185.93587830  90.12220665
4970.00 -186.06061967  90.21773098
4972.00 -186.18537429  90.31330928
4974.00 -186.31014213  90.40894155
4976.00 -186.43492315  90.50462778
4978.00 -186.55971734  90.60036797
4980.00 -186.68452465  90.69616210
4982.00 -186.80934507  90.79201019
4984.00 -186.93417856  90.88791220
4986.00 -187.05902510  90.98386815
4988.00 -187.18388466  91.07987803
4990.00 -187.30875721  91.17594183
4992.00 -187.43364272  91.27205954
4994.00 -187.55854117  91.36823116
4996.00 -187.68345252  91.46445668
4998.00 -187.80837675  91.56073610
5000.00 -187.93331383  91.65706941
