wavelength(nm)         real         imag
100.00   3.77389433   0.00120505
102.00   3.76880015   0.00127881
104.00   3.76360513   0.00135551
106.00   3.75830927   0.00143522
108.00   3.75291259   0.00151800
110.00   3.74741507   0.00160390
112.00   3.74181673   0.00169297
114.00   3.73611756   0.00178529
116.00   3.73031757   0.00188090
118.00   3.72441676   0.00197987
120.00   3.71841514   0.00208225
122.00   3.71231270   0.00218810
124.00   3.70610944   0.00229747
126.00   3.69980538   0.00241043
128.00   3.69340052   0.00252703
130.00   3.68689485   0.00264734
132.00   3.68028838   0.00277140
134.00   3.67358111   0.00289927
136.00   3.66677305   0.00303103
138.00   3.65986420   0.00316671
140.00   3.65285456   0.00330638
142.00   3.64574413   0.00345010
144.00   3.63853292   0.00359792
146.00   3.63122093   0.00374990
148.00   3.62380817   0.00390611
150.00   3.61629463   0.00406659
152.00   3.60868032   0.00423141
154.00   3.60096525   0.00440062
156.00   3.59314942   0.00457429
158.00   3.58523282   0.00475246
160.00   3.57721547   0.00493520
162.00   3.56909737   0.00512256
164.00   3.56087852   0.00531461
166.00   3.55255892   0.00551139
168.00   3.54413858   0.00571297
170.00   3.53561751   0.00591941
172.00   3.52699570   0.00613076
174.00   3.51827316   0.00634708
176.00   3.50944989   0.00656843
178.00   3.50052590   0.00679486
180.00   3.49150119   0.00702644
182.00   3.48237577   0.00726322
184.00   3.47314963   0.00750525
186.00   3.46382279   0.00775261
188.00   3.45439525   0.00800534
190.00   3.44486701   0.00826350
192.00   3.43523807   0.00852715
194.00   3.42550845   0.00879634
196.00   3.41567813   0.00907114
198.00   3.40574714   0.00935161
200.00   3.39571547   0.00963779
202.00   3.38558312   0.00992975
204.00   3.37535011   0.01022755
206.00   3.36501644   0.01053124
208.00   3.35458210   0.01084088
210.00   3.34404711   0.01115653
212.00   3.33341147   0.01147825
214.00   3.32267518   0.01180609
216.00   3.31183826   0.01214011
218.00   3.30090069   0.01248036
220.00   3.28986250   0.01282692
222.00   3.27872368   0.01317983
224.00   3.26748424   0.01353915
226.00   3.25614418   0.01390494
228.00   3.24470351   0.01427725
230.00   3.23316223   0.01465615
232.00   3.22152035   0.01504169
234.00   3.20977787   0.01543394
236.00   3.19793481   0.01583293
238.00   3.18599115   0.01623875
240.00   3.17394692   0.01665143
242.00   3.16180211   0.01707104
244.00   3.14955673   0.01749765
246.00   3.13721078   0.01793129
248.00   3.12476428   0.01837204
250.00   3.11221722   0.01881995
252.00   3.09956961   0.01927507
254.00   3.08682146   0.01973747
256.00   3.07397277   0.02020721
258.00   3.06102355   0.02068433
260.00   3.04797380   0.02116890
262.00   3.03482353   0.02166097
264.00   3.02157275   0.02216061
266.00   3.00822146   0.02266786
268.00   2.99476966   0.02318280
270.00   2.98121737   0.02370546
272.00   2.96756458   0.02423592
274.00   2.95381131   0.02477423
276.00   2.93995757   0.02532045
278.00   2.92600334   0.02587463
280.00   2.91194865   0.02643684
282.00   2.89779350   0.02700712
284.00   2.88353790   0.02758554
286.00   2.86918184   0.02817215
288.00   2.85472534   0.02876702
290.00   2.84016841   0.02937019
292.00   2.82551105   0.02998173
294.00   2.81075326   0.03060170
296.00   2.79589506   0.03123014
298.00   2.78093645   0.03186713
300.00   2.76587743   0.03251271
302.00   2.75071801   0.03316695
304.00   2.73545821   0.03382989
306.00   2.72009802   0.03450160
308.00   2.70463745   0.03518214
310.00   2.68907652   0.03587157
312.00   2.67341522   0.03656993
314.00   2.65765356   0.03727729
316.00   2.64179155   0.03799370
318.00   2.62582920   0.03871923
320.00   2.60976652   0.03945393
322.00   2.59360350   0.04019785
324.00   2.57734016   0.04095106
326.00   2.56097651   0.04171361
328.00   2.54451255   0.04248555
330.00   2.52794829   0.04326696
332.00   2.51128374   0.04405787
334.00   2.49451890   0.04485836
336.00   2.47765378   0.04566848
338.00   2.46068839   0.04648828
340.00   2.44362274   0.04731782
342.00   2.42645683   0.04815716
344.00   2.40919067   0.04900636
346.00   2.39182427   0.04986548
348.00   2.37435764   0.05073456
350.00   2.35679078   0.05161368
352.00   2.33912370   0.05250287
354.00   2.32135641   0.05340222
356.00   2.30348892   0.05431176
358.00   2.28552123   0.05523156
360.00   2.26745336   0.05616167
362.00   2.24928530   0.05710216
364.00   2.23101708   0.05805307
366.00   2.21264869   0.05901447
368.00   2.19418014   0.05998642
370.00   2.17561145   0.06096896
372.00   2.15694262   0.06196216
374.00   2.13817366   0.06296608
376.00   2.11930457   0.06398076
378.00   2.10033537   0.06500628
380.00   2.08126607   0.06604268
382.00   2.06209666   0.06709003
384.00   2.04282717   0.06814837
386.00   2.02345759   0.06921777
388.00   2.00398794   0.07029829
390.00   1.98441823   0.07138998
392.00   1.96474846   0.07249289
394.00   1.94497864   0.07360709
396.00   1.92510879   0.07473264
398.00   1.90513890   0.07586958
400.00   1.88506900   0.07701798
402.00   1.86489908   0.07817789
404.00   1.84462916   0.07934937
406.00   1.82425924   0.08053248
408.00   1.80378934   0.08172728
410.00   1.78321946   0.08293381
412.00   1.76254961   0.08415215
414.00   1.74177980   0.08538234
416.00   1.72091004   0.08662444
418.00   1.69994034   0.08787851
420.00   1.67887071   0.08914460
422.00   1.65770116   0.09042278
424.00   1.63643170   0.09171310
426.00   1.61506233   0.09301562
428.00   1.59359306   0.09433039
430.00   1.57202391   0.09565747
432.00   1.55035489   0.09699692
434.00   1.52858599   0.09834880
436.00   1.50671725   0.09971315
438.00   1.48474865   0.10109004
440.00   1.46268021   0.10247953
442.00   1.44051195   0.10388167
444.00   1.41824387   0.10529652
446.00   1.39587598   0.10672413
448.00   1.37340829   0.10816457
450.00   1.35084081   0.10961788
452.00   1.32817355   0.11108413
454.00   1.30540652   0.11256338
456.00   1.28253974   0.11405567
458.00   1.25957320   0.11556107
460.00   1.23650692   0.11707963
462.00   1.21334092   0.11861141
464.00   1.19007519   0.12015647
466.00   1.16670975   0.12171486
468.00   1.14324462   0.12328664
470.00   1.11967979   0.12487187
472.00   1.09601529   0.12647060
474.00   1.07225112   0.12808289
476.00   1.04838729   0.12970880
478.00   1.02442381   0.13134838
480.00   1.00036070   0.13300169
482.00   0.97619796   0.13466878
484.00   0.95193560   0.13634972
486.00   0.92757364   0.13804456
488.00   0.90311208   0.13975336
490.00   0.87855094   0.14147617
492.00   0.85389022   0.14321305
494.00   0.82912994   0.14496405
496.00   0.80427011   0.14672924
498.00   0.77931074   0.14850867
500.00   0.75425183   0.15030239
502.00   0.72909341   0.15211047
504.00   0.70383548   0.15393295
506.00   0.67847805   0.15576990
508.00   0.65302113   0.15762137
510.00   0.62746474   0.15948742
512.00   0.60180889   0.16136811
514.00   0.57605358   0.16326349
516.00   0.55019882   0.16517361
518.00   0.52424464   0.16709854
520.00   0.49819104   0.16903833
522.00   0.47203803   0.17099304
524.00   0.44578562   0.17296272
526.00   0.41943383   0.17494743
528.00   0.39298267   0.17694723
530.00   0.36643214   0.17896217
532.00   0.33978226   0.18099231
534.00   0.31303304   0.18303771
536.00   0.28618449   0.18509842
538.00   0.25923663   0.18717449
540.00   0.23218946   0.18926599
542.00   0.20504300   0.19137298
544.00   0.17779726   0.19349549
546.00   0.15045226   0.19563361
548.00   0.12300799   0.19778737
550.00   0.09546448   0.19995684
552.00   0.06782174   0.20214207
554.00   0.04007977   0.20434312
556.00   0.01223860   0.20656005
558.00  -0.01570177   0.20879291
560.00  -0.04374133   0.21104175
562.00  -0.07188005   0.21330664
564.00  -0.10011794   0.21558763
566.00  -0.12845498   0.21788477
568.00  -0.15689115   0.22019813
570.00  -0.18542645   0.22252775
572.00  -0.21406085   0.22487370
574.00  -0.24279436   0.22723603
576.00  -0.27162695   0.22961480
578.00  -0.30055861   0.23201006
580.00  -0.32958934   0.23442187
582.00  -0.35871911   0.23685029
584.00  -0.38794792   0.23929536
586.00  -0.41727575   0.24175716
588.00  -0.44670259   0.24423572
590.00  -0.47622843   0.24673112
592.00  -0.50585326   0.24924340
594.00  -0.53557706   0.25177262
596.00  -0.56539981   0.25431885
598.00  -0.59532151   0.25688212
600.00  -0.62534215   0.25946250
602.00  -0.65546170   0.26206005
604.00  -0.68568016   0.26467482
606.00  -0.71599752   0.26730687
608.00  -0.74641375   0.26995625
610.00  -0.77692886   0.27262303
612.00  -0.80754281   0.27530724
614.00  -0.83825561   0.27800896
616.00  -0.86906724   0.28072823
618.00  -0.89997768   0.28346512
620.00  -0.93098692   0.28621968
622.00  -0.96209495   0.28899196
624.00  -0.99330175   0.29178202
626.00  -1.02460731   0.29458991
628.00  -1.05601162   0.29741570
630.00  -1.08751466   0.30025944
632.00  -1.11911642   0.30312118
634.00  -1.15081689   0.30600098
636.00  -1.18261605   0.30889889
638.00  -1.21451389   0.31181498
640.00  -1.24651039   0.31474929
642.00  -1.27860554   0.31770189
644.00  -1.31079933   0.32067282
646.00  -1.34309174   0.32366215
648.00  -1.37548276   0.32666992
650.00  -1.40797238   0.32969620
652.00  -1.44056058   0.33274104
654.00  -1.47324734   0.33580450
656.00  -1.50603265   0.33888663
658.00  -1.53891650   0.34198749
660.00  -1.57189888   0.34510713
662.00  -1.60497977   0.34824561
664.00  -1.63815915   0.35140298
666.00  -1.67143701   0.35457931
668.00  -1.70481334   0.35777464
670.00  -1.73828812   0.36098903
672.00  -1.77186134   0.36422253
674.00  -1.80553298   0.36747521
676.00  -1.83930303   0.37074712
678.00  -1.87317147   0.37403831
680.00  -1.90713829   0.37734884
682.00  -1.94120348   0.38067876
684.00  -1.97536702   0.38402813
686.00  -2.00962889   0.38739700
688.00  -2.04398908   0.39078544
690.00  -2.07844758   0.39419349
692.00  -2.11300436   0.39762121
694.00  -2.14765943   0.40106866
696.00  -2.18241275   0.40453589
698.00  -2.21726432   0.40802296
700.00  -2.25221412   0.41152992
702.00  -2.28726213   0.41505683
704.00  -2.32240834   0.41860374
706.00  -2.35765274   0.42217071
708.00  -2.39299531   0.42575779
710.00  -2.42843603   0.42936504
712.00  -2.46397489   0.43299251
714.00  -2.49961187   0.43664026
716.00  -2.53534697   0.44030835
718.00  -2.57118015   0.44399683
720.00  -2.60711141   0.44770575
722.00  -2.64314074   0.45143517
724.00  -2.67926811   0.45518515
726.00  -2.71549351   0.45895574
728.00  -2.75181693   0.46274699
730.00  -2.78823834   0.46655896
732.00  -2.82475774   0.47039171
734.00  -2.86137510   0.47424529
736.00  -2.89809042   0.47811975
738.00  -2.93490368   0.48201516
740.00  -2.97181485   0.48593156
742.00  -3.00882393   0.48986901
744.00  -3.04593089   0.49382756
746.00  -3.08313573   0.49780728
748.00  -3.12043843   0.50180821
750.00  -3.15783896   0.50583042
752.00  -3.19533732   0.50987395
754.00  -3.23293349   0.51393886
756.00  -3.27062744   0.51802520
758.00  -3.30841918   0.52213304
760.00  -3.34630867   0.52626242
762.00  -3.38429590   0.53041340
764.00  -3.42238086   0.53458603
766.00  -3.46056353   0.53878038
768.00  -3.49884389   0.54299648
770.00  -3.53722193   0.54723441
772.00  -3.57569763   0.55149422
774.00  -3.61427098   0.55577595
776.00  -3.65294195   0.56007966
778.00  -3.69171053   0.56440541
780.00  -3.73057670   0.56875326
782.00  -3.76954045   0.57312325
784.00  -3.80860177   0.57751545
786.00  -3.84776062   0.58192990
788.00  -3.88701700   0.58636667
790.00  -3.92637089   0.59082580
792.00  -3.96582227   0.59530735
794.00  -4.00537113   0.59981138
796.00  -4.04501745   0.60433794
798.00  -4.08476120   0.60888708
800.00  -4.12460239   0.61345886
802.00  -4.16454098   0.61805334
804.00  -4.20457695   0.62267056
806.00  -4.24471031   0.62731059
808.00  -4.28494101   0.63197347
810.00  -4.32526906   0.63665927
812.00  -4.36569442   0.64136803
814.00  -4.40621709   0.64609981
816.00  -4.44683704   0.65085467
818.00  -4.48755427   0.65563266
820.00  -4.52836874   0.66043383
822.00  -4.56928045   0.66525824
824.00  -4.61028937   0.67010595
826.00  -4.65139549   0.67497700
828.00  -4.69259879   0.67987145
830.00  -4.73389925   0.68478936
832.00  -4.77529686   0.68973078
834.00  -4.81679159   0.69469576
836.00  -4.85838343   0.69968436
838.00  -4.90007237   0.70469663
840.00  -4.94185838   0.70973263
842.00  -4.98374144   0.71479241
844.00  -5.02572154   0.71987603
846.00  -5.06779866   0.72498354
848.00  -5.10997278   0.73011499
850.00  -5.15224389   0.73527044
852.00  -5.19461196   0.74044994
854.00  -5.23707697   0.74565355
856.00  -5.27963892   0.75088131
858.00  -5.32229777   0.75613330
860.00  -5.36505352   0.76140955
862.00  -5.40790614   0.76671012
864.00  -5.45085561   0.77203507
866.00  -5.49390192   0.77738445
868.00  -5.53704505   0.78275831
870.00  -5.58028498   0.78815671
872.00  -5.62362169   0.79357971
874.00  -5.66705517   0.79902735
876.00  -5.71058538   0.80449969
878.00  -5.75421232   0.80999679
880.00  -5.79793597   0.81551869
882.00  -5.84175631   0.82106546
884.00  -5.88567331   0.82663714
886.00  -5.92968697   0.83223379
888.00  -5.97379725   0.83785546
890.00  -6.01800415   0.84350221
892.00  -6.06230764   0.84917410
894.00  -6.10670771   0.85487116
896.00  -6.15120433   0.86059347
898.00  -6.19579749   0.86634107
900.00  -6.24048716   0.87211401
902.00  -6.28527333   0.87791235
904.00  -6.33015598   0.88373615
906.00  -6.37513509   0.88958545
908.00  -6.42021064   0.89546032
910.00  -6.46538261   0.90136079
912.00  -6.51065098   0.90728694
914.00  -6.55601574   0.91323881
916.00  -6.60147685   0.91921645
918.00  -6.64703431   0.92521992
920.00  -6.69268809   0.93124927
922.00  -6.73843818   0.93730456
924.00  -6.78428455   0.94338584
926.00  -6.83022719   0.94949315
928.00  -6.87626607   0.95562657
930.00  -6.92240118   0.96178613
932.00  -6.96863249   0.96797190
934.00  -7.01495999   0.97418392
936.00  -7.06138366   0.98042226
938.00  -7.10790347   0.98668695
940.00  -7.15451940   0.99297806
942.00  -7.20123145   0.99929564
944.00  -7.24803958   1.00563975
946.00  -7.29494377   1.01201043
948.00  -7.34194402   1.01840774
950.00  -7.38904029   1.02483173
952.00  -7.43623256   1.03128245
954.00  -7.48352082   1.03775997
956.00  -7.53090505   1.04426433
958.00  -7.57838522   1.05079558
960.00  -7.62596132   1.05735379
962.00  -7.67363332   1.06393899
964.00  -7.72140120   1.07055125
966.00  -7.76926495   1.07719061
968.00  -7.81722455   1.08385714
970.00  -7.86527996   1.09055088
972.00  -7.91343118   1.09727189
974.00  -7.96167818   1.10402022
976.00  -8.01002095   1.11079592
978.00  -8.05845945   1.11759905
980.00  -8.10699367   1.12442966
982.00  -8.15562359   1.13128779
984.00  -8.20434920   1.13817352
986.00  -8.25317045   1.14508688
988.00  -8.30208735   1.15202793
990.00  -8.35109986   1.15899672
992.00  -8.40020797   1.16599331
994.00  -8.44941165   1.17301775
996.00  -8.49871088   1.18007010
998.00  -8.54810565   1.18715039
1000.00  -8.59759592   1.19425870
1002.00  -8.64718169   1.20139506
1004.00  -8.69686293   1.20855954
1006.00  -8.74663961   1.21575218
1008.00  -8.79651172   1.22297304
1010.00  -8.84647923   1.23022217
1012.00  -8.89654213   1.23749963
1014.00  -8.94670039   1.24480546
1016.00  -8.99695400   1.25213972
1018.00  -9.04730292   1.25950246
1020.00  -9.09774714   1.26689374
1022.00  -9.14828663   1.27431360
1024.00  -9.19892139   1.28176210
1026.00  -9.24965137   1.28923929
1028.00  -9.30047657   1.29674523
1030.00  -9.35139696   1.30427996
1032.00  -9.40241251   1.31184354
1034.00  -9.45352322   1.31943603
1036.00  -9.50472905   1.32705746
1038.00  -9.55602998   1.33470791
1040.00  -9.60742599   1.34238741
1042.00  -9.65891707   1.35009602
1044.00  -9.71050318   1.35783380
1046.00  -9.76218431   1.36560079
1048.00  -9.81396043   1.37339704
1050.00  -9.86583152   1.38122262
1052.00  -9.91779756   1.38907757
1054.00  -9.96985853   1.39696195
1056.00 -10.02201441   1.40487580
1058.00 -10.07426517   1.41281918
1060.00 -10.12661079   1.42079214
1062.00 -10.17905125   1.42879473
1064.00 -10.23158653   1.43682701
1066.00 -10.28421660   1.44488903
1068.00 -10.33694144   1.45298083
1070.00 -10.38976103   1.46110248
1072.00 -10.44267535   1.46925402
1074.00 -10.49568438   1.47743550
1076.00 -10.54878808   1.48564699
1078.00 -10.60198645   1.49388852
1080.00 -10.65527945   1.50216015
1082.00 -10.70866707   1.51046194
1084.00 -10.76214927   1.51879393
1086.00 -10.81572605   1.52715618
1088.00 -10.86939738   1.53554874
1090.00 -10.92316322   1.54397165
1092.00 -10.97702357   1.55242498
1094.00 -11.03097840   1.56090878
1096.00 -11.08502768   1.56942309
1098.00 -11.13917139   1.57796797
1100.00 -11.19340951   1.58654346
1102.00 -11.24774202   1.59514963
1104.00 -11.30216889   1.60378653
1106.00 -11.35669010   1.61245419
1108.00 -11.41130563   1.62115268
1110.00 -11.46601545   1.62988205
1112.00 -11.52081954   1.63864235
1114.00 -11.57571788   1.64743364
1116.00 -11.63071044   1.65625595
1118.00 -11.68579720   1.66510935
1120.00 -11.74097814   1.67399388
1122.00 -11.79625324   1.68290960
1124.00 -11.85162246   1.69185656
1126.00 -11.90708579   1.70083481
1128.00 -11.96264321   1.70984440
1130.00 -12.01829469   1.71888538
1132.00 -12.07404020   1.72795781
1134.00 -12.12987972   1.73706173
1136.00 -12.18581324   1.74619720
1138.00 -12.24184072   1.75536427
1140.00 -12.29796214   1.76456298
1142.00 -12.35417748   1.77379340
1144.00 -12.41048672   1.78305557
1146.00 -12.46688982   1.79234955
1148.00 -12.52338677   1.80167537
1150.00 -12.57997755   1.81103311
1152.00 -12.63666212   1.82042280
1154.00 -12.69344047   1.82984450
1156.00 -12.75031257   1.83929825
1158.00 -12.80727840   1.84878412
1160.00 -12.86433793   1.85830215
1162.00 -12.92149114   1.86785239
1164.00 -12.97873800   1.87743490
1166.00 -13.03607849   1.88704972
1168.00 -13.09351259   1.89669690
1170.00 -13.15104028   1.90637650
1172.00 -13.20866152   1.91608857
1174.00 -13.26637629   1.92583315
1176.00 -13.32418457   1.93561031
1178.00 -13.38208634   1.94542008
1180.00 -13.44008156   1.95526253
1182.00 -13.49817023   1.96513769
1184.00 -13.55635230   1.97504563
1186.00 -13.61462776   1.98498639
1188.00 -13.67299658   1.99496003
1190.00 -13.73145874   2.00496659
1192.00 -13.79001421   2.01500613
1194.00 -13.84866297   2.02507869
1196.00 -13.90740500   2.03518433
1198.00 -13.96624026   2.04532309
1200.00 -14.02516874   2.05549504
1202.00 -14.08419040   2.06570021
1204.00 -14.14330523   2.07593866
1206.00 -14.20251320   2.08621044
1208.00 -14.26181428   2.09651560
1210.00 -14.32120845   2.10685419
1212.00 -14.38069569   2.11722626
1214.00 -14.44027597   2.12763187
1216.00 -14.49994926   2.13807105
1218.00 -14.55971553   2.14854387
1220.00 -14.61957478   2.15905037
1222.00 -14.67952696   2.16959061
1224.00 -14.73957205   2.18016463
1226.00 -14.79971003   2.19077248
1228.00 -14.85994088   2.20141421
1230.00 -14.92026456   2.21208988
1232.00 -14.98068106   2.22279954
1234.00 -15.04119034   2.23354323
1236.00 -15.10179238   2.24432100
1238.00 -15.16248716   2.25513291
1240.00 -15.22327465   2.26597900
1242.00 -15.28415483   2.27685933
1244.00 -15.34512766   2.28777395
1246.00 -15.40619313   2.29872290
1248.00 -15.46735120   2.30970624
1250.00 -15.52860186   2.32072401
1252.00 -15.58994507   2.33177627
1254.00 -15.65138082   2.34286306
1256.00 -15.71290907   2.35398444
1258.00 -15.77452979   2.36514046
1260.00 -15.83624298   2.37633116
1262.00 -15.89804858   2.38755659
1264.00 -15.95994660   2.39881681
1266.00 -16.02193698   2.41011187
1268.00 -16.08401972   2.42144181
1270.00 -16.14619477   2.43280669
1272.00 -16.20846213   2.44420655
1274.00 -16.27082176   2.45564144
1276.00 -16.33327363   2.46711142
1278.00 -16.39581772   2.47861653
1280.00 -16.45845400   2.49015682
1282.00 -16.52118245   2.50173235
1284.00 -16.58400304   2.51334316
1286.00 -16.64691575   2.52498930
1288.00 -16.70992054   2.53667083
1290.00 -16.77301739   2.54838778
1292.00 -16.83620628   2.56014022
1294.00 -16.89948717   2.57192818
1296.00 -16.96286005   2.58375173
1298.00 -17.02632488   2.59561090
1300.00 -17.08988164   2.60750576
1302.00 -17.15353030   2.61943634
1304.00 -17.21727084   2.63140270
1306.00 -17.28110322   2.64340488
1308.00 -17.34502743   2.65544294
1310.00 -17.40904343   2.66751693
1312.00 -17.47315120   2.67962689
1314.00 -17.53735072   2.69177287
1316.00 -17.60164194   2.70395493
1318.00 -17.66602486   2.71617311
1320.00 -17.73049943   2.72842746
1322.00 -17.79506564   2.74071803
1324.00 -17.85972346   2.75304488
1326.00 -17.92447286   2.76540804
1328.00 -17.98931381   2.77780756
1330.00 -18.05424628   2.79024351
1332.00 -18.11927026   2.80271592
1334.00 -18.18438570   2.81522485
1336.00 -18.24959259   2.82777034
1338.00 -18.31489090   2.84035244
1340.00 -18.38028060   2.85297120
1342.00 -18.44576166   2.86562668
1344.00 -18.51133406   2.87831891
1346.00 -18.57699776   2.89104796
1348.00 -18.64275274   2.90381386
1350.00 -18.70859898   2.91661666
1352.00 -18.77453644   2.92945643
1354.00 -18.84056510   2.94233319
1356.00 -18.90668493   2.95524701
1358.00 -18.97289591   2.96819793
1360.00 -19.03919800   2.98118599
1362.00 -19.10559118   2.99421126
1364.00 -19.17207541   3.00727377
1366.00 -19.23865068   3.02037358
1368.00 -19.30531696   3.03351073
1370.00 -19.37207421   3.04668528
1372.00 -19.43892241   3.05989726
1374.00 -19.50586153   3.07314674
1376.00 -19.57289155   3.08643375
1378.00 -19.64001243   3.09975835
1380.00 -19.70722415   3.11312059
1382.00 -19.77452668   3.12652051
1384.00 -19.84191999   3.13995816
1386.00 -19.90940405   3.15343359
1388.00 -19.97697884   3.16694685
1390.00 -20.04464433   3.18049798
1392.00 -20.11240049   3.19408704
1394.00 -20.18024728   3.20771408
1396.00 -20.24818469   3.22137913
1398.00 -20.31621269   3.23508226
1400.00 -20.38433124   3.24882350
1402.00 -20.45254032   3.26260290
1404.00 -20.52083990   3.27642053
1406.00 -20.58922995   3.29027641
1408.00 -20.65771044   3.30417060
1410.00 -20.72628135   3.31810315
1412.00 -20.79494265   3.33207411
1414.00 -20.86369430   3.34608352
1416.00 -20.93253628   3.36013144
1418.00 -21.00146856   3.37421790
1420.00 -21.07049112   3.38834296
1422.00 -21.13960391   3.40250667
1424.00 -21.20880693   3.41670907
1426.00 -21.27810012   3.43095021
1428.00 -21.34748348   3.44523014
1430.00 -21.41695696   3.45954891
1432.00 -21.48652054   3.47390656
1434.00 -21.55617420   3.48830314
1436.00 -21.62591789   3.50273871
1438.00 -21.69575160   3.51721330
1440.00 -21.76567529   3.53172697
1442.00 -21.83568894   3.54627976
1444.00 -21.90579251   3.56087172
1446.00 -21.97598598   3.57550290
1448.00 -22.04626932   3.59017334
1450.00 -22.11664250   3.60488310
1452.00 -22.18710549   3.61963221
1454.00 -22.25765826   3.63442074
1456.00 -22.32830078   3.64924872
1458.00 -22.39903302   3.66411620
1460.00 -22.46985495   3.67902323
1462.00 -22.54076655   3.69396987
1464.00 -22.61176778   3.70895614
1466.00 -22.68285862   3.72398211
1468.00 -22.75403904   3.73904781
1470.00 -22.82530900   3.75415331
1472.00 -22.89666847   3.76929863
1474.00 -22.96811744   3.78448384
1476.00 -23.03965586   3.79970898
1478.00 -23.11128371   3.81497409
1480.00 -23.18300096   3.83027922
1482.00 -23.25480757   3.84562442
1484.00 -23.32670353   3.86100974
1486.00 -23.39868880   3.87643522
1488.00 -23.47076334   3.89190091
1490.00 -23.54292714   3.90740686
1492.00 -23.61518016   3.92295311
1494.00 -23.68752237   3.93853972
1496.00 -23.75995373   3.95416672
1498.00 -23.83247423   3.96983417
1500.00 -23.90508383   3.98554211
1502.00 -23.97778251   4.00129058
1504.00 -24.05057022   4.01707965
1506.00 -24.12344694   4.03290934
1508.00 -24.19641265   4.04877971
1510.00 -24.26946731   4.06469081
1512.00 -24.34261088   4.08064268
1514.00 -24.41584335   4.09663537
1516.00 -24.48916468   4.11266892
1518.00 -24.56257484   4.12874339
1520.00 -24.63607380   4.14485881
1522.00 -24.70966153   4.16101524
1524.00 -24.78333800   4.17721272
1526.00 -24.85710318   4.19345129
1528.00 -24.93095704   4.20973101
1530.00 -25.00489955   4.22605193
1532.00 -25.07893067   4.24241408
1534.00 -25.15305038   4.25881751
1536.00 -25.22725866   4.27526227
1538.00 -25.30155545   4.29174841
1540.00 -25.37594075   4.30827597
1542.00 -25.45041451   4.32484499
1544.00 -25.52497670   4.34145554
1546.00 -25.59962730   4.35810764
1548.00 -25.67436628   4.37480135
1550.00 -25.74919359   4.39153671
1552.00 -25.82410922   4.40831378
1554.00 -25.89911314   4.42513258
1556.00 -25.97420530   4.44199318
1558.00 -26.04938568   4.45889562
1560.00 -26.12465425   4.47583994
1562.00 -26.20001099   4.49282619
1564.00 -26.27545584   4.50985441
1566.00 -26.35098880   4.52692466
1568.00 -26.42660982   4.54403697
1570.00 -26.50231888   4.56119139
1572.00 -26.57811594   4.57838798
1574.00 -26.65400097   4.59562676
1576.00 -26.72997394   4.61290780
1578.00 -26.80603483   4.63023113
1580.00 -26.88218359   4.64759681
1582.00 -26.95842020   4.66500487
1584.00 -27.03474463   4.68245537
1586.00 -27.11115684   4.69994834
1588.00 -27.18765681   4.71748384
1590.00 -27.26424450   4.73506190
1592.00 -27.34091988   4.75268259
1594.00 -27.41768293   4.77034593
1596.00 -27.49453360   4.78805198
1598.00 -27.57147187   4.80580078
1600.00 -27.64849771   4.82359238
1602.00 -27.72561108   4.84142682
1604.00 -27.80281195   4.85930414
1606.00 -27.88010030   4.87722440
1608.00 -27.95747608   4.89518764
1610.00 -28.03493927   4.91319391
1612.00 -28.11248984   4.93124324
1614.00 -28.19012776   4.94933568
1616.00 -28.26785299   4.96747129
1618.00 -28.34566550   4.98565010
1620.00 -28.42356526   5.00387216
1622.00 -28.50155224   5.02213751
1624.00 -28.57962640   5.04044620
1626.00 -28.65778772   5.05879828
1628.00 -28.73603616   5.07719379
1630.00 -28.81437169   5.09563277
1632.00 -28.89279428   5.11411527
1634.00 -28.97130390   5.13264134
1636.00 -29.04990051   5.15121102
1638.00 -29.12858409   5.16982435
1640.00 -29.20735460   5.18848138
1642.00 -29.28621200   5.20718215
1644.00 -29.36515627   5.22592671
1646.00 -29.44418737   5.24471511
1648.00 -29.52330528   5.26354738
1650.00 -29.60250996   5.28242358
1652.00 -29.68180137   5.30134375
1654.00 -29.76117949   5.32030792
1656.00 -29.84064429   5.33931616
1658.00 -29.92019572   5.35836849
1660.00 -29.99983376   5.37746498
1662.00 -30.07955838   5.39660565
1664.00 -30.15936954   5.41579055
1666.00 -30.23926722   5.43501974
1668.00 -30.31925137   5.45429325
1670.00 -30.39932197   5.47361113
1672.00 -30.47947898   5.49297342
1674.00 -30.55972237   5.51238017
1676.00 -30.64005212   5.53183142
1678.00 -30.72046817   5.55132721
1680.00 -30.80097051   5.57086760
1682.00 -30.88155911   5.59045262
1684.00 -30.96223392   5.61008231
1686.00 -31.04299491   5.62975673
1688.00 -31.12384206   5.64947592
1690.00 -31.20477533   5.66923992
1692.00 -31.28579468   5.68904877
1694.00 -31.36690009   5.70890252
1696.00 -31.44809152   5.72880121
1698.00 -31.52936894   5.74874489
1700.00 -31.61073231   5.76873360
1702.00 -31.69218160   5.78876738
1704.00 -31.77371679   5.80884629
1706.00 -31.85533783   5.82897035
1708.00 -31.93704469   5.84913962
1710.00 -32.01883735   5.86935415
1712.00 -32.10071576   5.88961396
1714.00 -32.18267989   5.90991911
1716.00 -32.26472972   5.93026965
1718.00 -32.34686520   5.95066561
1720.00 -32.42908631   5.97110703
1722.00 -32.51139301   5.99159397
1724.00 -32.59378527   6.01212647
1726.00 -32.67626305   6.03270456
1728.00 -32.75882632   6.05332830
1730.00 -32.84147505   6.07399772
1732.00 -32.92420921   6.09471288
1734.00 -33.00702876   6.11547380
1736.00 -33.08993366   6.13628055
1738.00 -33.17292389   6.15713315
1740.00 -33.25599941   6.17803166
1742.00 -33.33916018   6.19897611
1744.00 -33.42240618   6.21996655
1746.00 -33.50573737   6.24100303
1748.00 -33.58915372   6.26208558
1750.00 -33.67265519   6.28321426
1752.00 -33.75624174   6.30438909
1754.00 -33.83991336   6.32561013
1756.00 -33.92366999   6.34687743
1758.00 -34.00751161   6.36819101
1760.00 -34.09143819   6.38955093
1762.00 -34.17544969   6.41095722
1764.00 -34.25954607   6.43240994
1766.00 -34.34372730   6.45390912
1768.00 -34.42799336   6.47545481
1770.00 -34.51234420   6.49704705
1772.00 -34.59677979   6.51868588
1774.00 -34.68130009   6.54037135
1776.00 -34.76590508   6.56210350
1778.00 -34.85059472   6.58388236
1780.00 -34.93536898   6.60570800
1782.00 -35.02022781   6.62758043
1784.00 -35.10517119   6.64949972
1786.00 -35.19019908   6.67146590
1788.00 -35.27531145   6.69347902
1790.00 -35.36050827   6.71553911
1792.00 -35.44578949   6.73764622
1794.00 -35.53115509   6.75980039
1796.00 -35.61660503   6.78200167
1798.00 -35.70213928   6.80425010
1800.00 -35.78775780   6.82654571
1802.00 -35.87346056   6.84888856
1804.00 -35.95924753   6.87127868
1806.00 -36.04511866   6.89371612
1808.00 -36.13107393   6.91620092
1810.00 -36.21711330   6.93873312
1812.00 -36.30323673   6.96131276
1814.00 -36.38944420   6.98393989
1816.00 -36.47573566   7.00661455
1818.00 -36.56211109   7.02933677
1820.00 -36.64857044   7.05210661
1822.00 -36.73511369   7.07492411
1824.00 -36.82174079   7.09778930
1826.00 -36.90845172   7.12070223
1828.00 -36.99524644   7.14366294
1830.00 -37.08212491   7.16667147
1832.00 -37.16908711   7.18972787
1834.00 -37.25613299   7.21283217
1836.00 -37.34326251   7.23598442
1838.00 -37.43047566   7.25918466
1840.00 -37.51777238   7.28243294
1842.00 -37.60515265   7.30572928
1844.00 -37.69261643   7.32907374
1846.00 -37.78016368   7.35246636
1848.00 -37.86779438   7.37590718
1850.00 -37.95550848   7.39939624
1852.00 -38.04330595   7.42293358
1854.00 -38.13118676   7.44651924
1856.00 -38.21915087   7.47015327
1858.00 -38.30719824   7.49383571
1860.00 -38.39532885   7.51756659
1862.00 -38.48354265   7.54134597
1864.00 -38.57183960   7.56517387
1866.00 -38.66021969   7.58905035
1868.00 -38.74868286   7.61297544
1870.00 -38.83722909   7.63694919
1872.00 -38.92585833   7.66097163
1874.00 -39.01457056   7.68504281
1876.00 -39.10336574   7.70916278
1878.00 -39.19224383   7.73333156
1880.00 -39.28120480   7.75754920
1882.00 -39.37024861   7.78181574
1884.00 -39.45937523   7.80613123
1886.00 -39.54858462   7.83049570
1888.00 -39.63787674   7.85490920
1890.00 -39.72725157   7.87937177
1892.00 -39.81670906   7.90388344
1894.00 -39.90624918   7.92844427
1896.00 -39.99587189   7.95305428
1898.00 -40.08557716   7.97771352
1900.00 -40.17536495   8.00242204
1902.00 -40.26523523   8.02717986
1904.00 -40.35518796   8.05198705
1906.00 -40.44522310   8.07684362
1908.00 -40.53534063   8.10174963
1910.00 -40.62554050   8.12670511
1912.00 -40.71582267   8.15171011
1914.00 -40.80618712   8.17676467
1916.00 -40.89663380   8.20186882
1918.00 -40.98716269   8.22702262
1920.00 -41.07777374   8.25222609
1922.00 -41.16846691   8.27747928
1924.00 -41.25924218   8.30278223
1926.00 -41.35009951   8.32813497
1928.00 -41.44103885   8.35353756
1930.00 -41.53206019   8.37899003
1932.00 -41.62316346   8.40449242
1934.00 -41.71434866   8.43004478
1936.00 -41.80561572   8.45564713
1938.00 -41.89696463   8.48129952
1940.00 -41.98839535   8.50700200
1942.00 -42.07990783   8.53275460
1944.00 -42.17150204   8.55855736
1946.00 -42.26317794   8.58441033
1948.00 -42.35493551   8.61031354
1950.00 -42.44677470   8.63626703
1952.00 -42.53869548   8.66227084
1954.00 -42.63069780   8.68832501
1956.00 -42.72278164   8.71442959
1958.00 -42.81494696   8.74058461
1960.00 -42.90719372   8.76679012
1962.00 -42.99952188   8.79304614
1964.00 -43.09193142   8.81935273
1966.00 -43.18442228   8.84570992
1968.00 -43.27699444   8.87211775
1970.00 -43.36964786   8.89857627
1972.00 -43.46238250   8.92508550
1974.00 -43.55519832   8.95164550
1976.00 -43.64809530   8.97825629
1978.00 -43.74107339   9.00491793
1980.00 -43.83413255   9.03163044
1982.00 -43.92727275   9.05839388
1984.00 -44.02049396   9.08520827
1986.00 -44.11379613   9.11207367
1988.00 -44.20717923   9.13899009
1990.00 -44.30064322   9.16595760
1992.00 -44.39418807   9.19297623
1994.00 -44.48781374   9.22004600
1996.00 -44.58152019   9.24716698
1998.00 -44.67530738   9.27433919
2000.00 -44.76917529   9.30156267
2002.00 -44.86312386   9.32883747
2004.00 -44.95715307   9.35616361
2006.00 -45.05126287   9.38354115
2008.00 -45.14545324   9.41097012
2010.00 -45.23972413   9.43845056
2012.00 -45.33407550   9.46598251
2014.00 -45.42850733   9.49356600
2016.00 -45.52301957   9.52120108
2018.00 -45.61761218   9.54888779
2020.00 -45.71228513   9.57662616
2022.00 -45.80703838   9.60441623
2024.00 -45.90187190   9.63225805
2026.00 -45.99678564   9.66015165
2028.00 -46.09177957   9.68809706
2030.00 -46.18685366   9.71609434
2032.00 -46.28200786   9.74414351
2034.00 -46.37724214   9.77224462
2036.00 -46.47255645   9.80039770
2038.00 -46.56795077   9.82860280
2040.00 -46.66342506   9.85685994
2042.00 -46.75897927   9.88516918
2044.00 -46.85461338   9.91353055
2046.00 -46.95032734   9.94194408
2048.00 -47.04612111   9.97040982
2050.00 -47.14199467   9.99892781
2052.00 -47.23794796  10.02749807
2054.00 -47.33398096  10.05612066
2056.00 -47.43009363  10.08479561
2058.00 -47.52628592  10.11352295
2060.00 -47.62255781  10.14230273
2062.00 -47.71890924  10.17113498
2064.00 -47.81534020  10.20001975
2066.00 -47.91185063  10.22895707
2068.00 -48.00844050  10.25794697
2070.00 -48.10510978  10.28698950
2072.00 -48.20185842  10.31608470
2074.00 -48.29868639  10.34523260
2076.00 -48.39559365  10.37443324
2078.00 -48.49258015  10.40368666
2080.00 -48.58964588  10.43299289
2082.00 -48.68679078  10.46235198
2084.00 -48.78401482  10.49176397
2086.00 -48.88131795  10.52122888
2088.00 -48.97870016  10.55074676
2090.00 -49.07616138  10.58031764
2092.00 -49.17370159  10.60994157
2094.00 -49.27132076  10.63961858
2096.00 -49.36901883  10.66934871
2098.00 -49.46679577  10.69913200
2100.00 -49.56465155  10.72896848
2102.00 -49.66258613  10.75885819
2104.00 -49.76059947  10.78880117
2106.00 -49.85869152  10.81879746
2108.00 -49.95686226  10.84884709
2110.00 -50.05511165  10.87895010
2112.00 -50.15343964  10.90910653
2114.00 -50.25184619  10.93931642
2116.00 -50.35033128  10.96957980
2118.00 -50.44889486  10.99989671
2120.00 -50.54753689  11.03026719
2122.00 -50.64625734  11.06069127
2124.00 -50.74505616  11.09116900
2126.00 -50.84393333  11.12170041
2128.00 -50.94288879  11.15228553
2130.00 -51.04192252  11.18292441
2132.00 -51.14103446  11.21361708
2134.00 -51.24022460  11.24436358
2136.00 -51.33949288  11.27516394
2138.00 -51.43883927  11.30601820
2140.00 -51.53826373  11.33692640
2142.00 -51.63776622  11.36788858
2144.00 -51.73734670  11.39890477
2146.00 -51.83700514  11.42997501
2148.00 -51.93674149  11.46109934
2150.00 -52.03655572  11.49227779
2152.00 -52.13644779  11.52351039
2154.00 -52.23641766  11.55479720
2156.00 -52.33646529  11.58613824
2158.00 -52.43659064  11.61753354
2160.00 -52.53679368  11.64898316
2162.00 -52.63707436  11.68048711
2164.00 -52.73743265  11.71204545
2166.00 -52.83786851  11.74365820
2168.00 -52.93838190  11.77532540
2170.00 -53.03897278  11.80704710
2172.00 -53.13964110  11.83882331
2174.00 -53.24038685  11.87065409
2176.00 -53.34120996  11.90253946
2178.00 -53.44211041  11.93447947
2180.00 -53.54308816  11.96647415
2182.00 -53.64414317  11.99852354
2184.00 -53.74527539  12.03062767
2186.00 -53.84648479  12.06278657
2188.00 -53.94777134  12.09500030
2190.00 -54.04913498  12.12726887
2192.00 -54.15057569  12.15959233
2194.00 -54.25209342  12.19197071
2196.00 -54.35368814  12.22440405
2198.00 -54.45535980  12.25689238
2200.00 -54.55710836  12.28943575
2202.00 -54.65893380  12.32203418
2204.00 -54.76083606  12.35468772
2206.00 -54.86281512  12.38739639
2208.00 -54.96487092  12.42016024
2210.00 -55.06700343  12.45297929
2212.00 -55.16921262  12.48585360
2214.00 -55.27149843  12.51878318
2216.00 -55.37386084  12.55176808
2218.00 -55.47629981  12.58480833
2220.00 -55.57881529  12.61790397
2222.00 -55.68140724  12.65105503
2224.00 -55.78407563  12.68426155
2226.00 -55.88682042  12.71752357
2228.00 -55.98964156  12.75084111
2230.00 -56.09253902  12.78421423
2232.00 -56.19551276  12.81764294
2234.00 -56.29856274  12.85112728
2236.00 -56.40168892  12.88466730
2238.00 -56.50489125  12.91826302
2240.00 -56.60816971  12.95191449
2242.00 -56.71152425  12.98562173
2244.00 -56.81495484  13.01938479
2246.00 -56.91846142  13.05320369
2248.00 -57.02204397  13.08707847
2250.00 -57.12570244  13.12100917
2252.00 -57.22943679  13.15499582
2254.00 -57.33324699  13.18903846
2256.00 -57.43713299  13.22313712
2258.00 -57.54109475  13.25729184
2260.00 -57.64513224  13.29150265
2262.00 -57.74924542  13.32576958
2264.00 -57.85343424  13.36009268
2266.00 -57.95769866  13.39447198
2268.00 -58.06203865  13.42890750
2270.00 -58.16645417  13.46339929
2272.00 -58.27094518  13.49794738
2274.00 -58.37551163  13.53255181
2276.00 -58.48015349  13.56721260
2278.00 -58.58487071  13.60192980
2280.00 -58.68966326  13.63670344
2282.00 -58.79453110  13.67153355
2284.00 -58.89947419  13.70642017
2286.00 -59.00449248  13.74136333
2288.00 -59.10958594  13.77636306
2290.00 -59.21475453  13.81141941
2292.00 -59.31999821  13.84653240
2294.00 -59.42531693  13.88170207
2296.00 -59.53071066  13.91692846
2298.00 -59.63617936  13.95221159
2300.00 -59.74172299  13.98755151
2302.00 -59.84734150  14.02294824
2304.00 -59.95303486  14.05840182
2306.00 -60.05880303  14.09391228
2308.00 -60.16464596  14.12947967
2310.00 -60.27056362  14.16510400
2312.00 -60.37655597  14.20078532
2314.00 -60.48262296  14.23652367
2316.00 -60.58876456  14.27231906
2318.00 -60.69498073  14.30817155
2320.00 -60.80127142  14.34408115
2322.00 -60.90763660  14.38004792
2324.00 -61.01407623  14.41607187
2326.00 -61.12059025  14.45215304
2328.00 -61.22717865  14.48829147
2330.00 -61.33384137  14.52448719
2332.00 -61.44057837  14.56074024
2334.00 -61.54738961  14.59705064
2336.00 -61.65427506  14.63341844
2338.00 -61.76123468  14.66984366
2340.00 -61.86826841  14.70632634
2342.00 -61.97537623  14.74286651
2344.00 -62.08255809  14.77946420
2346.00 -62.18981395  14.81611946
2348.00 -62.29714377  14.85283230
2350.00 -62.40454751  14.88960277
2352.00 -62.51202513  14.92643090
2354.00 -62.61957659  14.96331672
2356.00 -62.72720185  15.00026027
2358.00 -62.83490086  15.03726157
2360.00 -62.94267360  15.07432066
2362.00 -63.05052001  15.11143758
2364.00 -63.15844005  15.14861236
2366.00 -63.26643370  15.18584502
2368.00 -63.37450089  15.22313562
2370.00 -63.48264160  15.26048416
2372.00 -63.59085579  15.29789070
2374.00 -63.69914341  15.33535525
2376.00 -63.80750442  15.37287787
2378.00 -63.91593878  15.41045857
2380.00 -64.02444645  15.44809739
2382.00 -64.13302739  15.48579436
2384.00 -64.24168157  15.52354953
2386.00 -64.35040893  15.56136290
2388.00 -64.45920943  15.59923454
2390.00 -64.56808305  15.63716445
2392.00 -64.67702972  15.67515268
2394.00 -64.78604943  15.71319926
2396.00 -64.89514212  15.75130423
2398.00 -65.00430775  15.78946760
2400.00 -65.11354628  15.82768943
2402.00 -65.22285767  15.86596973
2404.00 -65.33224189  15.90430854
2406.00 -65.44169888  15.94270590
2408.00 -65.55122861  15.98116183
2410.00 -65.66083104  16.01967637
2412.00 -65.77050613  16.05824955
2414.00 -65.88025383  16.09688141
2416.00 -65.99007410  16.13557197
2418.00 -66.09996691  16.17432126
2420.00 -66.20993221  16.21312933
2422.00 -66.31996996  16.25199619
2424.00 -66.43008012  16.29092189
2426.00 -66.54026264  16.32990646
2428.00 -66.65051750  16.36894992
2430.00 -66.76084464  16.40805231
2432.00 -66.87124403  16.44721366
2434.00 -66.98171562  16.48643400
2436.00 -67.09225937  16.52571337
2438.00 -67.20287524  16.56505179
2440.00 -67.31356320  16.60444930
2442.00 -67.42432319  16.64390594
2444.00 -67.53515518  16.68342172
2446.00 -67.64605912  16.72299668
2448.00 -67.75703498  16.76263086
2450.00 -67.86808272  16.80232429
2452.00 -67.97920229  16.84207699
2454.00 -68.09039364  16.88188900
2456.00 -68.20165675  16.92176036
2458.00 -68.31299156  16.96169108
2460.00 -68.42439804  17.00168121
2462.00 -68.53587615  17.04173077
2464.00 -68.64742584  17.08183980
2466.00 -68.75904707  17.12200832
2468.00 -68.87073980  17.16223638
2470.00 -68.98250400  17.20252399
2472.00 -69.09433960  17.24287119
2474.00 -69.20624659  17.28327802
2476.00 -69.31822491  17.32374450
2478.00 -69.43027452  17.36427066
2480.00 -69.54239539  17.40485654
2482.00 -69.65458746  17.44550216
2484.00 -69.76685071  17.48620757
2486.00 -69.87918508  17.52697278
2488.00 -69.99159053  17.56779782
2490.00 -70.10406703  17.60868274
2492.00 -70.21661453  17.64962756
2494.00 -70.32923299  17.69063231
2496.00 -70.44192237  17.73169702
2498.00 -70.55468262  17.77282172
2500.00 -70.66751371  17.81400645
2502.00 -70.78041560  17.85525123
2504.00 -70.89338823  17.89655610
2506.00 -71.00643158  17.93792108
2508.00 -71.11954559  17.97934621
2510.00 -71.23273023  18.02083151
2512.00 -71.34598545  18.06237702
2514.00 -71.45931121  18.10398277
2516.00 -71.57270748  18.14564878
2518.00 -71.68617420  18.18737509
2520.00 -71.79971135  18.22916173
2522.00 -71.91331886  18.27100873
2524.00 -72.02699671  18.31291612
2526.00 -72.14074485  18.35488392
2528.00 -72.25456324  18.39691218
2530.00 -72.36845184  18.43900091
2532.00 -72.48241060  18.48115016
2534.00 -72.59643949  18.52335994
2536.00 -72.71053846  18.56563029
2538.00 -72.82470746  18.60796124
2540.00 -72.93894647  18.65035282
2542.00 -73.05325543  18.69280506
2544.00 -73.16763430  18.73531799
2546.00 -73.28208304  18.77789164
2548.00 -73.39660162  18.82052604
2550.00 -73.51118998  18.86322121
2552.00 -73.62584808  18.90597720
2554.00 -73.74057589  18.94879402
2556.00 -73.85537336  18.99167171
2558.00 -73.97024045  19.03461029
2560.00 -74.08517711  19.07760981
2562.00 -74.20018331  19.12067028
2564.00 -74.31525900  19.16379173
2566.00 -74.43040414  19.20697420
2568.00 -74.54561869  19.25021772
2570.00 -74.66090260  19.29352231
2572.00 -74.77625584  19.33688801
2574.00 -74.89167835  19.38031484
2576.00 -75.00717011  19.42380283
2578.00 -75.12273106  19.46735201
2580.00 -75.23836117  19.51096241
2582.00 -75.35406039  19.55463407
2584.00 -75.46982868  19.59836700
2586.00 -75.58566599  19.64216124
2588.00 -75.70157229  19.68601682
2590.00 -75.81754753  19.72993377
2592.00 -75.93359167  19.77391211
2594.00 -76.04970467  19.81795187
2596.00 -76.16588649  19.86205309
2598.00 -76.28213708  19.90621580
2600.00 -76.39845639  19.95044001
2602.00 -76.51484440  19.99472576
2604.00 -76.63130105  20.03907309
2606.00 -76.74782631  20.08348201
2608.00 -76.86442012  20.12795256
2610.00 -76.98108246  20.17248476
2612.00 -77.09781326  20.21707865
2614.00 -77.21461251  20.26173425
2616.00 -77.33148014  20.30645159
2618.00 -77.44841612  20.35123070
2620.00 -77.56542040  20.39607161
2622.00 -77.68249295  20.44097435
2624.00 -77.79963372  20.48593894
2626.00 -77.91684267  20.53096542
2628.00 -78.03411975  20.57605381
2630.00 -78.15146492  20.62120414
2632.00 -78.26887815  20.66641644
2634.00 -78.38635938  20.71169073
2636.00 -78.50390857  20.75702705
2638.00 -78.62152569  20.80242543
2640.00 -78.73921069  20.84788588
2642.00 -78.85696352  20.89340845
2644.00 -78.97478415  20.93899315
2646.00 -79.09267252  20.98464002
2648.00 -79.21062861  21.03034909
2650.00 -79.32865236  21.07612037
2652.00 -79.44674373  21.12195391
2654.00 -79.56490269  21.16784972
2656.00 -79.68312918  21.21380785
2658.00 -79.80142316  21.25982830
2660.00 -79.91978460  21.30591112
2662.00 -80.03821344  21.35205632
2664.00 -80.15670965  21.39826394
2666.00 -80.27527319  21.44453401
2668.00 -80.39390400  21.49086655
2670.00 -80.51260205  21.53726159
2672.00 -80.63136730  21.58371916
2674.00 -80.75019970  21.63023928
2676.00 -80.86909920  21.67682198
2678.00 -80.98806578  21.72346730
2680.00 -81.10709937  21.77017525
2682.00 -81.22619995  21.81694587
2684.00 -81.34536746  21.86377918
2686.00 -81.46460186  21.91067521
2688.00 -81.58390312  21.95763399
2690.00 -81.70327118  22.00465555
2692.00 -81.82270601  22.05173990
2694.00 -81.94220756  22.09888708
2696.00 -82.06177579  22.14609712
2698.00 -82.18141066  22.19337005
2700.00 -82.30111212  22.24070588
2702.00 -82.42088013  22.28810465
2704.00 -82.54071464  22.33556639
2706.00 -82.66061562  22.38309111
2708.00 -82.78058302  22.43067886
2710.00 -82.90061680  22.47832965
2712.00 -83.02071691  22.52604351
2714.00 -83.14088331  22.57382047
2716.00 -83.26111596  22.62166056
2718.00 -83.38141482  22.66956380
2720.00 -83.50177984  22.71753022
2722.00 -83.62221097  22.76555985
2724.00 -83.74270818  22.81365271
2726.00 -83.86327143  22.86180882
2728.00 -83.98390066  22.91002823
2730.00 -84.10459584  22.95831095
2732.00 -84.22535692  23.00665700
2734.00 -84.34618386  23.05506642
2736.00 -84.46707662  23.10353924
2738.00 -84.58803514  23.15207547
2740.00 -84.70905940  23.20067514
2742.00 -84.83014935  23.24933829
2744.00 -84.95130494  23.29806494
2746.00 -85.07252612  23.34685511
2748.00 -85.19381287  23.39570883
2750.00 -85.31516512  23.44462612
2752.00 -85.43658285  23.49360702
2754.00 -85.55806600  23.54265154
2756.00 -85.67961454  23.59175972
2758.00 -85.80122842  23.64093159
2760.00 -85.92290759  23.69016715
2762.00 -86.04465201  23.73946646
2764.00 -86.16646165  23.78882951
2766.00 -86.28833645  23.83825636
2768.00 -86.41027637  23.88774701
2770.00 -86.53228137  23.93730150
2772.00 -86.65435141  23.98691986
2774.00 -86.77648644  24.03660210
2776.00 -86.89868642  24.08634825
2778.00 -87.02095131  24.13615834
2780.00 -87.14328106  24.18603240
2782.00 -87.26567562  24.23597045
2784.00 -87.38813496  24.28597252
2786.00 -87.51065903  24.33603862
2788.00 -87.63324779  24.38616880
2790.00 -87.75590120  24.43636306
2792.00 -87.87861920  24.48662145
2794.00 -88.00140177  24.53694398
2796.00 -88.12424884  24.58733067
2798.00 -88.24716039  24.63778156
2800.00 -88.37013636  24.68829668
2802.00 -88.49317672  24.73887603
2804.00 -88.61628141  24.78951966
2806.00 -88.73945041  24.84022758
2808.00 -88.86268365  24.89099982
2810.00 -88.98598110  24.94183641
2812.00 -89.10934272  24.99273737
2814.00 -89.23276846  25.04370272
2816.00 -89.35625827  25.09473249
2818.00 -89.47981213  25.14582671
2820.00 -89.60342997  25.19698541
2822.00 -89.72711175  25.24820859
2824.00 -89.85085744  25.29949630
2826.00 -89.97466699  25.35084855
2828.00 -90.09854036  25.40226537
2830.00 -90.22247750  25.45374679
2832.00 -90.34647836  25.50529283
2834.00 -90.47054291  25.55690351
2836.00 -90.59467110  25.60857886
2838.00 -90.71886289  25.66031890
2840.00 -90.84311823  25.71212366
2842.00 -90.96743708  25.76399317
2844.00 -91.09181939  25.81592744
2846.00 -91.21626513  25.86792650
2848.00 -91.34077424  25.91999038
2850.00 -91.46534669  25.97211910
2852.00 -91.58998243  26.02431269
2854.00 -91.71468142  26.07657116
2856.00 -91.83944361  26.12889455
2858.00 -91.96426895  26.18128287
2860.00 -92.08915742  26.23373616
2862.00 -92.21410895  26.28625444
2864.00 -92.33912351  26.33883772
2866.00 -92.46420105  26.39148604
2868.00 -92.58934154  26.44419942
2870.00 -92.71454492  26.49697788
2872.00 -92.83981115  26.54982144
2874.00 -92.96514019  26.60273014
2876.00 -93.09053199  26.65570399
2878.00 -93.21598651  26.70874302
2880.00 -93.34150371  26.76184725
2882.00 -93.46708354  26.81501671
2884.00 -93.59272596  26.86825142
2886.00 -93.71843092  26.92155140
2888.00 -93.84419838  26.97491668
2890.00 -93.97002830  27.02834728
2892.00 -94.09592063  27.08184323
2894.00 -94.22187533  27.13540454
2896.00 -94.34789235  27.18903125
2898.00 -94.47397166  27.24272337
2900.00 -94.60011320  27.29648093
2902.00 -94.72631693  27.35030395
2904.00 -94.85258281  27.40419246
2906.00 -94.97891079  27.45814648
2908.00 -95.10530083  27.51216603
2910.00 -95.23175289  27.56625114
2912.00 -95.35826692  27.62040183
2914.00 -95.48484288  27.67461812
2916.00 -95.61148072  27.72890003
2918.00 -95.73818041  27.78324759
2920.00 -95.86494188  27.83766083
2922.00 -95.99176511  27.89213976
2924.00 -96.11865005  27.94668441
2926.00 -96.24559665  28.00129480
2928.00 -96.37260487  28.05597096
2930.00 -96.49967466  28.11071290
2932.00 -96.62680598  28.16552065
2934.00 -96.75399879  28.22039424
2936.00 -96.88125305  28.27533368
2938.00 -97.00856870  28.33033901
2940.00 -97.13594570  28.38541023
2942.00 -97.26338402  28.44054738
2944.00 -97.39088360  28.49575047
2946.00 -97.51844440  28.55101954
2948.00 -97.64606638  28.60635459
2950.00 -97.77374949  28.66175566
2952.00 -97.90149369  28.71722277
2954.00 -98.02929894  28.77275595
2956.00 -98.15716518  28.82835520
2958.00 -98.28509239  28.88402056
2960.00 -98.41308050  28.93975204
2962.00 -98.54112948  28.99554968
2964.00 -98.66923929  29.05141349
2966.00 -98.79740987  29.10734349
2968.00 -98.92564119  29.16333971
2970.00 -99.05393320  29.21940217
2972.00 -99.18228586  29.27553089
2974.00 -99.31069912  29.33172589
2976.00 -99.43917293  29.38798720
2978.00 -99.56770726  29.44431484
2980.00 -99.69630206  29.50070883
2982.00 -99.82495728  29.55716919
2984.00 -99.95367289  29.61369594
2986.00 -100.08244882  29.67028912
2988.00 -100.21128506  29.72694872
2990.00 -100.34018153  29.78367479
2992.00 -100.46913822  29.84046734
2994.00 -100.59815506  29.89732640
2996.00 -100.72723201  29.95425197
2998.00 -100.85636903  30.01124410
3000.00 -100.98556608  30.06830279
3002.00 -101.11482311  30.12542808
3004.00 -101.24414008  30.18261998
3006.00 -101.37351694  30.23987851
3008.00 -101.50295365  30.29720369
3010.00 -101.63245016  30.35459556
3012.00 -101.76200643  30.41205412
3014.00 -101.89162242  30.46957940
3016.00 -102.02129807  30.52717142
3018.00 -102.15103335  30.58483021
3020.00 -102.28082822  30.64255578
3022.00 -102.41068262  30.70034815
3024.00 -102.54059651  30.75820735
3026.00 -102.67056985  30.81613340
3028.00 -102.80060259  30.87412632
3030.00 -102.93069469  30.93218613
3032.00 -103.06084611  30.99031285
3034.00 -103.19105680  31.04850650
3036.00 -103.32132671  31.10676711
3038.00 -103.45165581  31.16509469
3040.00 -103.58204404  31.22348927
3042.00 -103.71249136  31.28195086
3044.00 -103.84299773  31.34047949
3046.00 -103.97356310  31.39907518
3048.00 -104.10418744  31.45773795
3050.00 -104.23487068  31.51646782
3052.00 -104.36561280  31.57526481
3054.00 -104.49641374  31.63412894
3056.00 -104.62727346  31.69306023
3058.00 -104.75819191  31.75205871
3060.00 -104.88916906  31.81112439
3062.00 -105.02020486  31.87025730
3064.00 -105.15129925  31.92945745
3066.00 -105.28245221  31.98872486
3068.00 -105.41366368  32.04805956
3070.00 -105.54493361  32.10746157
3072.00 -105.67626197  32.16693091
3074.00 -105.80764871  32.22646759
3076.00 -105.93909378  32.28607164
3078.00 -106.07059715  32.34574308
3080.00 -106.20215876  32.40548192
3082.00 -106.33377857  32.46528820
3084.00 -106.46545653  32.52516192
3086.00 -106.59719261  32.58510311
3088.00 -106.72898675  32.64511179
3090.00 -106.86083892  32.70518799
3092.00 -106.99274907  32.76533171
3094.00 -107.12471714  32.82554297
3096.00 -107.25674311  32.88582181
3098.00 -107.38882692  32.94616824
3100.00 -107.52096853  33.00658228
3102.00 -107.65316789  33.06706394
3104.00 -107.78542496  33.12761326
3106.00 -107.91773970  33.18823024
3108.00 -108.05011206  33.24891491
3110.00 -108.18254199  33.30966730
3112.00 -108.31502946  33.37048740
3114.00 -108.44757441  33.43137526
3116.00 -108.58017680  33.49233089
3118.00 -108.71283659  33.55335430
3120.00 -108.84555373  33.61444551
3122.00 -108.97832818  33.67560456
3124.00 -109.11115989  33.73683145
3126.00 -109.24404883  33.79812620
3128.00 -109.37699493  33.85948884
3130.00 -109.50999816  33.92091939
3132.00 -109.64305848  33.98241785
3134.00 -109.77617583  34.04398426
3136.00 -109.90935018  34.10561863
3138.00 -110.04258148  34.16732099
3140.00 -110.17586969  34.22909134
3142.00 -110.30921475  34.29092971
3144.00 -110.44261663  34.35283612
3146.00 -110.57607528  34.41481059
3148.00 -110.70959066  34.47685314
3150.00 -110.84316272  34.53896378
3152.00 -110.97679141  34.60114254
3154.00 -111.11047670  34.66338943
3156.00 -111.24421853  34.72570448
3158.00 -111.37801687  34.78808769
3160.00 -111.51187166  34.85053910
3162.00 -111.64578286  34.91305872
3164.00 -111.77975044  34.97564656
3166.00 -111.91377433  35.03830266
3168.00 -112.04785450  35.10102702
3170.00 -112.18199091  35.16381966
3172.00 -112.31618351  35.22668061
3174.00 -112.45043224  35.28960987
3176.00 -112.58473708  35.35260748
3178.00 -112.71909797  35.41567345
3180.00 -112.85351487  35.47880780
3182.00 -112.98798774  35.54201054
3184.00 -113.12251652  35.60528170
3186.00 -113.25710118  35.66862128
3188.00 -113.39174167  35.73202933
3190.00 -113.52643795  35.79550584
3192.00 -113.66118996  35.85905083
3194.00 -113.79599767  35.92266434
3196.00 -113.93086103  35.98634637
3198.00 -114.06578000  36.05009694
3200.00 -114.20075453  36.11391607
3202.00 -114.33578457  36.17780378
3204.00 -114.47087008  36.24176009
3206.00 -114.60601102  36.30578501
3208.00 -114.74120734  36.36987857
3210.00 -114.87645900  36.43404078
3212.00 -115.01176595  36.49827165
3214.00 -115.14712815  36.56257122
3216.00 -115.28254555  36.62693949
3218.00 -115.41801810  36.69137648
3220.00 -115.55354577  36.75588221
3222.00 -115.68912851  36.82045670
3224.00 -115.82476626  36.88509996
3226.00 -115.96045900  36.94981202
3228.00 -116.09620666  37.01459290
3230.00 -116.23200922  37.07944260
3232.00 -116.36786662  37.14436114
3234.00 -116.50377881  37.20934855
3236.00 -116.63974576  37.27440485
3238.00 -116.77576742  37.33953004
3240.00 -116.91184374  37.40472415
3242.00 -117.04797467  37.46998719
3244.00 -117.18416018  37.53531919
3246.00 -117.32040022  37.60072015
3248.00 -117.45669475  37.66619010
3250.00 -117.59304371  37.73172905
3252.00 -117.72944706  37.79733703
3254.00 -117.86590477  37.86301404
3256.00 -118.00241677  37.92876011
3258.00 -118.13898304  37.99457525
3260.00 -118.27560352  38.06045948
3262.00 -118.41227817  38.12641281
3264.00 -118.54900694  38.19243527
3266.00 -118.68578980  38.25852687
3268.00 -118.82262668  38.32468763
3270.00 -118.95951756  38.39091756
3272.00 -119.09646238  38.45721668
3274.00 -119.23346110  38.52358502
3276.00 -119.37051367  38.59002257
3278.00 -119.50762005  38.65652937
3280.00 -119.64478020  38.72310543
3282.00 -119.78199407  38.78975076
3284.00 -119.91926161  38.85646538
3286.00 -120.05658278  38.92324932
3288.00 -120.19395753  38.99010258
3290.00 -120.33138583  39.05702518
3292.00 -120.46886762  39.12401713
3294.00 -120.60640286  39.19107847
3296.00 -120.74399150  39.25820919
3298.00 -120.88163351  39.32540933
3300.00 -121.01932882  39.39267888
3302.00 -121.15707741  39.46001788
3304.00 -121.29487923  39.52742634
3306.00 -121.43273422  39.59490427
3308.00 -121.57064235  39.66245168
3310.00 -121.70860357  39.73006861
3312.00 -121.84661783  39.79775506
3314.00 -121.98468509  39.86551104
3316.00 -122.12280531  39.93333658
3318.00 -122.26097844  40.00123169
3320.00 -122.39920443  40.06919638
3322.00 -122.53748324  40.13723068
3324.00 -122.67581483  40.20533460
3326.00 -122.81419915  40.27350815
3328.00 -122.95263615  40.34175135
3330.00 -123.09112580  40.41006422
3332.00 -123.22966804  40.47844677
3334.00 -123.36826282  40.54689902
3336.00 -123.50691012  40.61542098
3338.00 -123.64560987  40.68401267
3340.00 -123.78436204  40.75267411
3342.00 -123.92316658  40.82140531
3344.00 -124.06202344  40.89020628
3346.00 -124.20093259  40.95907705
3348.00 -124.33989397  41.02801762
3350.00 -124.47890754  41.09702802
3352.00 -124.61797325  41.16610826
3354.00 -124.75709107  41.23525835
3356.00 -124.89626094  41.30447831
3358.00 -125.03548282  41.37376816
3360.00 -125.17475666  41.44312790
3362.00 -125.31408242  41.51255757
3364.00 -125.45346007  41.58205716
3366.00 -125.59288954  41.65162670
3368.00 -125.73237079  41.72126620
3370.00 -125.87190379  41.79097568
3372.00 -126.01148848  41.86075515
3374.00 -126.15112482  41.93060463
3376.00 -126.29081276  42.00052413
3378.00 -126.43055227  42.07051366
3380.00 -126.57034329  42.14057325
3382.00 -126.71018578  42.21070291
3384.00 -126.85007969  42.28090265
3386.00 -126.99002499  42.35117249
3388.00 -127.13002162  42.42151243
3390.00 -127.27006954  42.49192251
3392.00 -127.41016871  42.56240273
3394.00 -127.55031907  42.63295310
3396.00 -127.69052059  42.70357365
3398.00 -127.83077322  42.77426438
3400.00 -127.97107692  42.84502531
3402.00 -128.11143163  42.91585645
3404.00 -128.25183732  42.98675783
3406.00 -128.39229394  43.05772945
3408.00 -128.53280145  43.12877133
3410.00 -128.67335979  43.19988349
3412.00 -128.81396893  43.27106593
3414.00 -128.95462882  43.34231867
3416.00 -129.09533941  43.41364174
3418.00 -129.23610067  43.48503513
3420.00 -129.37691254  43.55649887
3422.00 -129.51777497  43.62803297
3424.00 -129.65868794  43.69963744
3426.00 -129.79965138  43.77131230
3428.00 -129.94066526  43.84305756
3430.00 -130.08172953  43.91487324
3432.00 -130.22284414  43.98675935
3434.00 -130.36400905  44.05871591
3436.00 -130.50522422  44.13074292
3438.00 -130.64648960  44.20284041
3440.00 -130.78780514  44.27500839
3442.00 -130.92917080  44.34724686
3444.00 -131.07058653  44.41955585
3446.00 -131.21205230  44.49193537
3448.00 -131.35356805  44.56438544
3450.00 -131.49513374  44.63690606
3452.00 -131.63674932  44.70949725
3454.00 -131.77841476  44.78215902
3456.00 -131.92013000  44.85489139
3458.00 -132.06189500  44.92769437
3460.00 -132.20370971  45.00056798
3462.00 -132.34557409  45.07351223
3464.00 -132.48748810  45.14652713
3466.00 -132.62945169  45.21961269
3468.00 -132.77146481  45.29276894
3470.00 -132.91352742  45.36599587
3472.00 -133.05563948  45.43929352
3474.00 -133.19780094  45.51266188
3476.00 -133.34001175  45.58610098
3478.00 -133.48227187  45.65961082
3480.00 -133.62458126  45.73319142
3482.00 -133.76693986  45.80684280
3484.00 -133.90934764  45.88056496
3486.00 -134.05180455  45.95435792
3488.00 -134.19431055  46.02822169
3490.00 -134.33686558  46.10215629
3492.00 -134.47946961  46.17616173
3494.00 -134.62212259  46.25023802
3496.00 -134.76482448  46.32438518
3498.00 -134.90757522  46.39860321
3500.00 -135.05037478  46.47289214
3502.00 -135.19322311  46.54725197
3504.00 -135.33612016  46.62168271
3506.00 -135.47906590  46.69618439
3508.00 -135.62206027  46.77075700
3510.00 -135.76510323  46.84540058
3512.00 -135.90819473  46.92011512
3514.00 -136.05133474  46.99490064
3516.00 -136.19452320  47.06975716
3518.00 -136.33776007  47.14468468
3520.00 -136.48104530  47.21968322
3522.00 -136.62437886  47.29475279
3524.00 -136.76776069  47.36989341
3526.00 -136.91119075  47.44510508
3528.00 -137.05466900  47.52038782
3530.00 -137.19819539  47.59574165
3532.00 -137.34176987  47.67116656
3534.00 -137.48539240  47.74666259
3536.00 -137.62906294  47.82222973
3538.00 -137.77278144  47.89786800
3540.00 -137.91654786  47.97357742
3542.00 -138.06036214  48.04935799
3544.00 -138.20422426  48.12520973
3546.00 -138.34813415  48.20113265
3548.00 -138.49209178  48.27712676
3550.00 -138.63609710  48.35319208
3552.00 -138.78015007  48.42932861
3554.00 -138.92425063  48.50553637
3556.00 -139.06839876  48.58181538
3558.00 -139.21259439  48.65816563
3560.00 -139.35683749  48.73458715
3562.00 -139.50112802  48.81107994
3564.00 -139.64546592  48.88764403
3566.00 -139.78985115  48.96427941
3568.00 -139.93428367  49.04098611
3570.00 -140.07876343  49.11776413
3572.00 -140.22329038  49.19461348
3574.00 -140.36786449  49.27153418
3576.00 -140.51248571  49.34852624
3578.00 -140.65715399  49.42558967
3580.00 -140.80186928  49.50272449
3582.00 -140.94663155  49.57993069
3584.00 -141.09144075  49.65720831
3586.00 -141.23629683  49.73455734
3588.00 -141.38119974  49.81197779
3590.00 -141.52614945  49.88946969
3592.00 -141.67114591  49.96703304
3594.00 -141.81618907  50.04466785
3596.00 -141.96127889  50.12237414
3598.00 -142.10641532  50.20015191
3600.00 -142.25159832  50.27800117
3602.00 -142.39682785  50.35592195
3604.00 -142.54210385  50.43391424
3606.00 -142.68742629  50.51197807
3608.00 -142.83279511  50.59011343
3610.00 -142.97821029  50.66832035
3612.00 -143.12367176  50.74659883
3614.00 -143.26917948  50.82494889
3616.00 -143.41473341  50.90337053
3618.00 -143.56033351  50.98186377
3620.00 -143.70597973  51.06042862
3622.00 -143.85167203  51.13906508
3624.00 -143.99741035  51.21777318
3626.00 -144.14319466  51.29655291
3628.00 -144.28902491  51.37540430
3630.00 -144.43490106  51.45432735
3632.00 -144.58082305  51.53332207
3634.00 -144.72679086  51.61238847
3636.00 -144.87280442  51.69152657
3638.00 -145.01886370  51.77073637
3640.00 -145.16496866  51.85001789
3642.00 -145.31111924  51.92937113
3644.00 -145.45731540  52.00879612
3646.00 -145.60355710  52.08829284
3648.00 -145.74984429  52.16786133
3650.00 -145.89617693  52.24750158
3652.00 -146.04255497  52.32721361
3654.00 -146.18897838  52.40699744
3656.00 -146.33544709  52.48685306
3658.00 -146.48196107  52.56678049
3660.00 -146.62852028  52.64677973
3662.00 -146.77512467  52.72685081
3664.00 -146.92177419  52.80699373
3666.00 -147.06846880  52.88720850
3668.00 -147.21520845  52.96749514
3670.00 -147.36199311  53.04785364
3672.00 -147.50882272  53.12828402
3674.00 -147.65569724  53.20878629
3676.00 -147.80261662  53.28936047
3678.00 -147.94958083  53.37000655
3680.00 -148.09658982  53.45072456
3682.00 -148.24364353  53.53151450
3684.00 -148.39074193  53.61237638
3686.00 -148.53788498  53.69331021
3688.00 -148.68507262  53.77431600
3690.00 -148.83230482  53.85539376
3692.00 -148.97958152  53.93654350
3694.00 -149.12690268  54.01776523
3696.00 -149.27426827  54.09905896
3698.00 -149.42167823  54.18042470
3700.00 -149.56913252  54.26186245
3702.00 -149.71663109  54.34337224
3704.00 -149.86417390  54.42495406
3706.00 -150.01176091  54.50660794
3708.00 -150.15939207  54.58833386
3710.00 -150.30706733  54.67013186
3712.00 -150.45478665  54.75200193
3714.00 -150.60255000  54.83394409
3716.00 -150.75035731  54.91595834
3718.00 -150.89820855  54.99804470
3720.00 -151.04610367  55.08020316
3722.00 -151.19404263  55.16243376
3724.00 -151.34202538  55.24473648
3726.00 -151.49005189  55.32711134
3728.00 -151.63812209  55.40955836
3730.00 -151.78623596  55.49207754
3732.00 -151.93439344  55.57466888
3734.00 -152.08259449  55.65733240
3736.00 -152.23083906  55.74006811
3738.00 -152.37912712  55.82287601
3740.00 -152.52745861  55.90575612
3742.00 -152.67583350  55.98870844
3744.00 -152.82425173  56.07173299
3746.00 -152.97271326  56.15482976
3748.00 -153.12121805  56.23799878
3750.00 -153.26976606  56.32124005
3752.00 -153.41835723  56.40455357
3754.00 -153.56699153  56.48793936
3756.00 -153.71566891  56.57139743
3758.00 -153.86438932  56.65492778
3760.00 -154.01315272  56.73853043
3762.00 -154.16195907  56.82220537
3764.00 -154.31080832  56.90595263
3766.00 -154.45970043  56.98977220
3768.00 -154.60863535  57.07366410
3770.00 -154.75761303  57.15762834
3772.00 -154.90663344  57.24166492
3774.00 -155.05569653  57.32577385
3776.00 -155.20480225  57.40995515
3778.00 -155.35395056  57.49420881
3780.00 -155.50314142  57.57853486
3782.00 -155.65237478  57.66293328
3784.00 -155.80165059  57.74740411
3786.00 -155.95096882  57.83194733
3788.00 -156.10032941  57.91656297
3790.00 -156.24973233  58.00125102
3792.00 -156.39917752  58.08601150
3794.00 -156.54866495  58.17084442
3796.00 -156.69819457  58.25574978
3798.00 -156.84776633  58.34072759
3800.00 -156.99738019  58.42577787
3802.00 -157.14703611  58.51090061
3804.00 -157.29673404  58.59609582
3806.00 -157.44647393  58.68136352
3808.00 -157.59625575  58.76670371
3810.00 -157.74607945  58.85211639
3812.00 -157.89594498  58.93760159
3814.00 -158.04585230  59.02315930
3816.00 -158.19580136  59.10878953
3818.00 -158.34579213  59.19449229
3820.00 -158.49582455  59.28026759
3822.00 -158.64589858  59.36611544
3824.00 -158.79601418  59.45203584
3826.00 -158.94617131  59.53802880
3828.00 -159.09636991  59.62409432
3830.00 -159.24660995  59.71023243
3832.00 -159.39689137  59.79644312
3834.00 -159.54721414  59.88272639
3836.00 -159.69757822  59.96908227
3838.00 -159.84798355  60.05551075
3840.00 -159.99843009  60.14201185
3842.00 -160.14891780  60.22858556
3844.00 -160.29944663  60.31523191
3846.00 -160.45001655  60.40195089
3848.00 -160.60062750  60.48874251
3850.00 -160.75127944  60.57560678
3852.00 -160.90197232  60.66254371
3854.00 -161.05270611  60.74955330
3856.00 -161.20348076  60.83663556
3858.00 -161.35429622  60.92379050
3860.00 -161.50515245  61.01101813
3862.00 -161.65604940  61.09831845
3864.00 -161.80698704  61.18569147
3866.00 -161.95796531  61.27313719
3868.00 -162.10898418  61.36065563
3870.00 -162.26004359  61.44824678
3872.00 -162.41114351  61.53591067
3874.00 -162.56228388  61.62364729
3876.00 -162.71346467  61.71145665
3878.00 -162.86468584  61.79933875
3880.00 -163.01594733  61.88729361
3882.00 -163.16724910  61.97532124
3884.00 -163.31859111  62.06342163
3886.00 -163.46997332  62.15159479
3888.00 -163.62139567  62.23984073
3890.00 -163.77285813  62.32815947
3892.00 -163.92436066  62.41655099
3894.00 -164.07590320  62.50501532
3896.00 -164.22748571  62.59355245
3898.00 -164.37910816  62.68216240
3900.00 -164.53077049  62.77084517
3902.00 -164.68247266  62.85960076
3904.00 -164.83421463  62.94842919
3906.00 -164.98599635  63.03733046
3908.00 -165.13781778  63.12630457
3910.00 -165.28967887  63.21535153
3912.00 -165.44157958  63.30447135
3914.00 -165.59351987  63.39366404
3916.00 -165.74549970  63.48292959
3918.00 -165.89751901  63.57226803
3920.00 -166.04957776  63.66167934
3922.00 -166.20167592  63.75116355
3924.00 -166.35381343  63.84072064
3926.00 -166.50599025  63.93035064
3928.00 -166.65820634  64.02005355
3930.00 -166.81046166  64.10982937
3932.00 -166.96275615  64.19967811
3934.00 -167.11508978  64.28959977
3936.00 -167.26746250  64.37959437
3938.00 -167.41987427  64.46966190
3940.00 -167.57232504  64.55980237
3942.00 -167.72481478  64.65001579
3944.00 -167.87734343  64.74030217
3946.00 -168.02991095  64.83066150
3948.00 -168.18251729  64.92109380
3950.00 -168.33516242  65.01159907
3952.00 -168.48784630  65.10217732
3954.00 -168.64056886  65.19282855
3956.00 -168.79333008  65.28355276
3958.00 -168.94612991  65.37434998
3960.00 -169.09896830  65.46522018
3962.00 -169.25184521  65.55616340
3964.00 -169.40476060  65.64717962
3966.00 -169.55771442  65.73826886
3968.00 -169.71070663  65.82943112
3970.00 -169.86373718  65.92066640
3972.00 -170.01680603  66.01197472
3974.00 -170.16991314  66.10335607
3976.00 -170.32305846  66.19481047
3978.00 -170.47624195  66.28633791
3980.00 -170.62946357  66.37793840
3982.00 -170.78272327  66.46961195
3984.00 -170.93602100  66.56135856
3986.00 -171.08935673  66.65317824
3988.00 -171.24273041  66.74507100
3990.00 -171.39614199  66.83703683
3992.00 -171.54959144  66.92907574
3994.00 -171.70307870  67.02118775
3996.00 -171.85660374  67.11337284
3998.00 -172.01016651  67.20563103
4000.00 -172.16376697  67.29796233
4002.00 -172.31740506  67.39036673
4004.00 -172.47108076  67.48284424
4006.00 -172.62479402  67.57539488
4008.00 -172.77854478  67.66801863
4010.00 -172.93233302  67.76071551
4012.00 -173.08615867  67.85348552
4014.00 -173.24002171  67.94632867
4016.00 -173.39392209  68.03924496
4018.00 -173.54785976  68.13223439
4020.00 -173.70183468  68.22529697
4022.00 -173.85584680  68.31843271
4024.00 -174.00989609  68.41164161
4026.00 -174.16398249  68.50492367
4028.00 -174.31810597  68.59827889
4030.00 -174.47226648  68.69170729
4032.00 -174.62646398  68.78520887
4034.00 -174.78069842  68.87878363
4036.00 -174.93496976  68.97243157
4038.00 -175.08927796  69.06615271
4040.00 -175.24362297  69.15994703
4042.00 -175.39800475  69.25381456
4044.00 -175.55242326  69.34775529
4046.00 -175.70687845  69.44176922
4048.00 -175.86137027  69.53585637
4050.00 -176.01589870  69.63001673
4052.00 -176.17046367  69.72425031
4054.00 -176.32506515  69.81855712
4056.00 -176.47970310  69.91293715
4058.00 -176.63437746  70.00739041
4060.00 -176.78908820  70.10191691
4062.00 -176.94383528  70.19651665
4064.00 -177.09861865  70.29118963
4066.00 -177.25343826  70.38593586
4068.00 -177.40829408  70.48075534
4070.00 -177.56318605  70.57564807
4072.00 -177.71811414  70.67061406
4074.00 -177.87307831  70.76565332
4076.00 -178.02807850  70.86076584
4078.00 -178.18311468  70.95595163
4080.00 -178.33818680  71.05121070
4082.00 -178.49329483  71.14654304
4084.00 -178.64843870  71.24194866
4086.00 -178.80361839  71.33742757
4088.00 -178.95883385  71.43297977
4090.00 -179.11408503  71.52860526
4092.00 -179.26937189  71.62430404
4094.00 -179.42469439  71.72007612
4096.00 -179.58005249  71.81592150
4098.00 -179.73544614  71.91184019
4100.00 -179.89087530  72.00783219
4102.00 -180.04633992  72.10389750
4104.00 -180.20183996  72.20003613
4106.00 -180.35737538  72.29624808
4108.00 -180.51294614  72.39253334
4110.00 -180.66855219  72.48889194
4112.00 -180.82419348  72.58532386
4114.00 -180.97986999  72.68182911
4116.00 -181.13558165  72.77840770
4118.00 -181.29132843  72.87505963
4120.00 -181.44711029  72.97178490
4122.00 -181.60292717  73.06858351
4124.00 -181.75877905  73.16545547
4126.00 -181.91466587  73.26240078
4128.00 -182.07058760  73.35941944
4130.00 -182.22654418  73.45651146
4132.00 -182.38253558  73.55367684
4134.00 -182.53856175  73.65091558
4136.00 -182.69462266  73.74822769
4138.00 -182.85071824  73.84561316
4140.00 -183.00684847  73.94307201
4142.00 -183.16301330  74.04060423
4144.00 -183.31921269  74.13820982
4146.00 -183.47544659  74.23588880
4148.00 -183.63171496  74.33364115
4150.00 -183.78801776  74.43146689
4152.00 -183.94435494  74.52936602
4154.00 -184.10072647  74.62733853
4156.00 -184.25713229  74.72538444
4158.00 -184.41357236  74.82350374
4160.00 -184.57004665  74.92169644
4162.00 -184.72655511  75.01996254
4164.00 -184.88309769  75.11830204
4166.00 -185.03967435  75.21671495
4168.00 -185.19628506  75.31520126
4170.00 -185.35292976  75.41376099
4172.00 -185.50960841  75.51239412
4174.00 -185.66632098  75.61110067
4176.00 -185.82306741  75.70988063
4178.00 -185.97984766  75.80873401
4180.00 -186.13666170  75.90766081
4182.00 -186.29350948  76.00666104
4184.00 -186.45039095  76.10573469
4186.00 -186.60730607  76.20488177
4188.00 -186.76425481  76.30410228
4190.00 -186.92123711  76.40339621
4192.00 -187.07825293  76.50276359
4194.00 -187.23530224  76.60220439
4196.00 -187.39238498  76.70171864
4198.00 -187.54950112  76.80130632
4200.00 -187.70665061  76.90096745
4202.00 -187.86383341  77.00070202
4204.00 -188.02104948  77.10051003
4206.00 -188.17829877  77.20039149
4208.00 -188.33558124  77.30034640
4210.00 -188.49289685  77.40037476
4212.00 -188.65024555  77.50047657
4214.00 -188.80762731  77.60065184
4216.00 -188.96504207  77.70090056
4218.00 -189.12248980  77.80122274
4220.00 -189.27997046  77.90161838
4222.00 -189.43748400  78.00208748
4224.00 -189.59503037  78.10263004
4226.00 -189.75260954  78.20324607
4228.00 -189.91022147  78.30393556
4230.00 -190.06786610  78.40469852
4232.00 -190.22554340  78.50553495
4234.00 -190.38325333  78.60644484
4236.00 -190.54099584  78.70742821
4238.00 -190.69877088  78.80848505
4240.00 -190.85657843  78.90961536
4242.00 -191.01441843  79.01081915
4244.00 -191.17229084  79.11209642
4246.00 -191.33019561  79.21344717
4248.00 -191.48813272  79.31487139
4250.00 -191.64610211  79.41636909
4252.00 -191.80410373  79.51794028
4254.00 -191.96213756  79.61958495
4256.00 -192.12020354  79.72130310
4258.00 -192.27830164  79.82309474
4260.00 -192.43643180  79.92495986
4262.00 -192.59459400  80.02689847
4264.00 -192.75278818  80.12891057
4266.00 -192.91101430  80.23099616
4268.00 -193.06927232  80.33315524
4270.00 -193.22756220  80.43538781
4272.00 -193.38588389  80.53769387
4274.00 -193.54423736  80.64007342
4276.00 -193.70262256  80.74252647
4278.00 -193.86103945  80.84505301
4280.00 -194.01948798  80.94765305
4282.00 -194.17796811  81.05032658
4284.00 -194.33647980  81.15307361
4286.00 -194.49502302  81.25589414
4288.00 -194.65359770  81.35878817
4290.00 -194.81220382  81.46175570
4292.00 -194.97084134  81.56479672
4294.00 -195.12951020  81.66791125
4296.00 -195.28821036  81.77109927
4298.00 -195.44694179  81.87436080
4300.00 -195.60570444  81.97769583
4302.00 -195.76449827  82.08110436
4304.00 -195.92332324  82.18458640
4306.00 -196.08217930  82.28814194
4308.00 -196.24106641  82.39177098
4310.00 -196.39998453  82.49547352
4312.00 -196.55893362  82.59924957
4314.00 -196.71791363  82.70309913
4316.00 -196.87692453  82.80702219
4318.00 -197.03596627  82.91101875
4320.00 -197.19503880  83.01508882
4322.00 -197.35414210  83.11923240
4324.00 -197.51327610  83.22344948
4326.00 -197.67244078  83.32774007
4328.00 -197.83163609  83.43210417
4330.00 -197.99086198  83.53654177
4332.00 -198.15011842  83.64105287
4334.00 -198.30940536  83.74563749
4336.00 -198.46872276  83.85029561
4338.00 -198.62807058  83.95502724
4340.00 -198.78744878  84.05983237
4342.00 -198.94685731  84.16471101
4344.00 -199.10629614  84.26966315
4346.00 -199.26576521  84.37468881
4348.00 -199.42526449  84.47978796
4350.00 -199.58479394  84.58496063
4352.00 -199.74435352  84.69020680
4354.00 -199.90394317  84.79552647
4356.00 -200.06356286  84.90091965
4358.00 -200.22321256  85.00638634
4360.00 -200.38289220  85.11192653
4362.00 -200.54260176  85.21754022
4364.00 -200.70234120  85.32322742
4366.00 -200.86211046  85.42898812
4368.00 -201.02190951  85.53482233
4370.00 -201.18173831  85.64073003
4372.00 -201.34159681  85.74671124
4374.00 -201.50148497  85.85276595
4376.00 -201.66140275  85.95889417
4378.00 -201.82135011  86.06509588
4380.00 -201.98132701  86.17137109
4382.00 -202.14133340  86.27771980
4384.00 -202.30136924  86.38414202
4386.00 -202.46143450  86.49063772
4388.00 -202.62152912  86.59720693
4390.00 -202.78165307  86.70384964
4392.00 -202.94180631  86.81056583
4394.00 -203.10198878  86.91735553
4396.00 -203.26220046  87.02421872
4398.00 -203.42244130  87.13115540
4400.00 -203.58271126  87.23816558
4402.00 -203.74301030  87.34524925
4404.00 -203.90333836  87.45240640
4406.00 -204.06369542  87.55963705
4408.00 -204.22408143  87.66694119
4410.00 -204.38449636  87.77431882
4412.00 -204.54494014  87.88176993
4414.00 -204.70541276  87.98929453
4416.00 -204.86591416  88.09689261
4418.00 -205.02644430  88.20456418
4420.00 -205.18700314  88.31230923
4422.00 -205.34759064  88.42012776
4424.00 -205.50820675  88.52801978
4426.00 -205.66885145  88.63598527
4428.00 -205.82952468  88.74402424
4430.00 -205.99022640  88.85213669
4432.00 -206.15095657  88.96032261
4434.00 -206.31171515  89.06858201
4436.00 -206.47250210  89.17691488
4438.00 -206.63331737  89.28532122
4440.00 -206.79416093  89.39380103
4442.00 -206.95503273  89.50235431
4444.00 -207.11593274  89.61098106
4446.00 -207.27686090  89.71968127
4448.00 -207.43781719  89.82845495
4450.00 -207.59880155  89.93730209
4452.00 -207.75981395  90.04622269
4454.00 -207.92085434  90.15521675
4456.00 -208.08192268  90.26428427
4458.00 -208.24301894  90.37342525
4460.00 -208.40414306  90.48263968
4462.00 -208.56529502  90.59192757
4464.00 -208.72647476  90.70128890
4466.00 -208.88768225  90.81072369
4468.00 -209.04891744  90.92023192
4470.00 -209.21018030  91.02981360
4472.00 -209.37147078  91.13946873
4474.00 -209.53278883  91.24919730
4476.00 -209.69413443  91.35899930
4478.00 -209.85550753  91.46887475
4480.00 -210.01690808  91.57882364
4482.00 -210.17833605  91.68884596
4484.00 -210.33979139  91.79894171
4486.00 -210.50127406  91.90911089
4488.00 -210.66278403  92.01935350
4490.00 -210.82432124  92.12966954
4492.00 -210.98588567  92.24005901
4494.00 -211.14747726  92.35052189
4496.00 -211.30909598  92.46105820
4498.00 -211.47074179  92.57166793
4500.00 -211.63241464  92.68235107
4502.00 -211.79411449  92.79310763
4504.00 -211.95584131  92.90393760
4506.00 -212.11759505  93.01484098
4508.00 -212.27937566  93.12581776
4510.00 -212.44118312  93.23686796
4512.00 -212.60301737  93.34799155
4514.00 -212.76487838  93.45918855
4516.00 -212.92676611  93.57045894
4518.00 -213.08868051  93.68180273
4520.00 -213.25062154  93.79321991
4522.00 -213.41258917  93.90471048
4524.00 -213.57458335  94.01627445
4526.00 -213.73660404  94.12791179
4528.00 -213.89865120  94.23962252
4530.00 -214.06072478  94.35140664
4532.00 -214.22282476  94.46326413
4534.00 -214.38495108  94.57519499
4536.00 -214.54710371  94.68719923
4538.00 -214.70928260  94.79927684
4540.00 -214.87148771  94.91142781
4542.00 -215.03371901  95.02365216
4544.00 -215.19597645  95.13594986
4546.00 -215.35825999  95.24832092
4548.00 -215.52056960  95.36076534
4550.00 -215.68290522  95.47328311
4552.00 -215.84526682  95.58587424
4554.00 -216.00765436  95.69853871
4556.00 -216.17006780  95.81127653
4558.00 -216.33250709  95.92408769
4560.00 -216.49497220  96.03697219
4562.00 -216.65746308  96.14993002
4564.00 -216.81997970  96.26296119
4566.00 -216.98252201  96.37606569
4568.00 -217.14508997  96.48924352
4570.00 -217.30768355  96.60249467
4572.00 -217.47030269  96.71581914
4574.00 -217.63294737  96.82921693
4576.00 -217.79561754  96.94268803
4578.00 -217.95831316  97.05623245
4580.00 -218.12103418  97.16985018
4582.00 -218.28378058  97.28354121
4584.00 -218.44655230  97.39730554
4586.00 -218.60934930  97.51114317
4588.00 -218.77217156  97.62505410
4590.00 -218.93501902  97.73903832
4592.00 -219.09789164  97.85309583
4594.00 -219.26078939  97.96722662
4596.00 -219.42371223  98.08143069
4598.00 -219.58666010  98.19570805
4600.00 -219.74963298  98.31005868
4602.00 -219.91263083  98.42448258
4604.00 -220.07565359  98.53897975
4606.00 -220.23870124  98.65355018
4608.00 -220.40177373  98.76819388
4610.00 -220.56487102  98.88291083
4612.00 -220.72799306  98.99770104
4614.00 -220.89113983  99.11256450
4616.00 -221.05431128  99.22750120
4618.00 -221.21750737  99.34251115
4620.00 -221.38072806  99.45759434
4622.00 -221.54397330  99.57275076
4624.00 -221.70724306  99.68798041
4626.00 -221.87053731  99.80328330
4628.00 -222.03385598  99.91865940
4630.00 -222.19719906 100.03410873
4632.00 -222.36056649 100.14963128
4634.00 -222.52395824 100.26522703
4636.00 -222.68737427 100.38089600
4638.00 -222.85081453 100.49663817
4640.00 -223.01427899 100.61245354
4642.00 -223.17776760 100.72834211
4644.00 -223.34128033 100.84430388
4646.00 -223.50481713 100.96033883
4648.00 -223.66837797 101.07644697
4650.00 -223.83196281 101.19262828
4652.00 -223.99557160 101.30888278
4654.00 -224.15920430 101.42521045
4656.00 -224.32286088 101.54161129
4658.00 -224.48654129 101.65808529
4660.00 -224.65024550 101.77463245
4662.00 -224.81397346 101.89125277
4664.00 -224.97772514 102.00794624
4666.00 -225.14150049 102.12471286
4668.00 -225.30529947 102.24155262
4670.00 -225.46912205 102.35846552
4672.00 -225.63296819 102.47545155
4674.00 -225.79683783 102.59251072
4676.00 -225.96073096 102.70964301
4678.00 -226.12464751 102.82684842
4680.00 -226.28858746 102.94412695
4682.00 -226.45255077 103.06147859
4684.00 -226.61653739 103.17890335
4686.00 -226.78054728 103.29640120
4688.00 -226.94458041 103.41397216
4690.00 -227.10863673 103.53161620
4692.00 -227.27271621 103.64933334
4694.00 -227.43681881 103.76712357
4696.00 -227.60094447 103.88498687
4698.00 -227.76509318 104.00292326
4700.00 -227.92926488 104.12093271
4702.00 -228.09345954 104.23901523
4704.00 -228.25767711 104.35717081
4706.00 -228.42191756 104.47539945
4708.00 -228.58618084 104.59370115
4710.00 -228.75046693 104.71207589
4712.00 -228.91477576 104.83052367
4714.00 -229.07910732 104.94904449
4716.00 -229.24346156 105.06763835
4718.00 -229.40783843 105.18630523
4720.00 -229.57223790 105.30504514
4722.00 -229.73665993 105.42385806
4724.00 -229.90110448 105.54274400
4726.00 -230.06557151 105.66170295
4728.00 -230.23006098 105.78073491
4730.00 -230.39457285 105.89983986
4732.00 -230.55910708 106.01901780
4734.00 -230.72366363 106.13826873
4736.00 -230.88824246 106.25759265
4738.00 -231.05284354 106.37698955
4740.00 -231.21746682 106.49645941
4742.00 -231.38211226 106.61600225
4744.00 -231.54677982 106.73561805
4746.00 -231.71146947 106.85530681
4748.00 -231.87618117 106.97506852
4750.00 -232.04091487 107.09490317
4752.00 -232.20567053 107.21481077
4754.00 -232.37044813 107.33479131
4756.00 -232.53524760 107.45484477
4758.00 -232.70006893 107.57497116
4760.00 -232.86491207 107.69517048
4762.00 -233.02977697 107.81544270
4764.00 -233.19466360 107.93578784
4766.00 -233.35957193 108.05620588
4768.00 -233.52450190 108.17669682
4770.00 -233.68945349 108.29726066
4772.00 -233.85442665 108.41789738
4774.00 -234.01942134 108.53860698
4776.00 -234.18443753 108.65938946
4778.00 -234.34947517 108.78024481
4780.00 -234.51453423 108.90117303
4782.00 -234.67961466 109.02217410
4784.00 -234.84471643 109.14324803
4786.00 -235.00983950 109.26439481
4788.00 -235.17498383 109.38561443
4790.00 -235.34014938 109.50690689
4792.00 -235.50533611 109.62827218
4794.00 -235.67054398 109.74971029
4796.00 -235.83577295 109.87122123
4798.00 -236.00102298 109.99280498
4800.00 -236.16629404 110.11446153
4802.00 -236.33158608 110.23619089
4804.00 -236.49689907 110.35799305
4806.00 -236.66223297 110.47986799
4808.00 -236.82758774 110.60181572
4810.00 -236.99296333 110.72383623
4812.00 -237.15835972 110.84592951
4814.00 -237.32377685 110.96809556
4816.00 -237.48921470 111.09033436
4818.00 -237.65467322 111.21264593
4820.00 -237.82015238 111.33503024
4822.00 -237.98565213 111.45748729
4824.00 -238.15117243 111.58001708
4826.00 -238.31671326 111.70261960
4828.00 -238.48227456 111.82529484
4830.00 -238.64785631 111.94804280
4832.00 -238.81345845 112.07086347
4834.00 -238.97908096 112.19375685
4836.00 -239.14472379 112.31672292
4838.00 -239.31038691 112.43976169
4840.00 -239.47607027 112.56287314
4842.00 -239.64177384 112.68605728
4844.00 -239.80749757 112.80931409
4846.00 -239.97324144 112.93264356
4848.00 -240.13900540 113.05604570
4850.00 -240.30478941 113.17952049
4852.00 -240.47059343 113.30306793
4854.00 -240.63641743 113.42668801
4856.00 -240.80226137 113.55038072
4858.00 -240.96812520 113.67414607
4860.00 -241.13400890 113.79798403
4862.00 -241.29991241 113.92189462
4864.00 -241.46583571 114.04587781
4866.00 -241.63177874 114.16993360
4868.00 -241.79774149 114.29406199
4870.00 -241.96372390 114.41826297
4872.00 -242.12972594 114.54253653
4874.00 -242.29574756 114.66688267
4876.00 -242.46178874 114.79130137
4878.00 -242.62784943 114.91579264
4880.00 -242.79392960 115.04035646
4882.00 -242.96002920 115.16499284
4884.00 -243.12614819 115.28970175
4886.00 -243.29228655 115.41448320
4888.00 -243.45844422 115.53933718
4890.00 -243.62462118 115.66426368
4892.00 -243.79081738 115.78926270
4894.00 -243.95703279 115.91433422
4896.00 -244.12326736 116.03947824
4898.00 -244.28952106 116.16469476
4900.00 -244.45579386 116.28998376
4902.00 -244.62208570 116.41534525
4904.00 -244.78839656 116.54077921
4906.00 -244.95472639 116.66628563
4908.00 -245.12107516 116.79186451
4910.00 -245.28744283 116.91751585
4912.00 -245.45382936 117.04323963
4914.00 -245.62023471 117.16903584
4916.00 -245.78665885 117.29490449
4918.00 -245.95310173 117.42084556
4920.00 -246.11956332 117.54685905
4922.00 -246.28604358 117.67294494
4924.00 -246.45254247 117.79910324
4926.00 -246.61905996 117.92533393
4928.00 -246.78559600 118.05163701
4930.00 -246.95215056 118.17801247
4932.00 -247.11872359 118.30446030
4934.00 -247.28531507 118.43098049
4936.00 -247.45192496 118.55757305
4938.00 -247.61855321 118.68423795
4940.00 -247.78519978 118.81097520
4942.00 -247.95186465 118.93778478
4944.00 -248.11854776 119.06466669
4946.00 -248.28524910 119.19162092
4948.00 -248.45196860 119.31864747
4950.00 -248.61870625 119.44574632
4952.00 -248.78546199 119.57291747
4954.00 -248.95223579 119.70016091
4956.00 -249.11902762 119.82747663
4958.00 -249.28583744 119.95486463
4960.00 -249.45266521 120.08232490
4962.00 -249.61951088 120.20985742
4964.00 -249.78637443 120.33746220
4966.00 -249.95325581 120.46513922
4968.00 -250.12015499 120.59288848
4970.00 -250.28707193 120.72070997
4972.00 -250.45400659 120.84860369
4974.00 -250.62095894 120.97656961
4976.00 -250.78792893 121.10460774
4978.00 -250.95491653 121.23271807
4980.00 -251.12192170 121.36090059
4982.00 -251.28894441 121.48915530
4984.00 -251.45598461 121.61748218
4986.00 -251.62304227 121.74588122
4988.00 -251.79011735 121.87435242
4990.00 -251.95720981 122.00289578
4992.00 -252.12431962 122.13151128
4994.00 -252.29144673 122.26019891
4996.00 -252.45859112 122.38895867
4998.00 -252.62575274 122.51779055
5000.00 -252.79293155 122.64669454
