wavelength(nm)         real         imag
100.00   3.74557112   0.00147571
102.00   3.73933278   0.00156603
104.00   3.73297097   0.00165996
106.00   3.72648567   0.00175757
108.00   3.71987689   0.00185894
110.00   3.71314464   0.00196413
112.00   3.70628891   0.00207322
114.00   3.69930972   0.00218627
116.00   3.69220705   0.00230335
118.00   3.68498093   0.00242455
120.00   3.67763134   0.00254992
122.00   3.67015830   0.00267954
124.00   3.66256181   0.00281348
126.00   3.65484186   0.00295181
128.00   3.64699847   0.00309460
130.00   3.63903163   0.00324193
132.00   3.63094135   0.00339385
134.00   3.62272764   0.00355045
136.00   3.61439050   0.00371179
138.00   3.60592992   0.00387795
140.00   3.59734592   0.00404899
142.00   3.58863850   0.00422499
144.00   3.57980766   0.00440601
146.00   3.57085340   0.00459213
148.00   3.56177574   0.00478342
150.00   3.55257467   0.00497995
152.00   3.54325020   0.00518178
154.00   3.53380233   0.00538900
156.00   3.52423106   0.00560167
158.00   3.51453641   0.00581986
160.00   3.50471837   0.00604364
162.00   3.49477695   0.00627308
164.00   3.48471215   0.00650826
166.00   3.47452398   0.00674924
168.00   3.46421244   0.00699610
170.00   3.45377754   0.00724890
172.00   3.44321928   0.00750772
174.00   3.43253766   0.00777263
176.00   3.42173270   0.00804369
178.00   3.41080439   0.00832098
180.00   3.39975274   0.00860457
182.00   3.38857775   0.00889453
184.00   3.37727944   0.00919093
186.00   3.36585780   0.00949384
188.00   3.35431284   0.00980333
190.00   3.34264456   0.01011947
192.00   3.33085297   0.01044234
194.00   3.31893808   0.01077199
196.00   3.30689989   0.01110852
198.00   3.29473841   0.01145197
200.00   3.28245363   0.01180243
202.00   3.27004557   0.01215997
204.00   3.25751424   0.01252465
206.00   3.24485963   0.01289655
208.00   3.23208175   0.01327574
210.00   3.21918061   0.01366228
212.00   3.20615621   0.01405625
214.00   3.19300857   0.01445772
216.00   3.17973768   0.01486676
218.00   3.16634355   0.01528344
220.00   3.15282619   0.01570783
222.00   3.13918560   0.01614000
224.00   3.12542179   0.01658003
226.00   3.11153476   0.01702797
228.00   3.09752452   0.01748391
230.00   3.08339109   0.01794791
232.00   3.06913445   0.01842004
234.00   3.05475463   0.01890038
236.00   3.04025162   0.01938900
238.00   3.02562543   0.01988595
240.00   3.01087607   0.02039133
242.00   2.99600355   0.02090519
244.00   2.98100787   0.02142760
246.00   2.96588903   0.02195864
248.00   2.95064706   0.02249838
250.00   2.93528194   0.02304689
252.00   2.91979369   0.02360424
254.00   2.90418231   0.02417049
256.00   2.88844782   0.02474573
258.00   2.87259022   0.02533001
260.00   2.85660951   0.02592341
262.00   2.84050570   0.02652601
264.00   2.82427881   0.02713786
266.00   2.80792883   0.02775904
268.00   2.79145577   0.02838963
270.00   2.77485964   0.02902969
272.00   2.75814046   0.02967929
274.00   2.74129822   0.03033850
276.00   2.72433293   0.03100740
278.00   2.70724460   0.03168605
280.00   2.69003324   0.03237452
282.00   2.67269886   0.03307289
284.00   2.65524145   0.03378122
286.00   2.63766104   0.03449959
288.00   2.61995763   0.03522806
290.00   2.60213122   0.03596671
292.00   2.58418183   0.03671560
294.00   2.56610946   0.03747481
296.00   2.54791412   0.03824441
298.00   2.52959581   0.03902446
300.00   2.51115456   0.03981504
302.00   2.49259035   0.04061621
304.00   2.47390321   0.04142805
306.00   2.45509313   0.04225063
308.00   2.43616014   0.04308402
310.00   2.41710423   0.04392829
312.00   2.39792542   0.04478350
314.00   2.37862371   0.04564973
316.00   2.35919911   0.04652705
318.00   2.33965163   0.04741553
320.00   2.31998128   0.04831524
322.00   2.30018806   0.04922625
324.00   2.28027200   0.05014863
326.00   2.26023308   0.05108244
328.00   2.24007133   0.05202777
330.00   2.21978676   0.05298468
332.00   2.19937936   0.05395323
334.00   2.17884915   0.05493351
336.00   2.15819614   0.05592558
338.00   2.13742034   0.05692950
340.00   2.11652176   0.05794536
342.00   2.09550040   0.05897322
344.00   2.07435628   0.06001315
346.00   2.05308941   0.06106522
348.00   2.03169978   0.06212950
350.00   2.01018742   0.06320606
352.00   1.98855233   0.06429497
354.00   1.96679453   0.06539631
356.00   1.94491401   0.06651013
358.00   1.92291080   0.06763652
360.00   1.90078490   0.06877553
362.00   1.87853632   0.06992725
364.00   1.85616507   0.07109174
366.00   1.83367115   0.07226907
368.00   1.81105459   0.07345931
370.00   1.78831539   0.07466253
372.00   1.76545356   0.07587880
374.00   1.74246910   0.07710820
376.00   1.71936204   0.07835078
378.00   1.69613237   0.07960663
380.00   1.67278012   0.08087581
382.00   1.64930528   0.08215838
384.00   1.62570788   0.08345443
386.00   1.60198791   0.08476402
388.00   1.57814540   0.08608722
390.00   1.55418035   0.08742410
392.00   1.53009277   0.08877473
394.00   1.50588267   0.09013918
396.00   1.48155006   0.09151752
398.00   1.45709496   0.09290981
400.00   1.43251737   0.09431614
402.00   1.40781731   0.09573657
404.00   1.38299478   0.09717117
406.00   1.35804980   0.09862000
408.00   1.33298237   0.10008315
410.00   1.30779252   0.10156067
412.00   1.28248024   0.10305264
414.00   1.25704555   0.10455913
416.00   1.23148847   0.10608020
418.00   1.20580899   0.10761594
420.00   1.18000714   0.10916640
422.00   1.15408293   0.11073166
424.00   1.12803636   0.11231178
426.00   1.10186745   0.11390684
428.00   1.07557621   0.11551691
430.00   1.04916265   0.11714205
432.00   1.02262678   0.11878234
434.00   0.99596862   0.12043784
436.00   0.96918817   0.12210863
438.00   0.94228544   0.12379477
440.00   0.91526046   0.12549634
442.00   0.88811322   0.12721340
444.00   0.86084375   0.12894602
446.00   0.83345205   0.13069427
448.00   0.80593814   0.13245823
450.00   0.77830203   0.13423796
452.00   0.75054373   0.13603352
454.00   0.72266324   0.13784500
456.00   0.69466060   0.13967247
458.00   0.66653580   0.14151598
460.00   0.63828886   0.14337560
462.00   0.60991979   0.14525142
464.00   0.58142860   0.14714350
466.00   0.55281531   0.14905190
468.00   0.52407993   0.15097671
470.00   0.49522246   0.15291797
472.00   0.46624294   0.15487578
474.00   0.43714135   0.15685019
476.00   0.40791773   0.15884127
478.00   0.37857208   0.16084910
480.00   0.34910441   0.16287374
482.00   0.31951474   0.16491527
484.00   0.28980308   0.16697374
486.00   0.25996944   0.16904924
488.00   0.23001384   0.17114183
490.00   0.19993629   0.17325158
492.00   0.16973680   0.17537857
494.00   0.13941538   0.17752284
496.00   0.10897206   0.17968449
498.00   0.07840683   0.18186358
500.00   0.04771972   0.18406017
502.00   0.01691074   0.18627434
504.00  -0.01402010   0.18850615
506.00  -0.04507278   0.19075568
508.00  -0.07624730   0.19302299
510.00  -0.10754363   0.19530815
512.00  -0.13896177   0.19761124
514.00  -0.17050170   0.19993231
516.00  -0.20216340   0.20227145
518.00  -0.23394687   0.20462872
520.00  -0.26585209   0.20700418
522.00  -0.29787904   0.20939792
524.00  -0.33002771   0.21180999
526.00  -0.36229809   0.21424046
528.00  -0.39469016   0.21668941
530.00  -0.42720392   0.21915691
532.00  -0.45983933   0.22164302
534.00  -0.49259640   0.22414781
536.00  -0.52547511   0.22667135
538.00  -0.55847543   0.22921371
540.00  -0.59159737   0.23177496
542.00  -0.62484090   0.23435517
544.00  -0.65820601   0.23695440
546.00  -0.69169268   0.23957273
548.00  -0.72530090   0.24221023
550.00  -0.75903066   0.24486696
552.00  -0.79288193   0.24754299
554.00  -0.82685472   0.25023840
556.00  -0.86094899   0.25295324
558.00  -0.89516475   0.25568760
560.00  -0.92950196   0.25844153
562.00  -0.96396062   0.26121511
564.00  -0.99854071   0.26400841
566.00  -1.03324222   0.26682149
568.00  -1.06806513   0.26965442
570.00  -1.10300942   0.27250728
572.00  -1.13807509   0.27538013
574.00  -1.17326211   0.27827304
576.00  -1.20857048   0.28118607
578.00  -1.24400017   0.28411931
580.00  -1.27955116   0.28707281
582.00  -1.31522346   0.29004664
584.00  -1.35101703   0.29304088
586.00  -1.38693187   0.29605559
588.00  -1.42296795   0.29909084
590.00  -1.45912527   0.30214670
592.00  -1.49540380   0.30522324
594.00  -1.53180353   0.30832052
596.00  -1.56832445   0.31143862
598.00  -1.60496654   0.31457760
600.00  -1.64172978   0.31773754
602.00  -1.67861416   0.32091850
604.00  -1.71561966   0.32412054
606.00  -1.75274626   0.32734375
608.00  -1.78999396   0.33058818
610.00  -1.82736272   0.33385390
612.00  -1.86485255   0.33714099
614.00  -1.90246341   0.34044951
616.00  -1.94019530   0.34377953
618.00  -1.97804820   0.34713112
620.00  -2.01602208   0.35050435
622.00  -2.05411695   0.35389928
624.00  -2.09233277   0.35731599
626.00  -2.13066953   0.36075453
628.00  -2.16912722   0.36421499
630.00  -2.20770581   0.36769743
632.00  -2.24640530   0.37120191
634.00  -2.28522566   0.37472851
636.00  -2.32416688   0.37827730
638.00  -2.36322895   0.38184833
640.00  -2.40241183   0.38544169
642.00  -2.44171553   0.38905743
644.00  -2.48114001   0.39269564
646.00  -2.52068527   0.39635636
648.00  -2.56035128   0.40003968
650.00  -2.60013804   0.40374566
652.00  -2.64004551   0.40747437
654.00  -2.68007369   0.41122588
656.00  -2.72022255   0.41500025
658.00  -2.76049209   0.41879756
660.00  -2.80088228   0.42261787
662.00  -2.84139310   0.42646125
664.00  -2.88202454   0.43032777
666.00  -2.92277658   0.43421749
668.00  -2.96364920   0.43813049
670.00  -3.00464238   0.44206683
672.00  -3.04575612   0.44602658
674.00  -3.08699038   0.45000980
676.00  -3.12834515   0.45401658
678.00  -3.16982041   0.45804696
680.00  -3.21141615   0.46210103
682.00  -3.25313235   0.46617885
684.00  -3.29496898   0.47028049
686.00  -3.33692604   0.47440601
688.00  -3.37900350   0.47855549
690.00  -3.42120134   0.48272898
692.00  -3.46351955   0.48692657
694.00  -3.50595811   0.49114831
696.00  -3.54851699   0.49539428
698.00  -3.59119619   0.49966454
700.00  -3.63399568   0.50395916
702.00  -3.67691544   0.50827820
704.00  -3.71995546   0.51262175
706.00  -3.76311572   0.51698985
708.00  -3.80639620   0.52138259
710.00  -3.84979687   0.52580002
712.00  -3.89331773   0.53024223
714.00  -3.93695875   0.53470926
716.00  -3.98071991   0.53920120
718.00  -4.02460119   0.54371810
720.00  -4.06860258   0.54826005
722.00  -4.11272406   0.55282709
724.00  -4.15696560   0.55741931
726.00  -4.20132720   0.56203677
728.00  -4.24580882   0.56667953
730.00  -4.29041045   0.57134767
732.00  -4.33513207   0.57604125
734.00  -4.37997366   0.58076034
736.00  -4.42493520   0.58550500
738.00  -4.47001668   0.59027531
740.00  -4.51521807   0.59507133
742.00  -4.56053935   0.59989313
744.00  -4.60598051   0.60474078
746.00  -4.65154152   0.60961433
748.00  -4.69722236   0.61451387
750.00  -4.74302302   0.61943946
752.00  -4.78894348   0.62439116
754.00  -4.83498371   0.62936905
756.00  -4.88114369   0.63437318
758.00  -4.92742341   0.63940363
760.00  -4.97382285   0.64446047
762.00  -5.02034198   0.64954375
764.00  -5.06698079   0.65465356
766.00  -5.11373925   0.65978995
768.00  -5.16061735   0.66495299
770.00  -5.20761506   0.67014275
772.00  -5.25473237   0.67535930
774.00  -5.30196925   0.68060271
776.00  -5.34932568   0.68587303
778.00  -5.39680165   0.69117034
780.00  -5.44439713   0.69649471
782.00  -5.49211210   0.70184620
784.00  -5.53994655   0.70722488
786.00  -5.58790044   0.71263082
788.00  -5.63597377   0.71806407
790.00  -5.68416651   0.72352472
792.00  -5.73247864   0.72901283
794.00  -5.78091013   0.73452846
796.00  -5.82946097   0.74007167
798.00  -5.87813114   0.74564255
800.00  -5.92692061   0.75124115
802.00  -5.97582937   0.75686754
804.00  -6.02485740   0.76252179
806.00  -6.07400466   0.76820396
808.00  -6.12327115   0.77391413
810.00  -6.17265683   0.77965235
812.00  -6.22216170   0.78541869
814.00  -6.27178572   0.79121323
816.00  -6.32152888   0.79703603
818.00  -6.37139115   0.80288715
820.00  -6.42137251   0.80876666
822.00  -6.47147295   0.81467463
824.00  -6.52169244   0.82061112
826.00  -6.57203095   0.82657620
828.00  -6.62248848   0.83256995
830.00  -6.67306499   0.83859241
832.00  -6.72376046   0.84464367
834.00  -6.77457487   0.85072378
836.00  -6.82550820   0.85683281
838.00  -6.87656043   0.86297084
840.00  -6.92773154   0.86913792
842.00  -6.97902150   0.87533413
844.00  -7.03043029   0.88155952
846.00  -7.08195789   0.88781417
848.00  -7.13360428   0.89409814
850.00  -7.18536944   0.90041150
852.00  -7.23725334   0.90675431
854.00  -7.28925596   0.91312664
856.00  -7.34137727   0.91952856
858.00  -7.39361727   0.92596013
860.00  -7.44597591   0.93242142
862.00  -7.49845319   0.93891250
864.00  -7.55104908   0.94543343
866.00  -7.60376355   0.95198427
868.00  -7.65659659   0.95856510
870.00  -7.70954817   0.96517598
872.00  -7.76261826   0.97181697
874.00  -7.81580685   0.97848815
876.00  -7.86911392   0.98518957
878.00  -7.92253943   0.99192131
880.00  -7.97608337   0.99868343
882.00  -8.02974571   1.00547599
884.00  -8.08352643   1.01229907
886.00  -8.13742551   1.01915272
888.00  -8.19144293   1.02603702
890.00  -8.24557865   1.03295202
892.00  -8.29983267   1.03989781
894.00  -8.35420495   1.04687443
896.00  -8.40869547   1.05388196
898.00  -8.46330420   1.06092046
900.00  -8.51803114   1.06799000
902.00  -8.57287624   1.07509065
904.00  -8.62783949   1.08222246
906.00  -8.68292087   1.08938552
908.00  -8.73812034   1.09657987
910.00  -8.79343790   1.10380559
912.00  -8.84887350   1.11106274
914.00  -8.90442714   1.11835139
916.00  -8.96009878   1.12567161
918.00  -9.01588840   1.13302345
920.00  -9.07179598   1.14040699
922.00  -9.12782150   1.14782229
924.00  -9.18396492   1.15526942
926.00  -9.24022623   1.16274843
928.00  -9.29660540   1.17025941
930.00  -9.35310241   1.17780240
932.00  -9.40971723   1.18537749
934.00  -9.46644985   1.19298473
936.00  -9.52330022   1.20062418
938.00  -9.58026834   1.20829592
940.00  -9.63735417   1.21600001
942.00  -9.69455770   1.22373651
944.00  -9.75187889   1.23150550
946.00  -9.80931773   1.23930703
948.00  -9.86687418   1.24714116
950.00  -9.92454823   1.25500798
952.00  -9.98233984   1.26290753
954.00 -10.04024900   1.27083989
956.00 -10.09827568   1.27880513
958.00 -10.15641986   1.28680329
960.00 -10.21468150   1.29483446
962.00 -10.27306059   1.30289870
964.00 -10.33155710   1.31099606
966.00 -10.39017100   1.31912662
968.00 -10.44890228   1.32729045
970.00 -10.50775089   1.33548760
972.00 -10.56671683   1.34371814
974.00 -10.62580006   1.35198213
976.00 -10.68500057   1.36027965
978.00 -10.74431831   1.36861076
980.00 -10.80375328   1.37697551
982.00 -10.86330543   1.38537398
984.00 -10.92297476   1.39380623
986.00 -10.98276123   1.40227232
988.00 -11.04266481   1.41077233
990.00 -11.10268549   1.41930631
992.00 -11.16282323   1.42787433
994.00 -11.22307801   1.43647645
996.00 -11.28344981   1.44511274
998.00 -11.34393859   1.45378327
1000.00 -11.40454434   1.46248809
1002.00 -11.46526702   1.47122727
1004.00 -11.52610662   1.48000089
1006.00 -11.58706310   1.48880899
1008.00 -11.64813644   1.49765165
1010.00 -11.70932661   1.50652893
1012.00 -11.77063359   1.51544089
1014.00 -11.83205735   1.52438761
1016.00 -11.89359786   1.53336914
1018.00 -11.95525510   1.54238554
1020.00 -12.01702905   1.55143689
1022.00 -12.07891967   1.56052325
1024.00 -12.14092694   1.56964468
1026.00 -12.20305083   1.57880124
1028.00 -12.26529132   1.58799300
1030.00 -12.32764838   1.59722003
1032.00 -12.39012199   1.60648238
1034.00 -12.45271211   1.61578013
1036.00 -12.51541872   1.62511334
1038.00 -12.57824179   1.63448206
1040.00 -12.64118130   1.64388637
1042.00 -12.70423722   1.65332633
1044.00 -12.76740953   1.66280200
1046.00 -12.83069819   1.67231345
1048.00 -12.89410318   1.68186074
1050.00 -12.95762447   1.69144394
1052.00 -13.02126204   1.70106310
1054.00 -13.08501585   1.71071830
1056.00 -13.14888589   1.72040959
1058.00 -13.21287212   1.73013705
1060.00 -13.27697452   1.73990073
1062.00 -13.34119306   1.74970070
1064.00 -13.40552771   1.75953702
1066.00 -13.46997844   1.76940976
1068.00 -13.53454524   1.77931898
1070.00 -13.59922806   1.78926474
1072.00 -13.66402689   1.79924710
1074.00 -13.72894169   1.80926614
1076.00 -13.79397244   1.81932192
1078.00 -13.85911911   1.82941449
1080.00 -13.92438167   1.83954392
1082.00 -13.98976009   1.84971028
1084.00 -14.05525436   1.85991363
1086.00 -14.12086443   1.87015403
1088.00 -14.18659028   1.88043155
1090.00 -14.25243189   1.89074625
1092.00 -14.31838922   1.90109819
1094.00 -14.38446225   1.91148744
1096.00 -14.45065095   1.92191405
1098.00 -14.51695529   1.93237810
1100.00 -14.58337524   1.94287965
1102.00 -14.64991078   1.95341876
1104.00 -14.71656187   1.96399549
1106.00 -14.78332850   1.97460990
1108.00 -14.85021062   1.98526207
1110.00 -14.91720822   1.99595205
1112.00 -14.98432126   2.00667990
1114.00 -15.05154971   2.01744570
1116.00 -15.11889355   2.02824949
1118.00 -15.18635275   2.03909136
1120.00 -15.25392728   2.04997135
1122.00 -15.32161711   2.06088953
1124.00 -15.38942221   2.07184597
1126.00 -15.45734255   2.08284072
1128.00 -15.52537811   2.09387386
1130.00 -15.59352886   2.10494544
1132.00 -15.66179476   2.11605552
1134.00 -15.73017579   2.12720418
1136.00 -15.79867192   2.13839146
1138.00 -15.86728312   2.14961745
1140.00 -15.93600936   2.16088219
1142.00 -16.00485062   2.17218575
1144.00 -16.07380685   2.18352820
1146.00 -16.14287804   2.19490959
1148.00 -16.21206416   2.20632999
1150.00 -16.28136517   2.21778946
1152.00 -16.35078105   2.22928806
1154.00 -16.42031176   2.24082587
1156.00 -16.48995728   2.25240293
1158.00 -16.55971758   2.26401932
1160.00 -16.62959263   2.27567508
1162.00 -16.69958239   2.28737030
1164.00 -16.76968685   2.29910503
1166.00 -16.83990596   2.31087933
1168.00 -16.91023971   2.32269326
1170.00 -16.98068805   2.33454689
1172.00 -17.05125097   2.34644028
1174.00 -17.12192843   2.35837349
1176.00 -17.19272039   2.37034658
1178.00 -17.26362684   2.38235962
1180.00 -17.33464774   2.39441267
1182.00 -17.40578307   2.40650579
1184.00 -17.47703278   2.41863904
1186.00 -17.54839685   2.43081249
1188.00 -17.61987526   2.44302620
1190.00 -17.69146796   2.45528022
1192.00 -17.76317494   2.46757463
1194.00 -17.83499616   2.47990948
1196.00 -17.90693159   2.49228483
1198.00 -17.97898119   2.50470076
1200.00 -18.05114495   2.51715731
1202.00 -18.12342283   2.52965455
1204.00 -18.19581479   2.54219255
1206.00 -18.26832082   2.55477136
1208.00 -18.34094087   2.56739105
1210.00 -18.41367491   2.58005168
1212.00 -18.48652293   2.59275331
1214.00 -18.55948488   2.60549601
1216.00 -18.63256073   2.61827982
1218.00 -18.70575046   2.63110483
1220.00 -18.77905404   2.64397108
1222.00 -18.85247142   2.65687864
1224.00 -18.92600259   2.66982757
1226.00 -18.99964750   2.68281794
1228.00 -19.07340614   2.69584980
1230.00 -19.14727847   2.70892321
1232.00 -19.22126445   2.72203824
1234.00 -19.29536406   2.73519496
1236.00 -19.36957727   2.74839341
1238.00 -19.44390404   2.76163366
1240.00 -19.51834434   2.77491578
1242.00 -19.59289815   2.78823982
1244.00 -19.66756542   2.80160585
1246.00 -19.74234614   2.81501392
1248.00 -19.81724026   2.82846411
1250.00 -19.89224775   2.84195646
1252.00 -19.96736860   2.85549105
1254.00 -20.04260275   2.86906792
1256.00 -20.11795019   2.88268716
1258.00 -20.19341088   2.89634880
1260.00 -20.26898478   2.91005292
1262.00 -20.34467187   2.92379958
1264.00 -20.42047212   2.93758884
1266.00 -20.49638549   2.95142075
1268.00 -20.57241195   2.96529539
1270.00 -20.64855146   2.97921280
1272.00 -20.72480401   2.99317306
1274.00 -20.80116955   3.00717622
1276.00 -20.87764806   3.02122234
1278.00 -20.95423949   3.03531149
1280.00 -21.03094382   3.04944373
1282.00 -21.10776103   3.06361911
1284.00 -21.18469106   3.07783770
1286.00 -21.26173390   3.09209955
1288.00 -21.33888951   3.10640473
1290.00 -21.41615785   3.12075330
1292.00 -21.49353891   3.13514533
1294.00 -21.57103263   3.14958086
1296.00 -21.64863900   3.16405996
1298.00 -21.72635797   3.17858270
1300.00 -21.80418952   3.19314912
1302.00 -21.88213361   3.20775930
1304.00 -21.96019021   3.22241329
1306.00 -22.03835929   3.23711116
1308.00 -22.11664082   3.25185295
1310.00 -22.19503475   3.26663875
1312.00 -22.27354107   3.28146859
1314.00 -22.35215973   3.29634256
1316.00 -22.43089071   3.31126069
1318.00 -22.50973397   3.32622306
1320.00 -22.58868948   3.34122973
1322.00 -22.66775720   3.35628075
1324.00 -22.74693710   3.37137619
1326.00 -22.82622915   3.38651611
1328.00 -22.90563332   3.40170056
1330.00 -22.98514957   3.41692961
1332.00 -23.06477786   3.43220331
1334.00 -23.14451818   3.44752173
1336.00 -23.22437048   3.46288492
1338.00 -23.30433472   3.47829295
1340.00 -23.38441089   3.49374588
1342.00 -23.46459893   3.50924376
1344.00 -23.54489883   3.52478666
1346.00 -23.62531054   3.54037464
1348.00 -23.70583403   3.55600775
1350.00 -23.78646927   3.57168605
1352.00 -23.86721622   3.58740961
1354.00 -23.94807486   3.60317849
1356.00 -24.02904514   3.61899274
1358.00 -24.11012704   3.63485242
1360.00 -24.19132052   3.65075759
1362.00 -24.27262554   3.66670832
1364.00 -24.35404208   3.68270466
1366.00 -24.43557009   3.69874668
1368.00 -24.51720955   3.71483442
1370.00 -24.59896042   3.73096796
1372.00 -24.68082266   3.74714734
1374.00 -24.76279625   3.76337264
1376.00 -24.84488115   3.77964390
1378.00 -24.92707732   3.79596120
1380.00 -25.00938472   3.81232458
1382.00 -25.09180334   3.82873411
1384.00 -25.17433312   3.84518984
1386.00 -25.25697405   3.86169184
1388.00 -25.33972607   3.87824016
1390.00 -25.42258916   3.89483487
1392.00 -25.50556329   3.91147602
1394.00 -25.58864841   3.92816367
1396.00 -25.67184450   3.94489789
1398.00 -25.75515152   3.96167872
1400.00 -25.83856944   3.97850623
1402.00 -25.92209821   3.99538048
1404.00 -26.00573781   4.01230153
1406.00 -26.08948821   4.02926943
1408.00 -26.17334936   4.04628425
1410.00 -26.25732123   4.06334603
1412.00 -26.34140378   4.08045486
1414.00 -26.42559699   4.09761077
1416.00 -26.50990082   4.11481383
1418.00 -26.59431523   4.13206410
1420.00 -26.67884018   4.14936164
1422.00 -26.76347565   4.16670650
1424.00 -26.84822159   4.18409874
1426.00 -26.93307798   4.20153843
1428.00 -27.01804477   4.21902562
1430.00 -27.10312193   4.23656037
1432.00 -27.18830943   4.25414274
1434.00 -27.27360723   4.27177278
1436.00 -27.35901529   4.28945056
1438.00 -27.44453359   4.30717613
1440.00 -27.53016208   4.32494956
1442.00 -27.61590072   4.34277089
1444.00 -27.70174950   4.36064019
1446.00 -27.78770835   4.37855752
1448.00 -27.87377727   4.39652293
1450.00 -27.95995619   4.41453648
1452.00 -28.04624510   4.43259824
1454.00 -28.13264396   4.45070825
1456.00 -28.21915272   4.46886658
1458.00 -28.30577136   4.48707329
1460.00 -28.39249983   4.50532843
1462.00 -28.47933811   4.52363206
1464.00 -28.56628616   4.54198424
1466.00 -28.65334393   4.56038502
1468.00 -28.74051140   4.57883447
1470.00 -28.82778852   4.59733265
1472.00 -28.91517527   4.61587960
1474.00 -29.00267161   4.63447539
1476.00 -29.09027749   4.65312008
1478.00 -29.17799289   4.67181372
1480.00 -29.26581777   4.69055637
1482.00 -29.35375208   4.70934809
1484.00 -29.44179580   4.72818893
1486.00 -29.52994889   4.74707896
1488.00 -29.61821132   4.76601824
1490.00 -29.70658303   4.78500681
1492.00 -29.79506401   4.80404473
1494.00 -29.88365421   4.82313207
1496.00 -29.97235360   4.84226889
1498.00 -30.06116214   4.86145523
1500.00 -30.15007979   4.88069115
1502.00 -30.23910651   4.89997672
1504.00 -30.32824228   4.91931199
1506.00 -30.41748705   4.93869702
1508.00 -30.50684078   4.95813187
1510.00 -30.59630345   4.97761658
1512.00 -30.68587500   4.99715123
1514.00 -30.77555541   5.01673586
1516.00 -30.86534465   5.03637053
1518.00 -30.95524266   5.05605531
1520.00 -31.04524942   5.07579024
1522.00 -31.13536488   5.09557539
1524.00 -31.22558902   5.11541080
1526.00 -31.31592179   5.13529655
1528.00 -31.40636316   5.15523268
1530.00 -31.49691308   5.17521926
1532.00 -31.58757153   5.19525633
1534.00 -31.67833846   5.21534396
1536.00 -31.76921384   5.23548220
1538.00 -31.86019763   5.25567110
1540.00 -31.95128979   5.27591074
1542.00 -32.04249029   5.29620115
1544.00 -32.13379908   5.31654241
1546.00 -32.22521614   5.33693456
1548.00 -32.31674142   5.35737766
1550.00 -32.40837488   5.37787177
1552.00 -32.50011649   5.39841695
1554.00 -32.59196621   5.41901324
1556.00 -32.68392401   5.43966072
1558.00 -32.77598983   5.46035942
1560.00 -32.86816366   5.48110942
1562.00 -32.96044544   5.50191077
1564.00 -33.05283514   5.52276351
1566.00 -33.14533273   5.54366772
1568.00 -33.23793816   5.56462344
1570.00 -33.33065140   5.58563073
1572.00 -33.42347241   5.60668965
1574.00 -33.51640115   5.62780026
1576.00 -33.60943758   5.64896260
1578.00 -33.70258167   5.67017674
1580.00 -33.79583337   5.69144273
1582.00 -33.88919266   5.71276062
1584.00 -33.98265948   5.73413048
1586.00 -34.07623381   5.75555236
1588.00 -34.16991560   5.77702632
1590.00 -34.26370481   5.79855240
1592.00 -34.35760141   5.82013067
1594.00 -34.45160537   5.84176118
1596.00 -34.54571663   5.86344400
1598.00 -34.63993516   5.88517916
1600.00 -34.73426093   5.90696673
1602.00 -34.82869389   5.92880677
1604.00 -34.92323401   5.95069933
1606.00 -35.01788124   5.97264447
1608.00 -35.11263556   5.99464223
1610.00 -35.20749691   6.01669268
1612.00 -35.30246527   6.03879588
1614.00 -35.39754059   6.06095187
1616.00 -35.49272283   6.08316072
1618.00 -35.58801196   6.10542247
1620.00 -35.68340793   6.12773719
1622.00 -35.77891071   6.15010492
1624.00 -35.87452026   6.17252573
1626.00 -35.97023654   6.19499967
1628.00 -36.06605951   6.21752679
1630.00 -36.16198913   6.24010715
1632.00 -36.25802536   6.26274080
1634.00 -36.35416817   6.28542781
1636.00 -36.45041750   6.30816822
1638.00 -36.54677334   6.33096208
1640.00 -36.64323562   6.35380946
1642.00 -36.73980433   6.37671041
1644.00 -36.83647941   6.39966499
1646.00 -36.93326083   6.42267324
1648.00 -37.03014854   6.44573523
1650.00 -37.12714252   6.46885100
1652.00 -37.22424271   6.49202062
1654.00 -37.32144908   6.51524413
1656.00 -37.41876159   6.53852160
1658.00 -37.51618020   6.56185307
1660.00 -37.61370488   6.58523860
1662.00 -37.71133557   6.60867825
1664.00 -37.80907224   6.63217207
1666.00 -37.90691486   6.65572012
1668.00 -38.00486338   6.67932244
1670.00 -38.10291776   6.70297910
1672.00 -38.20107796   6.72669014
1674.00 -38.29934395   6.75045563
1676.00 -38.39771567   6.77427561
1678.00 -38.49619310   6.79815014
1680.00 -38.59477620   6.82207928
1682.00 -38.69346491   6.84606307
1684.00 -38.79225921   6.87010158
1686.00 -38.89115905   6.89419486
1688.00 -38.99016439   6.91834295
1690.00 -39.08927519   6.94254593
1692.00 -39.18849142   6.96680383
1694.00 -39.28781303   6.99111671
1696.00 -39.38723998   7.01548463
1698.00 -39.48677223   7.03990764
1700.00 -39.58640974   7.06438580
1702.00 -39.68615247   7.08891915
1704.00 -39.78600038   7.11350776
1706.00 -39.88595343   7.13815167
1708.00 -39.98601158   7.16285094
1710.00 -40.08617479   7.18760562
1712.00 -40.18644301   7.21241578
1714.00 -40.28681622   7.23728145
1716.00 -40.38729436   7.26220269
1718.00 -40.48787739   7.28717956
1720.00 -40.58856529   7.31221212
1722.00 -40.68935799   7.33730040
1724.00 -40.79025548   7.36244448
1726.00 -40.89125769   7.38764439
1728.00 -40.99236460   7.41290020
1730.00 -41.09357616   7.43821196
1732.00 -41.19489233   7.46357972
1734.00 -41.29631307   7.48900353
1736.00 -41.39783833   7.51448345
1738.00 -41.49946809   7.54001953
1740.00 -41.60120229   7.56561182
1742.00 -41.70304090   7.59126038
1744.00 -41.80498388   7.61696525
1746.00 -41.90703117   7.64272650
1748.00 -42.00918275   7.66854418
1750.00 -42.11143857   7.69441833
1752.00 -42.21379859   7.72034902
1754.00 -42.31626277   7.74633628
1756.00 -42.41883107   7.77238019
1758.00 -42.52150344   7.79848078
1760.00 -42.62427985   7.82463812
1762.00 -42.72716025   7.85085225
1764.00 -42.83014460   7.87712323
1766.00 -42.93323286   7.90345111
1768.00 -43.03642500   7.92983594
1770.00 -43.13972095   7.95627777
1772.00 -43.24312070   7.98277667
1774.00 -43.34662419   8.00933267
1776.00 -43.45023138   8.03594584
1778.00 -43.55394223   8.06261622
1780.00 -43.65775670   8.08934386
1782.00 -43.76167475   8.11612883
1784.00 -43.86569634   8.14297117
1786.00 -43.96982142   8.16987093
1788.00 -44.07404995   8.19682817
1790.00 -44.17838189   8.22384294
1792.00 -44.28281719   8.25091529
1794.00 -44.38735583   8.27804527
1796.00 -44.49199775   8.30523293
1798.00 -44.59674291   8.33247833
1800.00 -44.70159127   8.35978152
1802.00 -44.80654279   8.38714256
1804.00 -44.91159743   8.41456148
1806.00 -45.01675514   8.44203834
1808.00 -45.12201588   8.46957321
1810.00 -45.22737961   8.49716612
1812.00 -45.33284629   8.52481713
1814.00 -45.43841587   8.55252629
1816.00 -45.54408831   8.58029365
1818.00 -45.64986358   8.60811927
1820.00 -45.75574162   8.63600320
1822.00 -45.86172240   8.66394548
1824.00 -45.96780588   8.69194617
1826.00 -46.07399200   8.72000532
1828.00 -46.18028073   8.74812299
1830.00 -46.28667203   8.77629921
1832.00 -46.39316585   8.80453405
1834.00 -46.49976215   8.83282756
1836.00 -46.60646089   8.86117979
1838.00 -46.71326202   8.88959078
1840.00 -46.82016551   8.91806059
1842.00 -46.92717131   8.94658928
1844.00 -47.03427937   8.97517689
1846.00 -47.14148966   9.00382347
1848.00 -47.24880212   9.03252907
1850.00 -47.35621673   9.06129375
1852.00 -47.46373343   9.09011755
1854.00 -47.57135219   9.11900054
1856.00 -47.67907295   9.14794275
1858.00 -47.78689569   9.17694424
1860.00 -47.89482034   9.20600505
1862.00 -48.00284688   9.23512525
1864.00 -48.11097525   9.26430488
1866.00 -48.21920542   9.29354400
1868.00 -48.32753734   9.32284264
1870.00 -48.43597097   9.35220087
1872.00 -48.54450626   9.38161873
1874.00 -48.65314317   9.41109628
1876.00 -48.76188167   9.44063356
1878.00 -48.87072169   9.47023063
1880.00 -48.97966321   9.49988753
1882.00 -49.08870618   9.52960432
1884.00 -49.19785055   9.55938104
1886.00 -49.30709629   9.58921775
1888.00 -49.41644334   9.61911450
1890.00 -49.52589167   9.64907134
1892.00 -49.63544123   9.67908831
1894.00 -49.74509197   9.70916547
1896.00 -49.85484386   9.73930287
1898.00 -49.96469685   9.76950056
1900.00 -50.07465090   9.79975858
1902.00 -50.18470596   9.83007699
1904.00 -50.29486199   9.86045584
1906.00 -50.40511894   9.89089518
1908.00 -50.51547678   9.92139505
1910.00 -50.62593545   9.95195552
1912.00 -50.73649492   9.98257662
1914.00 -50.84715514  10.01325840
1916.00 -50.95791606  10.04400093
1918.00 -51.06877765  10.07480424
1920.00 -51.17973986  10.10566839
1922.00 -51.29080264  10.13659342
1924.00 -51.40196595  10.16757939
1926.00 -51.51322974  10.19862634
1928.00 -51.62459398  10.22973433
1930.00 -51.73605862  10.26090340
1932.00 -51.84762361  10.29213360
1934.00 -51.95928891  10.32342499
1936.00 -52.07105448  10.35477760
1938.00 -52.18292027  10.38619150
1940.00 -52.29488623  10.41766673
1942.00 -52.40695233  10.44920334
1944.00 -52.51911852  10.48080138
1946.00 -52.63138475  10.51246090
1948.00 -52.74375098  10.54418194
1950.00 -52.85621716  10.57596456
1952.00 -52.96878326  10.60780881
1954.00 -53.08144922  10.63971473
1956.00 -53.19421501  10.67168237
1958.00 -53.30708057  10.70371178
1960.00 -53.42004587  10.73580302
1962.00 -53.53311085  10.76795612
1964.00 -53.64627548  10.80017115
1966.00 -53.75953970  10.83244814
1968.00 -53.87290348  10.86478714
1970.00 -53.98636677  10.89718821
1972.00 -54.09992953  10.92965140
1974.00 -54.21359170  10.96217674
1976.00 -54.32735325  10.99476430
1978.00 -54.44121413  11.02741411
1980.00 -54.55517430  11.06012624
1982.00 -54.66923370  11.09290071
1984.00 -54.78339230  11.12573760
1986.00 -54.89765005  11.15863693
1988.00 -55.01200691  11.19159876
1990.00 -55.12646283  11.22462315
1992.00 -55.24101777  11.25771013
1994.00 -55.35567167  11.29085976
1996.00 -55.47042450  11.32407208
1998.00 -55.58527621  11.35734714
2000.00 -55.70022676  11.39068499
2002.00 -55.81527609  11.42408568
2004.00 -55.93042417  11.45754925
2006.00 -56.04567096  11.49107576
2008.00 -56.16101639  11.52466525
2010.00 -56.27646043  11.55831777
2012.00 -56.39200304  11.59203337
2014.00 -56.50764417  11.62581209
2016.00 -56.62338376  11.65965398
2018.00 -56.73922179  11.69355910
2020.00 -56.85515820  11.72752748
2022.00 -56.97119294  11.76155918
2024.00 -57.08732598  11.79565424
2026.00 -57.20355726  11.82981271
2028.00 -57.31988674  11.86403465
2030.00 -57.43631438  11.89832008
2032.00 -57.55284012  11.93266907
2034.00 -57.66946393  11.96708166
2036.00 -57.78618575  12.00155790
2038.00 -57.90300555  12.03609784
2040.00 -58.01992327  12.07070151
2042.00 -58.13693887  12.10536898
2044.00 -58.25405231  12.14010028
2046.00 -58.37126353  12.17489547
2048.00 -58.48857250  12.20975459
2050.00 -58.60597917  12.24467769
2052.00 -58.72348348  12.27966481
2054.00 -58.84108540  12.31471600
2056.00 -58.95878488  12.34983131
2058.00 -59.07658188  12.38501079
2060.00 -59.19447634  12.42025448
2062.00 -59.31246822  12.45556244
2064.00 -59.43055748  12.49093469
2066.00 -59.54874406  12.52637131
2068.00 -59.66702793  12.56187232
2070.00 -59.78540903  12.59743777
2072.00 -59.90388733  12.63306772
2074.00 -60.02246277  12.66876221
2076.00 -60.14113531  12.70452129
2078.00 -60.25990490  12.74034500
2080.00 -60.37877149  12.77623339
2082.00 -60.49773504  12.81218650
2084.00 -60.61679551  12.84820439
2086.00 -60.73595284  12.88428709
2088.00 -60.85520700  12.92043466
2090.00 -60.97455792  12.95664714
2092.00 -61.09400558  12.99292458
2094.00 -61.21354991  13.02926701
2096.00 -61.33319088  13.06567450
2098.00 -61.45292844  13.10214709
2100.00 -61.57276253  13.13868481
2102.00 -61.69269313  13.17528772
2104.00 -61.81272017  13.21195587
2106.00 -61.93284361  13.24868929
2108.00 -62.05306340  13.28548804
2110.00 -62.17337951  13.32235217
2112.00 -62.29379187  13.35928170
2114.00 -62.41430045  13.39627670
2116.00 -62.53490520  13.43333721
2118.00 -62.65560606  13.47046327
2120.00 -62.77640300  13.50765493
2122.00 -62.89729597  13.54491224
2124.00 -63.01828492  13.58223524
2126.00 -63.13936980  13.61962397
2128.00 -63.26055057  13.65707848
2130.00 -63.38182718  13.69459883
2132.00 -63.50319958  13.73218504
2134.00 -63.62466773  13.76983717
2136.00 -63.74623157  13.80755526
2138.00 -63.86789106  13.84533937
2140.00 -63.98964616  13.88318952
2142.00 -64.11149682  13.92110578
2144.00 -64.23344299  13.95908817
2146.00 -64.35548462  13.99713676
2148.00 -64.47762166  14.03525158
2150.00 -64.59985408  14.07343268
2152.00 -64.72218181  14.11168010
2154.00 -64.84460482  14.14999390
2156.00 -64.96712306  14.18837410
2158.00 -65.08973647  14.22682077
2160.00 -65.21244502  14.26533393
2162.00 -65.33524865  14.30391365
2164.00 -65.45814732  14.34255996
2166.00 -65.58114097  14.38127290
2168.00 -65.70422957  14.42005253
2170.00 -65.82741307  14.45889888
2172.00 -65.95069141  14.49781201
2174.00 -66.07406455  14.53679195
2176.00 -66.19753245  14.57583875
2178.00 -66.32109504  14.61495246
2180.00 -66.44475230  14.65413311
2182.00 -66.56850416  14.69338076
2184.00 -66.69235059  14.73269544
2186.00 -66.81629153  14.77207721
2188.00 -66.94032694  14.81152610
2190.00 -67.06445676  14.85104217
2192.00 -67.18868096  14.89062545
2194.00 -67.31299948  14.93027598
2196.00 -67.43741227  14.96999382
2198.00 -67.56191930  15.00977901
2200.00 -67.68652050  15.04963158
2202.00 -67.81121583  15.08955159
2204.00 -67.93600525  15.12953908
2206.00 -68.06088870  15.16959409
2208.00 -68.18586614  15.20971667
2210.00 -68.31093752  15.24990685
2212.00 -68.43610279  15.29016469
2214.00 -68.56136191  15.33049023
2216.00 -68.68671482  15.37088351
2218.00 -68.81216148  15.41134457
2220.00 -68.93770184  15.45187346
2222.00 -69.06333585  15.49247022
2224.00 -69.18906347  15.53313489
2226.00 -69.31488464  15.57386753
2228.00 -69.44079931  15.61466816
2230.00 -69.56680745  15.65553684
2232.00 -69.69290900  15.69647361
2234.00 -69.81910390  15.73747851
2236.00 -69.94539213  15.77855158
2238.00 -70.07177361  15.81969288
2240.00 -70.19824832  15.86090243
2242.00 -70.32481619  15.90218029
2244.00 -70.45147719  15.94352649
2246.00 -70.57823125  15.98494109
2248.00 -70.70507834  16.02642411
2250.00 -70.83201841  16.06797562
2252.00 -70.95905140  16.10959564
2254.00 -71.08617727  16.15128422
2256.00 -71.21339597  16.19304141
2258.00 -71.34070745  16.23486725
2260.00 -71.46811166  16.27676177
2262.00 -71.59560856  16.31872503
2264.00 -71.72319809  16.36075706
2266.00 -71.85088021  16.40285792
2268.00 -71.97865487  16.44502763
2270.00 -72.10652202  16.48726624
2272.00 -72.23448160  16.52957380
2274.00 -72.36253358  16.57195035
2276.00 -72.49067790  16.61439592
2278.00 -72.61891452  16.65691057
2280.00 -72.74724338  16.69949434
2282.00 -72.87566444  16.74214726
2284.00 -73.00417764  16.78486938
2286.00 -73.13278295  16.82766074
2288.00 -73.26148030  16.87052139
2290.00 -73.39026966  16.91345136
2292.00 -73.51915097  16.95645069
2294.00 -73.64812418  16.99951944
2296.00 -73.77718924  17.04265764
2298.00 -73.90634611  17.08586533
2300.00 -74.03559474  17.12914256
2302.00 -74.16493507  17.17248936
2304.00 -74.29436706  17.21590578
2306.00 -74.42389066  17.25939186
2308.00 -74.55350582  17.30294765
2310.00 -74.68321249  17.34657318
2312.00 -74.81301062  17.39026849
2314.00 -74.94290016  17.43403363
2316.00 -75.07288107  17.47786864
2318.00 -75.20295329  17.52177356
2320.00 -75.33311677  17.56574843
2322.00 -75.46337147  17.60979329
2324.00 -75.59371733  17.65390819
2326.00 -75.72415431  17.69809316
2328.00 -75.85468236  17.74234825
2330.00 -75.98530142  17.78667350
2332.00 -76.11601146  17.83106895
2334.00 -76.24681241  17.87553463
2336.00 -76.37770423  17.92007060
2338.00 -76.50868687  17.96467689
2340.00 -76.63976029  18.00935355
2342.00 -76.77092442  18.05410060
2344.00 -76.90217922  18.09891811
2346.00 -77.03352465  18.14380610
2348.00 -77.16496065  18.18876461
2350.00 -77.29648717  18.23379370
2352.00 -77.42810416  18.27889339
2354.00 -77.55981158  18.32406373
2356.00 -77.69160937  18.36930476
2358.00 -77.82349749  18.41461652
2360.00 -77.95547588  18.45999905
2362.00 -78.08754449  18.50545240
2364.00 -78.21970328  18.55097660
2366.00 -78.35195219  18.59657168
2368.00 -78.48429118  18.64223771
2370.00 -78.61672020  18.68797470
2372.00 -78.74923919  18.73378271
2374.00 -78.88184810  18.77966177
2376.00 -79.01454690  18.82561193
2378.00 -79.14733551  18.87163322
2380.00 -79.28021391  18.91772569
2382.00 -79.41318203  18.96388937
2384.00 -79.54623983  19.01012430
2386.00 -79.67938725  19.05643053
2388.00 -79.81262425  19.10280809
2390.00 -79.94595077  19.14925703
2392.00 -80.07936678  19.19577739
2394.00 -80.21287220  19.24236919
2396.00 -80.34646701  19.28903250
2398.00 -80.48015114  19.33576733
2400.00 -80.61392454  19.38257374
2402.00 -80.74778718  19.42945176
2404.00 -80.88173898  19.47640144
2406.00 -81.01577992  19.52342280
2408.00 -81.14990992  19.57051590
2410.00 -81.28412896  19.61768078
2412.00 -81.41843696  19.66491746
2414.00 -81.55283389  19.71222599
2416.00 -81.68731970  19.75960641
2418.00 -81.82189433  19.80705877
2420.00 -81.95655773  19.85458309
2422.00 -82.09130986  19.90217941
2424.00 -82.22615066  19.94984779
2426.00 -82.36108008  19.99758825
2428.00 -82.49609807  20.04540083
2430.00 -82.63120458  20.09328559
2432.00 -82.76639957  20.14124254
2434.00 -82.90168297  20.18927173
2436.00 -83.03705475  20.23737321
2438.00 -83.17251485  20.28554701
2440.00 -83.30806321  20.33379316
2442.00 -83.44369980  20.38211172
2444.00 -83.57942455  20.43050271
2446.00 -83.71523742  20.47896617
2448.00 -83.85113835  20.52750215
2450.00 -83.98712730  20.57611068
2452.00 -84.12320422  20.62479181
2454.00 -84.25936905  20.67354556
2456.00 -84.39562175  20.72237198
2458.00 -84.53196226  20.77127111
2460.00 -84.66839053  20.82024298
2462.00 -84.80490652  20.86928764
2464.00 -84.94151016  20.91840512
2466.00 -85.07820142  20.96759546
2468.00 -85.21498024  21.01685869
2470.00 -85.35184656  21.06619487
2472.00 -85.48880034  21.11560402
2474.00 -85.62584154  21.16508618
2476.00 -85.76297008  21.21464139
2478.00 -85.90018593  21.26426969
2480.00 -86.03748904  21.31397112
2482.00 -86.17487935  21.36374571
2484.00 -86.31235681  21.41359351
2486.00 -86.44992138  21.46351455
2488.00 -86.58757299  21.51350886
2490.00 -86.72531161  21.56357650
2492.00 -86.86313717  21.61371748
2494.00 -87.00104963  21.66393186
2496.00 -87.13904894  21.71421967
2498.00 -87.27713505  21.76458094
2500.00 -87.41530789  21.81501572
2502.00 -87.55356744  21.86552404
2504.00 -87.69191362  21.91610594
2506.00 -87.83034639  21.96676146
2508.00 -87.96886571  22.01749063
2510.00 -88.10747151  22.06829349
2512.00 -88.24616375  22.11917009
2514.00 -88.38494238  22.17012045
2516.00 -88.52380734  22.22114461
2518.00 -88.66275858  22.27224261
2520.00 -88.80179606  22.32341449
2522.00 -88.94091972  22.37466029
2524.00 -89.08012951  22.42598003
2526.00 -89.21942538  22.47737377
2528.00 -89.35880727  22.52884153
2530.00 -89.49827514  22.58038336
2532.00 -89.63782894  22.63199928
2534.00 -89.77746860  22.68368934
2536.00 -89.91719409  22.73545357
2538.00 -90.05700535  22.78729202
2540.00 -90.19690233  22.83920471
2542.00 -90.33688498  22.89119168
2544.00 -90.47695324  22.94325298
2546.00 -90.61710706  22.99538863
2548.00 -90.75734640  23.04759867
2550.00 -90.89767120  23.09988314
2552.00 -91.03808141  23.15224208
2554.00 -91.17857698  23.20467552
2556.00 -91.31915785  23.25718350
2558.00 -91.45982398  23.30976605
2560.00 -91.60057531  23.36242321
2562.00 -91.74141179  23.41515503
2564.00 -91.88233338  23.46796152
2566.00 -92.02334001  23.52084274
2568.00 -92.16443164  23.57379871
2570.00 -92.30560821  23.62682947
2572.00 -92.44686968  23.67993506
2574.00 -92.58821598  23.73311551
2576.00 -92.72964708  23.78637086
2578.00 -92.87116291  23.83970115
2580.00 -93.01276343  23.89310641
2582.00 -93.15444859  23.94658668
2584.00 -93.29621833  24.00014199
2586.00 -93.43807260  24.05377237
2588.00 -93.58001134  24.10747788
2590.00 -93.72203452  24.16125853
2592.00 -93.86414206  24.21511436
2594.00 -94.00633393  24.26904542
2596.00 -94.14861008  24.32305173
2598.00 -94.29097044  24.37713334
2600.00 -94.43341497  24.43129027
2602.00 -94.57594361  24.48552256
2604.00 -94.71855632  24.53983025
2606.00 -94.86125304  24.59421338
2608.00 -95.00403372  24.64867197
2610.00 -95.14689830  24.70320606
2612.00 -95.28984674  24.75781570
2614.00 -95.43287898  24.81250091
2616.00 -95.57599498  24.86726172
2618.00 -95.71919467  24.92209818
2620.00 -95.86247801  24.97701032
2622.00 -96.00584494  25.03199817
2624.00 -96.14929542  25.08706176
2626.00 -96.29282939  25.14220115
2628.00 -96.43644679  25.19741634
2630.00 -96.58014758  25.25270740
2632.00 -96.72393171  25.30807433
2634.00 -96.86779911  25.36351719
2636.00 -97.01174975  25.41903601
2638.00 -97.15578356  25.47463082
2640.00 -97.29990050  25.53030165
2642.00 -97.44410050  25.58604854
2644.00 -97.58838353  25.64187153
2646.00 -97.73274953  25.69777064
2648.00 -97.87719844  25.75374592
2650.00 -98.02173022  25.80979739
2652.00 -98.16634480  25.86592510
2654.00 -98.31104215  25.92212907
2656.00 -98.45582220  25.97840934
2658.00 -98.60068490  26.03476595
2660.00 -98.74563021  26.09119892
2662.00 -98.89065806  26.14770830
2664.00 -99.03576841  26.20429411
2666.00 -99.18096120  26.26095639
2668.00 -99.32623639  26.31769517
2670.00 -99.47159391  26.37451050
2672.00 -99.61703372  26.43140239
2674.00 -99.76255577  26.48837089
2676.00 -99.90815999  26.54541603
2678.00 -100.05384634  26.60253784
2680.00 -100.19961477  26.65973635
2682.00 -100.34546523  26.71701161
2684.00 -100.49139765  26.77436364
2686.00 -100.63741199  26.83179248
2688.00 -100.78350820  26.88929815
2690.00 -100.92968622  26.94688070
2692.00 -101.07594600  27.00454016
2694.00 -101.22228749  27.06227656
2696.00 -101.36871063  27.12008993
2698.00 -101.51521538  27.17798030
2700.00 -101.66180167  27.23594772
2702.00 -101.80846947  27.29399221
2704.00 -101.95521870  27.35211381
2706.00 -102.10204933  27.41031255
2708.00 -102.24896130  27.46858845
2710.00 -102.39595455  27.52694157
2712.00 -102.54302903  27.58537192
2714.00 -102.69018470  27.64387954
2716.00 -102.83742149  27.70246447
2718.00 -102.98473936  27.76112673
2720.00 -103.13213824  27.81986637
2722.00 -103.27961810  27.87868340
2724.00 -103.42717887  27.93757787
2726.00 -103.57482051  27.99654981
2728.00 -103.72254296  28.05559925
2730.00 -103.87034616  28.11472622
2732.00 -104.01823007  28.17393075
2734.00 -104.16619462  28.23321288
2736.00 -104.31423978  28.29257265
2738.00 -104.46236548  28.35201007
2740.00 -104.61057168  28.41152519
2742.00 -104.75885831  28.47111803
2744.00 -104.90722533  28.53078864
2746.00 -105.05567269  28.59053703
2748.00 -105.20420032  28.65036325
2750.00 -105.35280818  28.71026733
2752.00 -105.50149622  28.77024929
2754.00 -105.65026437  28.83030917
2756.00 -105.79911260  28.89044700
2758.00 -105.94804084  28.95066282
2760.00 -106.09704904  29.01095665
2762.00 -106.24613715  29.07132853
2764.00 -106.39530511  29.13177848
2766.00 -106.54455288  29.19230655
2768.00 -106.69388039  29.25291276
2770.00 -106.84328761  29.31359714
2772.00 -106.99277446  29.37435973
2774.00 -107.14234091  29.43520056
2776.00 -107.29198689  29.49611965
2778.00 -107.44171235  29.55711704
2780.00 -107.59151725  29.61819277
2782.00 -107.74140152  29.67934686
2784.00 -107.89136511  29.74057934
2786.00 -108.04140798  29.80189025
2788.00 -108.19153006  29.86327961
2790.00 -108.34173130  29.92474746
2792.00 -108.49201166  29.98629383
2794.00 -108.64237107  30.04791876
2796.00 -108.79280949  30.10962226
2798.00 -108.94332685  30.17140437
2800.00 -109.09392311  30.23326513
2802.00 -109.24459822  30.29520456
2804.00 -109.39535212  30.35722270
2806.00 -109.54618475  30.41931957
2808.00 -109.69709606  30.48149521
2810.00 -109.84808601  30.54374965
2812.00 -109.99915453  30.60608292
2814.00 -110.15030158  30.66849504
2816.00 -110.30152709  30.73098606
2818.00 -110.45283102  30.79355599
2820.00 -110.60421331  30.85620488
2822.00 -110.75567392  30.91893274
2824.00 -110.90721277  30.98173962
2826.00 -111.05882983  31.04462554
2828.00 -111.21052504  31.10759053
2830.00 -111.36229834  31.17063463
2832.00 -111.51414969  31.23375786
2834.00 -111.66607902  31.29696025
2836.00 -111.81808629  31.36024184
2838.00 -111.97017143  31.42360265
2840.00 -112.12233441  31.48704271
2842.00 -112.27457515  31.55056206
2844.00 -112.42689362  31.61416072
2846.00 -112.57928975  31.67783872
2848.00 -112.73176350  31.74159610
2850.00 -112.88431481  31.80543288
2852.00 -113.03694362  31.86934910
2854.00 -113.18964988  31.93334478
2856.00 -113.34243354  31.99741995
2858.00 -113.49529454  32.06157464
2860.00 -113.64823284  32.12580889
2862.00 -113.80124837  32.19012272
2864.00 -113.95434108  32.25451616
2866.00 -114.10751093  32.31898924
2868.00 -114.26075785  32.38354199
2870.00 -114.41408179  32.44817445
2872.00 -114.56748270  32.51288663
2874.00 -114.72096052  32.57767857
2876.00 -114.87451521  32.64255030
2878.00 -115.02814670  32.70750185
2880.00 -115.18185494  32.77253324
2882.00 -115.33563988  32.83764451
2884.00 -115.48950147  32.90283568
2886.00 -115.64343965  32.96810679
2888.00 -115.79745437  33.03345786
2890.00 -115.95154557  33.09888893
2892.00 -116.10571320  33.16440001
2894.00 -116.25995721  33.22999115
2896.00 -116.41427754  33.29566236
2898.00 -116.56867413  33.36141369
2900.00 -116.72314695  33.42724514
2902.00 -116.87769592  33.49315677
2904.00 -117.03232100  33.55914859
2906.00 -117.18702213  33.62522063
2908.00 -117.34179926  33.69137292
2910.00 -117.49665233  33.75760549
2912.00 -117.65158130  33.82391837
2914.00 -117.80658610  33.89031159
2916.00 -117.96166668  33.95678517
2918.00 -118.11682299  34.02333915
2920.00 -118.27205498  34.08997355
2922.00 -118.42736259  34.15668839
2924.00 -118.58274576  34.22348372
2926.00 -118.73820445  34.29035956
2928.00 -118.89373860  34.35731592
2930.00 -119.04934815  34.42435286
2932.00 -119.20503305  34.49147038
2934.00 -119.36079325  34.55866852
2936.00 -119.51662868  34.62594731
2938.00 -119.67253931  34.69330678
2940.00 -119.82852507  34.76074695
2942.00 -119.98458592  34.82826785
2944.00 -120.14072178  34.89586951
2946.00 -120.29693262  34.96355195
2948.00 -120.45321838  35.03131521
2950.00 -120.60957900  35.09915931
2952.00 -120.76601443  35.16708428
2954.00 -120.92252462  35.23509015
2956.00 -121.07910950  35.30317695
2958.00 -121.23576903  35.37134469
2960.00 -121.39250316  35.43959342
2962.00 -121.54931182  35.50792315
2964.00 -121.70619497  35.57633392
2966.00 -121.86315255  35.64482575
2968.00 -122.02018451  35.71339867
2970.00 -122.17729078  35.78205270
2972.00 -122.33447132  35.85078788
2974.00 -122.49172608  35.91960423
2976.00 -122.64905500  35.98850178
2978.00 -122.80645802  36.05748055
2980.00 -122.96393509  36.12654058
2982.00 -123.12148615  36.19568188
2984.00 -123.27911116  36.26490449
2986.00 -123.43681005  36.33420844
2988.00 -123.59458278  36.40359374
2990.00 -123.75242929  36.47306043
2992.00 -123.91034952  36.54260853
2994.00 -124.06834343  36.61223808
2996.00 -124.22641094  36.68194909
2998.00 -124.38455202  36.75174159
3000.00 -124.54276661  36.82161562
3002.00 -124.70105465  36.89157119
3004.00 -124.85941609  36.96160833
3006.00 -125.01785087  37.03172708
3008.00 -125.17635894  37.10192745
3010.00 -125.33494025  37.17220947
3012.00 -125.49359474  37.24257317
3014.00 -125.65232235  37.31301858
3016.00 -125.81112304  37.38354571
3018.00 -125.96999674  37.45415461
3020.00 -126.12894341  37.52484529
3022.00 -126.28796299  37.59561778
3024.00 -126.44705542  37.66647210
3026.00 -126.60622065  37.73740829
3028.00 -126.76545863  37.80842636
3030.00 -126.92476930  37.87952635
3032.00 -127.08415260  37.95070828
3034.00 -127.24360849  38.02197217
3036.00 -127.40313690  38.09331805
3038.00 -127.56273779  38.16474595
3040.00 -127.72241109  38.23625590
3042.00 -127.88215676  38.30784791
3044.00 -128.04197474  38.37952202
3046.00 -128.20186498  38.45127824
3048.00 -128.36182741  38.52311662
3050.00 -128.52186200  38.59503716
3052.00 -128.68196867  38.66703990
3054.00 -128.84214738  38.73912486
3056.00 -129.00239807  38.81129207
3058.00 -129.16272069  38.88354155
3060.00 -129.32311518  38.95587332
3062.00 -129.48358150  39.02828743
3064.00 -129.64411957  39.10078387
3066.00 -129.80472936  39.17336270
3068.00 -129.96541080  39.24602392
3070.00 -130.12616384  39.31876756
3072.00 -130.28698843  39.39159365
3074.00 -130.44788451  39.46450222
3076.00 -130.60885202  39.53749328
3078.00 -130.76989092  39.61056687
3080.00 -130.93100114  39.68372300
3082.00 -131.09218264  39.75696171
3084.00 -131.25343535  39.83028302
3086.00 -131.41475923  39.90368695
3088.00 -131.57615422  39.97717352
3090.00 -131.73762026  40.05074277
3092.00 -131.89915730  40.12439471
3094.00 -132.06076528  40.19812938
3096.00 -132.22244416  40.27194679
3098.00 -132.38419387  40.34584696
3100.00 -132.54601436  40.41982994
3102.00 -132.70790558  40.49389573
3104.00 -132.86986746  40.56804436
3106.00 -133.03189997  40.64227587
3108.00 -133.19400304  40.71659026
3110.00 -133.35617661  40.79098757
3112.00 -133.51842064  40.86546782
3114.00 -133.68073506  40.94003103
3116.00 -133.84311983  41.01467723
3118.00 -134.00557488  41.08940644
3120.00 -134.16810017  41.16421869
3122.00 -134.33069564  41.23911400
3124.00 -134.49336123  41.31409239
3126.00 -134.65609689  41.38915389
3128.00 -134.81890256  41.46429852
3130.00 -134.98177820  41.53952631
3132.00 -135.14472374  41.61483727
3134.00 -135.30773913  41.69023144
3136.00 -135.47082431  41.76570884
3138.00 -135.63397924  41.84126948
3140.00 -135.79720385  41.91691340
3142.00 -135.96049809  41.99264061
3144.00 -136.12386191  42.06845114
3146.00 -136.28729525  42.14434502
3148.00 -136.45079806  42.22032227
3150.00 -136.61437027  42.29638290
3152.00 -136.77801185  42.37252695
3154.00 -136.94172273  42.44875444
3156.00 -137.10550285  42.52506538
3158.00 -137.26935217  42.60145981
3160.00 -137.43327062  42.67793775
3162.00 -137.59725816  42.75449921
3164.00 -137.76131472  42.83114423
3166.00 -137.92544026  42.90787282
3168.00 -138.08963471  42.98468502
3170.00 -138.25389803  43.06158083
3172.00 -138.41823016  43.13856028
3174.00 -138.58263104  43.21562341
3176.00 -138.74710062  43.29277022
3178.00 -138.91163884  43.37000075
3180.00 -139.07624565  43.44731501
3182.00 -139.24092100  43.52471303
3184.00 -139.40566482  43.60219483
3186.00 -139.57047707  43.67976043
3188.00 -139.73535769  43.75740986
3190.00 -139.90030662  43.83514313
3192.00 -140.06532381  43.91296028
3194.00 -140.23040921  43.99086131
3196.00 -140.39556276  44.06884627
3198.00 -140.56078440  44.14691516
3200.00 -140.72607408  44.22506801
3202.00 -140.89143174  44.30330484
3204.00 -141.05685734  44.38162568
3206.00 -141.22235081  44.46003054
3208.00 -141.38791210  44.53851945
3210.00 -141.55354115  44.61709243
3212.00 -141.71923792  44.69574950
3214.00 -141.88500234  44.77449068
3216.00 -142.05083436  44.85331601
3218.00 -142.21673392  44.93222548
3220.00 -142.38270098  45.01121914
3222.00 -142.54873547  45.09029700
3224.00 -142.71483734  45.16945909
3226.00 -142.88100654  45.24870542
3228.00 -143.04724300  45.32803601
3230.00 -143.21354668  45.40745089
3232.00 -143.37991753  45.48695009
3234.00 -143.54635547  45.56653361
3236.00 -143.71286047  45.64620148
3238.00 -143.87943247  45.72595373
3240.00 -144.04607140  45.80579038
3242.00 -144.21277722  45.88571144
3244.00 -144.37954987  45.96571694
3246.00 -144.54638930  46.04580690
3248.00 -144.71329544  46.12598134
3250.00 -144.88026825  46.20624028
3252.00 -145.04730767  46.28658375
3254.00 -145.21441365  46.36701176
3256.00 -145.38158613  46.44752433
3258.00 -145.54882505  46.52812149
3260.00 -145.71613036  46.60880325
3262.00 -145.88350201  46.68956965
3264.00 -146.05093994  46.77042069
3266.00 -146.21844409  46.85135640
3268.00 -146.38601442  46.93237680
3270.00 -146.55365086  47.01348191
3272.00 -146.72135335  47.09467176
3274.00 -146.88912186  47.17594636
3276.00 -147.05695631  47.25730573
3278.00 -147.22485666  47.33874989
3280.00 -147.39282285  47.42027887
3282.00 -147.56085482  47.50189268
3284.00 -147.72895253  47.58359135
3286.00 -147.89711590  47.66537489
3288.00 -148.06534490  47.74724333
3290.00 -148.23363946  47.82919668
3292.00 -148.40199954  47.91123497
3294.00 -148.57042506  47.99335822
3296.00 -148.73891599  48.07556644
3298.00 -148.90747226  48.15785966
3300.00 -149.07609382  48.24023790
3302.00 -149.24478061  48.32270117
3304.00 -149.41353258  48.40524951
3306.00 -149.58234968  48.48788291
3308.00 -149.75123185  48.57060142
3310.00 -149.92017902  48.65340504
3312.00 -150.08919116  48.73629380
3314.00 -150.25826820  48.81926772
3316.00 -150.42741010  48.90232681
3318.00 -150.59661678  48.98547110
3320.00 -150.76588820  49.06870060
3322.00 -150.93522431  49.15201534
3324.00 -151.10462504  49.23541533
3326.00 -151.27409035  49.31890060
3328.00 -151.44362017  49.40247116
3330.00 -151.61321446  49.48612703
3332.00 -151.78287316  49.56986824
3334.00 -151.95259621  49.65369480
3336.00 -152.12238355  49.73760673
3338.00 -152.29223514  49.82160405
3340.00 -152.46215092  49.90568679
3342.00 -152.63213083  49.98985495
3344.00 -152.80217482  50.07410856
3346.00 -152.97228283  50.15844763
3348.00 -153.14245480  50.24287220
3350.00 -153.31269069  50.32738227
3352.00 -153.48299043  50.41197786
3354.00 -153.65335398  50.49665900
3356.00 -153.82378127  50.58142570
3358.00 -153.99427226  50.66627798
3360.00 -154.16482688  50.75121586
3362.00 -154.33544508  50.83623936
3364.00 -154.50612681  50.92134850
3366.00 -154.67687201  51.00654329
3368.00 -154.84768062  51.09182376
3370.00 -155.01855260  51.17718992
3372.00 -155.18948788  51.26264180
3374.00 -155.36048641  51.34817940
3376.00 -155.53154814  51.43380276
3378.00 -155.70267301  51.51951188
3380.00 -155.87386096  51.60530679
3382.00 -156.04511195  51.69118750
3384.00 -156.21642590  51.77715403
3386.00 -156.38780278  51.86320641
3388.00 -156.55924253  51.94934465
3390.00 -156.73074508  52.03556876
3392.00 -156.90231039  52.12187877
3394.00 -157.07393839  52.20827469
3396.00 -157.24562905  52.29475654
3398.00 -157.41738229  52.38132435
3400.00 -157.58919806  52.46797812
3402.00 -157.76107631  52.55471787
3404.00 -157.93301699  52.64154363
3406.00 -158.10502004  52.72845542
3408.00 -158.27708540  52.81545324
3410.00 -158.44921301  52.90253711
3412.00 -158.62140284  52.98970707
3414.00 -158.79365481  53.07696311
3416.00 -158.96596887  53.16430527
3418.00 -159.13834497  53.25173355
3420.00 -159.31078305  53.33924797
3422.00 -159.48328306  53.42684856
3424.00 -159.65584495  53.51453534
3426.00 -159.82846865  53.60230830
3428.00 -160.00115411  53.69016749
3430.00 -160.17390128  53.77811290
3432.00 -160.34671011  53.86614457
3434.00 -160.51958053  53.95426250
3436.00 -160.69251249  54.04246671
3438.00 -160.86550594  54.13075723
3440.00 -161.03856082  54.21913406
3442.00 -161.21167707  54.30759723
3444.00 -161.38485465  54.39614676
3446.00 -161.55809350  54.48478265
3448.00 -161.73139355  54.57350493
3450.00 -161.90475477  54.66231361
3452.00 -162.07817708  54.75120872
3454.00 -162.25166044  54.84019026
3456.00 -162.42520479  54.92925825
3458.00 -162.59881007  55.01841272
3460.00 -162.77247624  55.10765367
3462.00 -162.94620323  55.19698112
3464.00 -163.11999099  55.28639510
3466.00 -163.29383947  55.37589562
3468.00 -163.46774861  55.46548269
3470.00 -163.64171835  55.55515632
3472.00 -163.81574864  55.64491655
3474.00 -163.98983943  55.73476338
3476.00 -164.16399066  55.82469683
3478.00 -164.33820227  55.91471691
3480.00 -164.51247421  56.00482365
3482.00 -164.68680643  56.09501706
3484.00 -164.86119886  56.18529715
3486.00 -165.03565146  56.27566394
3488.00 -165.21016417  56.36611745
3490.00 -165.38473694  56.45665769
3492.00 -165.55936970  56.54728468
3494.00 -165.73406240  56.63799844
3496.00 -165.90881500  56.72879898
3498.00 -166.08362743  56.81968631
3500.00 -166.25849964  56.91066046
3502.00 -166.43343157  57.00172144
3504.00 -166.60842317  57.09286926
3506.00 -166.78347438  57.18410394
3508.00 -166.95858515  57.27542550
3510.00 -167.13375543  57.36683395
3512.00 -167.30898515  57.45832931
3514.00 -167.48427427  57.54991159
3516.00 -167.65962272  57.64158081
3518.00 -167.83503046  57.73333698
3520.00 -168.01049743  57.82518012
3522.00 -168.18602357  57.91711025
3524.00 -168.36160882  58.00912738
3526.00 -168.53725314  58.10123152
3528.00 -168.71295647  58.19342270
3530.00 -168.88871875  58.28570092
3532.00 -169.06453993  58.37806621
3534.00 -169.24041995  58.47051857
3536.00 -169.41635876  58.56305802
3538.00 -169.59235630  58.65568458
3540.00 -169.76841252  58.74839826
3542.00 -169.94452736  58.84119908
3544.00 -170.12070077  58.93408705
3546.00 -170.29693269  59.02706218
3548.00 -170.47322307  59.12012450
3550.00 -170.64957185  59.21327402
3552.00 -170.82597898  59.30651075
3554.00 -171.00244440  59.39983470
3556.00 -171.17896806  59.49324590
3558.00 -171.35554990  59.58674435
3560.00 -171.53218987  59.68033007
3562.00 -171.70888791  59.77400307
3564.00 -171.88564397  59.86776338
3566.00 -172.06245799  59.96161100
3568.00 -172.23932991  60.05554594
3570.00 -172.41625969  60.14956823
3572.00 -172.59324727  60.24367788
3574.00 -172.77029259  60.33787490
3576.00 -172.94739560  60.43215931
3578.00 -173.12455624  60.52653111
3580.00 -173.30177445  60.62099034
3582.00 -173.47905019  60.71553699
3584.00 -173.65638340  60.81017108
3586.00 -173.83377402  60.90489263
3588.00 -174.01122199  60.99970165
3590.00 -174.18872727  61.09459815
3592.00 -174.36628980  61.18958216
3594.00 -174.54390952  61.28465368
3596.00 -174.72158638  61.37981272
3598.00 -174.89932032  61.47505931
3600.00 -175.07711129  61.57039345
3602.00 -175.25495923  61.66581515
3604.00 -175.43286408  61.76132444
3606.00 -175.61082581  61.85692133
3608.00 -175.78884433  61.95260583
3610.00 -175.96691962  62.04837795
3612.00 -176.14505160  62.14423770
3614.00 -176.32324022  62.24018511
3616.00 -176.50148543  62.33622018
3618.00 -176.67978718  62.43234293
3620.00 -176.85814540  62.52855336
3622.00 -177.03656005  62.62485151
3624.00 -177.21503107  62.72123736
3626.00 -177.39355840  62.81771095
3628.00 -177.57214199  62.91427229
3630.00 -177.75078178  63.01092138
3632.00 -177.92947772  63.10765824
3634.00 -178.10822976  63.20448289
3636.00 -178.28703783  63.30139533
3638.00 -178.46590189  63.39839558
3640.00 -178.64482188  63.49548365
3642.00 -178.82379775  63.59265956
3644.00 -179.00282943  63.68992332
3646.00 -179.18191688  63.78727494
3648.00 -179.36106004  63.88471443
3650.00 -179.54025886  63.98224181
3652.00 -179.71951327  64.07985709
3654.00 -179.89882323  64.17756028
3656.00 -180.07818868  64.27535140
3658.00 -180.25760957  64.37323046
3660.00 -180.43708584  64.47119746
3662.00 -180.61661743  64.56925243
3664.00 -180.79620430  64.66739538
3666.00 -180.97584638  64.76562631
3668.00 -181.15554363  64.86394525
3670.00 -181.33529598  64.96235219
3672.00 -181.51510338  65.06084717
3674.00 -181.69496579  65.15943017
3676.00 -181.87488313  65.25810123
3678.00 -182.05485536  65.35686036
3680.00 -182.23488243  65.45570755
3682.00 -182.41496427  65.55464283
3684.00 -182.59510084  65.65366622
3686.00 -182.77529207  65.75277771
3688.00 -182.95553792  65.85197732
3690.00 -183.13583833  65.95126507
3692.00 -183.31619324  66.05064097
3694.00 -183.49660261  66.15010502
3696.00 -183.67706637  66.24965725
3698.00 -183.85758446  66.34929766
3700.00 -184.03815685  66.44902626
3702.00 -184.21878346  66.54884307
3704.00 -184.39946425  66.64874809
3706.00 -184.58019916  66.74874135
3708.00 -184.76098814  66.84882285
3710.00 -184.94183113  66.94899259
3712.00 -185.12272808  67.04925061
3714.00 -185.30367893  67.14959690
3716.00 -185.48468363  67.25003147
3718.00 -185.66574212  67.35055435
3720.00 -185.84685435  67.45116553
3722.00 -186.02802026  67.55186504
3724.00 -186.20923980  67.65265288
3726.00 -186.39051292  67.75352906
3728.00 -186.57183956  67.85449360
3730.00 -186.75321966  67.95554650
3732.00 -186.93465317  68.05668779
3734.00 -187.11614004  68.15791746
3736.00 -187.29768021  68.25923553
3738.00 -187.47927362  68.36064201
3740.00 -187.66092023  68.46213691
3742.00 -187.84261998  68.56372025
3744.00 -188.02437281  68.66539203
3746.00 -188.20617866  68.76715227
3748.00 -188.38803749  68.86900097
3750.00 -188.56994924  68.97093815
3752.00 -188.75191385  69.07296381
3754.00 -188.93393127  69.17507797
3756.00 -189.11600145  69.27728064
3758.00 -189.29812433  69.37957183
3760.00 -189.48029986  69.48195155
3762.00 -189.66252797  69.58441981
3764.00 -189.84480862  69.68697662
3766.00 -190.02714176  69.78962200
3768.00 -190.20952732  69.89235594
3770.00 -190.39196526  69.99517847
3772.00 -190.57445551  70.09808959
3774.00 -190.75699803  70.20108931
3776.00 -190.93959276  70.30417764
3778.00 -191.12223965  70.40735460
3780.00 -191.30493863  70.51062020
3782.00 -191.48768966  70.61397443
3784.00 -191.67049268  70.71741732
3786.00 -191.85334764  70.82094888
3788.00 -192.03625449  70.92456911
3790.00 -192.21921316  71.02827802
3792.00 -192.40222360  71.13207563
3794.00 -192.58528577  71.23596194
3796.00 -192.76839960  71.33993697
3798.00 -192.95156504  71.44400072
3800.00 -193.13478203  71.54815320
3802.00 -193.31805053  71.65239443
3804.00 -193.50137048  71.75672441
3806.00 -193.68474181  71.86114315
3808.00 -193.86816449  71.96565066
3810.00 -194.05163845  72.07024696
3812.00 -194.23516364  72.17493205
3814.00 -194.41874000  72.27970594
3816.00 -194.60236749  72.38456865
3818.00 -194.78604604  72.48952017
3820.00 -194.96977560  72.59456052
3822.00 -195.15355613  72.69968971
3824.00 -195.33738755  72.80490775
3826.00 -195.52126982  72.91021465
3828.00 -195.70520289  73.01561042
3830.00 -195.88918670  73.12109506
3832.00 -196.07322120  73.22666859
3834.00 -196.25730632  73.33233101
3836.00 -196.44144203  73.43808234
3838.00 -196.62562825  73.54392257
3840.00 -196.80986495  73.64985174
3842.00 -196.99415206  73.75586983
3844.00 -197.17848953  73.86197686
3846.00 -197.36287731  73.96817284
3848.00 -197.54731533  74.07445778
3850.00 -197.73180356  74.18083168
3852.00 -197.91634193  74.28729457
3854.00 -198.10093038  74.39384643
3856.00 -198.28556888  74.50048729
3858.00 -198.47025735  74.60721715
3860.00 -198.65499575  74.71403602
3862.00 -198.83978402  74.82094391
3864.00 -199.02462211  74.92794082
3866.00 -199.20950996  75.03502678
3868.00 -199.39444752  75.14220177
3870.00 -199.57943473  75.24946582
3872.00 -199.76447155  75.35681893
3874.00 -199.94955792  75.46426112
3876.00 -200.13469377  75.57179238
3878.00 -200.31987907  75.67941272
3880.00 -200.50511375  75.78712216
3882.00 -200.69039776  75.89492071
3884.00 -200.87573104  76.00280836
3886.00 -201.06111355  76.11078513
3888.00 -201.24654523  76.21885104
3890.00 -201.43202602  76.32700607
3892.00 -201.61755587  76.43525025
3894.00 -201.80313472  76.54358359
3896.00 -201.98876253  76.65200608
3898.00 -202.17443923  76.76051774
3900.00 -202.36016478  76.86911857
3902.00 -202.54593912  76.97780859
3904.00 -202.73176219  77.08658780
3906.00 -202.91763395  77.19545621
3908.00 -203.10355433  77.30441382
3910.00 -203.28952328  77.41346065
3912.00 -203.47554075  77.52259670
3914.00 -203.66160669  77.63182198
3916.00 -203.84772104  77.74113650
3918.00 -204.03388375  77.85054026
3920.00 -204.22009476  77.96003327
3922.00 -204.40635402  78.06961555
3924.00 -204.59266147  78.17928709
3926.00 -204.77901707  78.28904790
3928.00 -204.96542075  78.39889800
3930.00 -205.15187246  78.50883738
3932.00 -205.33837216  78.61886606
3934.00 -205.52491978  78.72898405
3936.00 -205.71151528  78.83919134
3938.00 -205.89815859  78.94948796
3940.00 -206.08484966  79.05987390
3942.00 -206.27158845  79.17034917
3944.00 -206.45837489  79.28091378
3946.00 -206.64520893  79.39156774
3948.00 -206.83209052  79.50231105
3950.00 -207.01901961  79.61314372
3952.00 -207.20599613  79.72406575
3954.00 -207.39302005  79.83507717
3956.00 -207.58009130  79.94617796
3958.00 -207.76720982  80.05736814
3960.00 -207.95437557  80.16864771
3962.00 -208.14158850  80.28001668
3964.00 -208.32884854  80.39147507
3966.00 -208.51615564  80.50302286
3968.00 -208.70350976  80.61466008
3970.00 -208.89091083  80.72638673
3972.00 -209.07835880  80.83820280
3974.00 -209.26585363  80.95010832
3976.00 -209.45339525  81.06210329
3978.00 -209.64098361  81.17418771
3980.00 -209.82861866  81.28636159
3982.00 -210.01630034  81.39862493
3984.00 -210.20402860  81.51097775
3986.00 -210.39180339  81.62342005
3988.00 -210.57962465  81.73595183
3990.00 -210.76749234  81.84857310
3992.00 -210.95540639  81.96128387
3994.00 -211.14336675  82.07408414
3996.00 -211.33137337  82.18697392
3998.00 -211.51942619  82.29995322
4000.00 -211.70752517  82.41302203
4002.00 -211.89567024  82.52618038
4004.00 -212.08386136  82.63942826
4006.00 -212.27209846  82.75276567
4008.00 -212.46038151  82.86619264
4010.00 -212.64871044  82.97970915
4012.00 -212.83708519  83.09331522
4014.00 -213.02550573  83.20701085
4016.00 -213.21397198  83.32079605
4018.00 -213.40248391  83.43467082
4020.00 -213.59104145  83.54863518
4022.00 -213.77964456  83.66268911
4024.00 -213.96829317  83.77683264
4026.00 -214.15698724  83.89106576
4028.00 -214.34572671  84.00538849
4030.00 -214.53451152  84.11980082
4032.00 -214.72334164  84.23430277
4034.00 -214.91221699  84.34889433
4036.00 -215.10113753  84.46357551
4038.00 -215.29010321  84.57834632
4040.00 -215.47911396  84.69320677
4042.00 -215.66816975  84.80815686
4044.00 -215.85727051  84.92319659
4046.00 -216.04641619  85.03832596
4048.00 -216.23560674  85.15354500
4050.00 -216.42484210  85.26885369
4052.00 -216.61412222  85.38425204
4054.00 -216.80344705  85.49974007
4056.00 -216.99281653  85.61531777
4058.00 -217.18223062  85.73098514
4060.00 -217.37168925  85.84674221
4062.00 -217.56119237  85.96258896
4064.00 -217.75073994  86.07852540
4066.00 -217.94033190  86.19455154
4068.00 -218.12996818  86.31066739
4070.00 -218.31964875  86.42687294
4072.00 -218.50937355  86.54316821
4074.00 -218.69914252  86.65955319
4076.00 -218.88895562  86.77602790
4078.00 -219.07881278  86.89259233
4080.00 -219.26871395  87.00924649
4082.00 -219.45865909  87.12599039
4084.00 -219.64864814  87.24282403
4086.00 -219.83868104  87.35974741
4088.00 -220.02875774  87.47676054
4090.00 -220.21887820  87.59386343
4092.00 -220.40904234  87.71105607
4094.00 -220.59925014  87.82833847
4096.00 -220.78950152  87.94571064
4098.00 -220.97979643  88.06317257
4100.00 -221.17013484  88.18072429
4102.00 -221.36051667  88.29836578
4104.00 -221.55094187  88.41609705
4106.00 -221.74141041  88.53391811
4108.00 -221.93192221  88.65182896
4110.00 -222.12247723  88.76982960
4112.00 -222.31307542  88.88792004
4114.00 -222.50371672  89.00610029
4116.00 -222.69440108  89.12437034
4118.00 -222.88512844  89.24273020
4120.00 -223.07589876  89.36117987
4122.00 -223.26671197  89.47971936
4124.00 -223.45756804  89.59834867
4126.00 -223.64846689  89.71706781
4128.00 -223.83940849  89.83587677
4130.00 -224.03039278  89.95477557
4132.00 -224.22141970  90.07376421
4134.00 -224.41248921  90.19284268
4136.00 -224.60360124  90.31201099
4138.00 -224.79475575  90.43126915
4140.00 -224.98595269  90.55061717
4142.00 -225.17719199  90.67005503
4144.00 -225.36847362  90.78958275
4146.00 -225.55979751  90.90920033
4148.00 -225.75116361  91.02890777
4150.00 -225.94257187  91.14870508
4152.00 -226.13402224  91.26859226
4154.00 -226.32551466  91.38856931
4156.00 -226.51704908  91.50863624
4158.00 -226.70862545  91.62879305
4160.00 -226.90024372  91.74903974
4162.00 -227.09190383  91.86937631
4164.00 -227.28360573  91.98980277
4166.00 -227.47534937  92.11031912
4168.00 -227.66713469  92.23092537
4170.00 -227.85896165  92.35162152
4172.00 -228.05083018  92.47240756
4174.00 -228.24274024  92.59328351
4176.00 -228.43469177  92.71424936
4178.00 -228.62668473  92.83530512
4180.00 -228.81871906  92.95645079
4182.00 -229.01079470  93.07768637
4184.00 -229.20291160  93.19901187
4186.00 -229.39506972  93.32042729
4188.00 -229.58726899  93.44193263
4190.00 -229.77950937  93.56352790
4192.00 -229.97179080  93.68521309
4194.00 -230.16411323  93.80698821
4196.00 -230.35647662  93.92885326
4198.00 -230.54888089  94.05080825
4200.00 -230.74132601  94.17285317
4202.00 -230.93381192  94.29498803
4204.00 -231.12633857  94.41721283
4206.00 -231.31890591  94.53952757
4208.00 -231.51151387  94.66193226
4210.00 -231.70416242  94.78442690
4212.00 -231.89685150  94.90701148
4214.00 -232.08958105  95.02968602
4216.00 -232.28235102  95.15245051
4218.00 -232.47516137  95.27530496
4220.00 -232.66801203  95.39824937
4222.00 -232.86090296  95.52128373
4224.00 -233.05383411  95.64440806
4226.00 -233.24680542  95.76762235
4228.00 -233.43981683  95.89092661
4230.00 -233.63286830  96.01432084
4232.00 -233.82595978  96.13780503
4234.00 -234.01909121  96.26137920
4236.00 -234.21226254  96.38504333
4238.00 -234.40547371  96.50879745
4240.00 -234.59872469  96.63264153
4242.00 -234.79201540  96.75657560
4244.00 -234.98534581  96.88059965
4246.00 -235.17871585  97.00471368
4248.00 -235.37212548  97.12891768
4250.00 -235.56557465  97.25321168
4252.00 -235.75906329  97.37759566
4254.00 -235.95259137  97.50206962
4256.00 -236.14615883  97.62663358
4258.00 -236.33976561  97.75128752
4260.00 -236.53341166  97.87603146
4262.00 -236.72709693  98.00086539
4264.00 -236.92082138  98.12578931
4266.00 -237.11458494  98.25080322
4268.00 -237.30838757  98.37590714
4270.00 -237.50222921  98.50110105
4272.00 -237.69610981  98.62638495
4274.00 -237.89002931  98.75175886
4276.00 -238.08398768  98.87722277
4278.00 -238.27798485  99.00277668
4280.00 -238.47202077  99.12842059
4282.00 -238.66609540  99.25415450
4284.00 -238.86020867  99.37997842
4286.00 -239.05436054  99.50589234
4288.00 -239.24855096  99.63189627
4290.00 -239.44277986  99.75799021
4292.00 -239.63704721  99.88417415
4294.00 -239.83135295 100.01044811
4296.00 -240.02569703 100.13681207
4298.00 -240.22007939 100.26326604
4300.00 -240.41449998 100.38981002
4302.00 -240.60895876 100.51644401
4304.00 -240.80345566 100.64316802
4306.00 -240.99799065 100.76998203
4308.00 -241.19256366 100.89688606
4310.00 -241.38717464 101.02388010
4312.00 -241.58182355 101.15096415
4314.00 -241.77651032 101.27813822
4316.00 -241.97123492 101.40540230
4318.00 -242.16599728 101.53275640
4320.00 -242.36079736 101.66020051
4322.00 -242.55563511 101.78773464
4324.00 -242.75051046 101.91535878
4326.00 -242.94542338 102.04307294
4328.00 -243.14037380 102.17087711
4330.00 -243.33536168 102.29877130
4332.00 -243.53038697 102.42675551
4334.00 -243.72544961 102.55482973
4336.00 -243.92054955 102.68299396
4338.00 -244.11568675 102.81124822
4340.00 -244.31086114 102.93959248
4342.00 -244.50607268 103.06802677
4344.00 -244.70132131 103.19655107
4346.00 -244.89660699 103.32516538
4348.00 -245.09192967 103.45386972
4350.00 -245.28728928 103.58266406
4352.00 -245.48268579 103.71154842
4354.00 -245.67811913 103.84052280
4356.00 -245.87358926 103.96958719
4358.00 -246.06909612 104.09874159
4360.00 -246.26463967 104.22798601
4362.00 -246.46021985 104.35732044
4364.00 -246.65583661 104.48674489
4366.00 -246.85148990 104.61625935
4368.00 -247.04717967 104.74586381
4370.00 -247.24290586 104.87555829
4372.00 -247.43866843 105.00534278
4374.00 -247.63446733 105.13521728
4376.00 -247.83030250 105.26518179
4378.00 -248.02617389 105.39523631
4380.00 -248.22208144 105.52538084
4382.00 -248.41802512 105.65561537
4384.00 -248.61400487 105.78593992
4386.00 -248.81002063 105.91635446
4388.00 -249.00607235 106.04685901
4390.00 -249.20215999 106.17745357
4392.00 -249.39828350 106.30813813
4394.00 -249.59444281 106.43891269
4396.00 -249.79063789 106.56977725
4398.00 -249.98686867 106.70073181
4400.00 -250.18313511 106.83177637
4402.00 -250.37943716 106.96291093
4404.00 -250.57577476 107.09413549
4406.00 -250.77214787 107.22545004
4408.00 -250.96855643 107.35685459
4410.00 -251.16500039 107.48834913
4412.00 -251.36147970 107.61993366
4414.00 -251.55799432 107.75160819
4416.00 -251.75454418 107.88337270
4418.00 -251.95112924 108.01522720
4420.00 -252.14774945 108.14717169
4422.00 -252.34440475 108.27920617
4424.00 -252.54109510 108.41133063
4426.00 -252.73782044 108.54354507
4428.00 -252.93458072 108.67584949
4430.00 -253.13137590 108.80824389
4432.00 -253.32820592 108.94072827
4434.00 -253.52507073 109.07330263
4436.00 -253.72197028 109.20596696
4438.00 -253.91890451 109.33872127
4440.00 -254.11587339 109.47156554
4442.00 -254.31287685 109.60449979
4444.00 -254.50991484 109.73752400
4446.00 -254.70698732 109.87063818
4448.00 -254.90409424 110.00384233
4450.00 -255.10123554 110.13713644
4452.00 -255.29841117 110.27052050
4454.00 -255.49562108 110.40399453
4456.00 -255.69286523 110.53755851
4458.00 -255.89014355 110.67121245
4460.00 -256.08745601 110.80495634
4462.00 -256.28480254 110.93879019
4464.00 -256.48218310 111.07271398
4466.00 -256.67959764 111.20672771
4468.00 -256.87704611 111.34083140
4470.00 -257.07452845 111.47502502
4472.00 -257.27204462 111.60930858
4474.00 -257.46959457 111.74368208
4476.00 -257.66717823 111.87814552
4478.00 -257.86479558 112.01269889
4480.00 -258.06244654 112.14734219
4482.00 -258.26013108 112.28207542
4484.00 -258.45784914 112.41689858
4486.00 -258.65560068 112.55181166
4488.00 -258.85338563 112.68681466
4490.00 -259.05120395 112.82190758
4492.00 -259.24905560 112.95709041
4494.00 -259.44694051 113.09236316
4496.00 -259.64485865 113.22772582
4498.00 -259.84280995 113.36317839
4500.00 -260.04079438 113.49872086
4502.00 -260.23881187 113.63435324
4504.00 -260.43686237 113.77007552
4506.00 -260.63494585 113.90588769
4508.00 -260.83306224 114.04178976
4510.00 -261.03121150 114.17778172
4512.00 -261.22939358 114.31386358
4514.00 -261.42760842 114.45003531
4516.00 -261.62585598 114.58629693
4518.00 -261.82413620 114.72264843
4520.00 -262.02244904 114.85908981
4522.00 -262.22079445 114.99562106
4524.00 -262.41917237 115.13224219
4526.00 -262.61758275 115.26895318
4528.00 -262.81602555 115.40575404
4530.00 -263.01450072 115.54264475
4532.00 -263.21300819 115.67962533
4534.00 -263.41154794 115.81669577
4536.00 -263.61011989 115.95385605
4538.00 -263.80872401 116.09110619
4540.00 -264.00736024 116.22844617
4542.00 -264.20602854 116.36587599
4544.00 -264.40472885 116.50339566
4546.00 -264.60346113 116.64100515
4548.00 -264.80222532 116.77870449
4550.00 -265.00102137 116.91649365
4552.00 -265.19984923 117.05437263
4554.00 -265.39870886 117.19234144
4556.00 -265.59760021 117.33040007
4558.00 -265.79652321 117.46854851
4560.00 -265.99547783 117.60678676
4562.00 -266.19446402 117.74511482
4564.00 -266.39348172 117.88353268
4566.00 -266.59253088 118.02204035
4568.00 -266.79161146 118.16063781
4570.00 -266.99072340 118.29932506
4572.00 -267.18986665 118.43810211
4574.00 -267.38904117 118.57696893
4576.00 -267.58824691 118.71592554
4578.00 -267.78748381 118.85497193
4580.00 -267.98675183 118.99410809
4582.00 -268.18605091 119.13333402
4584.00 -268.38538101 119.27264972
4586.00 -268.58474207 119.41205517
4588.00 -268.78413405 119.55155039
4590.00 -268.98355690 119.69113536
4592.00 -269.18301056 119.83081008
4594.00 -269.38249500 119.97057454
4596.00 -269.58201015 120.11042874
4598.00 -269.78155597 120.25037269
4600.00 -269.98113240 120.39040636
4602.00 -270.18073941 120.53052976
4604.00 -270.38037694 120.67074289
4606.00 -270.58004493 120.81104574
4608.00 -270.77974335 120.95143830
4610.00 -270.97947214 121.09192058
4612.00 -271.17923125 121.23249256
4614.00 -271.37902063 121.37315424
4616.00 -271.57884023 121.51390562
4618.00 -271.77869001 121.65474670
4620.00 -271.97856991 121.79567746
4622.00 -272.17847989 121.93669791
4624.00 -272.37841989 122.07780804
4626.00 -272.57838986 122.21900784
4628.00 -272.77838976 122.36029731
4630.00 -272.97841954 122.50167645
4632.00 -273.17847915 122.64314525
4634.00 -273.37856853 122.78470371
4636.00 -273.57868764 122.92635182
4638.00 -273.77883644 123.06808957
4640.00 -273.97901486 123.20991697
4642.00 -274.17922286 123.35183401
4644.00 -274.37946040 123.49384067
4646.00 -274.57972742 123.63593697
4648.00 -274.78002387 123.77812288
4650.00 -274.98034970 123.92039842
4652.00 -275.18070488 124.06276357
4654.00 -275.38108933 124.20521832
4656.00 -275.58150303 124.34776268
4658.00 -275.78194591 124.49039663
4660.00 -275.98241793 124.63312018
4662.00 -276.18291904 124.77593331
4664.00 -276.38344919 124.91883602
4666.00 -276.58400833 125.06182832
4668.00 -276.78459642 125.20491018
4670.00 -276.98521339 125.34808161
4672.00 -277.18585922 125.49134260
4674.00 -277.38653383 125.63469314
4676.00 -277.58723720 125.77813324
4678.00 -277.78796926 125.92166288
4680.00 -277.98872997 126.06528206
4682.00 -278.18951928 126.20899077
4684.00 -278.39033714 126.35278901
4686.00 -278.59118351 126.49667677
4688.00 -278.79205832 126.64065406
4690.00 -278.99296155 126.78472085
4692.00 -279.19389312 126.92887715
4694.00 -279.39485301 127.07312295
4696.00 -279.59584115 127.21745824
4698.00 -279.79685750 127.36188303
4700.00 -279.99790201 127.50639729
4702.00 -280.19897463 127.65100104
4704.00 -280.40007532 127.79569425
4706.00 -280.60120402 127.94047694
4708.00 -280.80236069 128.08534908
4710.00 -281.00354527 128.23031068
4712.00 -281.20475772 128.37536172
4714.00 -281.40599799 128.52050221
4716.00 -281.60726604 128.66573213
4718.00 -281.80856180 128.81105149
4720.00 -282.00988524 128.95646027
4722.00 -282.21123631 129.10195847
4724.00 -282.41261495 129.24754608
4726.00 -282.61402112 129.39322310
4728.00 -282.81545477 129.53898952
4730.00 -283.01691585 129.68484533
4732.00 -283.21840432 129.83079053
4734.00 -283.41992012 129.97682511
4736.00 -283.62146321 130.12294907
4738.00 -283.82303353 130.26916239
4740.00 -284.02463104 130.41546508
4742.00 -284.22625570 130.56185713
4744.00 -284.42790744 130.70833853
4746.00 -284.62958624 130.85490927
4748.00 -284.83129202 131.00156934
4750.00 -285.03302476 131.14831875
4752.00 -285.23478439 131.29515749
4754.00 -285.43657088 131.44208554
4756.00 -285.63838417 131.58910290
4758.00 -285.84022421 131.73620957
4760.00 -286.04209096 131.88340553
4762.00 -286.24398437 132.03069079
4764.00 -286.44590439 132.17806533
4766.00 -286.64785097 132.32552916
4768.00 -286.84982406 132.47308225
4770.00 -287.05182362 132.62072461
4772.00 -287.25384960 132.76845622
4774.00 -287.45590195 132.91627709
4776.00 -287.65798062 133.06418720
4778.00 -287.86008556 133.21218655
4780.00 -288.06221673 133.36027513
4782.00 -288.26437407 133.50845294
4784.00 -288.46655755 133.65671996
4786.00 -288.66876710 133.80507619
4788.00 -288.87100269 133.95352163
4790.00 -289.07326427 134.10205626
4792.00 -289.27555178 134.25068008
4794.00 -289.47786519 134.39939308
4796.00 -289.68020443 134.54819526
4798.00 -289.88256947 134.69708661
4800.00 -290.08496025 134.84606711
4802.00 -290.28737674 134.99513677
4804.00 -290.48981887 135.14429558
4806.00 -290.69228661 135.29354352
4808.00 -290.89477990 135.44288060
4810.00 -291.09729870 135.59230680
4812.00 -291.29984296 135.74182212
4814.00 -291.50241263 135.89142654
4816.00 -291.70500766 136.04112007
4818.00 -291.90762801 136.19090270
4820.00 -292.11027363 136.34077441
4822.00 -292.31294447 136.49073520
4824.00 -292.51564049 136.64078507
4826.00 -292.71836163 136.79092400
4828.00 -292.92110785 136.94115198
4830.00 -293.12387910 137.09146902
4832.00 -293.32667533 137.24187510
4834.00 -293.52949650 137.39237022
4836.00 -293.73234255 137.54295436
4838.00 -293.93521345 137.69362752
4840.00 -294.13810914 137.84438969
4842.00 -294.34102958 137.99524087
4844.00 -294.54397471 138.14618104
4846.00 -294.74694450 138.29721020
4848.00 -294.94993889 138.44832834
4850.00 -295.15295783 138.59953545
4852.00 -295.35600129 138.75083153
4854.00 -295.55906920 138.90221657
4856.00 -295.76216153 139.05369055
4858.00 -295.96527823 139.20525348
4860.00 -296.16841924 139.35690534
4862.00 -296.37158453 139.50864612
4864.00 -296.57477405 139.66047582
4866.00 -296.77798774 139.81239443
4868.00 -296.98122556 139.96440194
4870.00 -297.18448746 140.11649834
4872.00 -297.38777340 140.26868363
4874.00 -297.59108333 140.42095779
4876.00 -297.79441721 140.57332082
4878.00 -297.99777497 140.72577272
4880.00 -298.20115659 140.87831346
4882.00 -298.40456200 141.03094305
4884.00 -298.60799117 141.18366147
4886.00 -298.81144405 141.33646871
4888.00 -299.01492058 141.48936478
4890.00 -299.21842073 141.64234966
4892.00 -299.42194444 141.79542333
4894.00 -299.62549168 141.94858580
4896.00 -299.82906238 142.10183706
4898.00 -300.03265651 142.25517709
4900.00 -300.23627401 142.40860589
4902.00 -300.43991485 142.56212345
4904.00 -300.64357897 142.71572975
4906.00 -300.84726633 142.86942480
4908.00 -301.05097688 143.02320859
4910.00 -301.25471057 143.17708109
4912.00 -301.45846736 143.33104231
4914.00 -301.66224720 143.48509224
4916.00 -301.86605004 143.63923087
4918.00 -302.06987584 143.79345819
4920.00 -302.27372455 143.94777419
4922.00 -302.47759612 144.10217886
4924.00 -302.68149051 144.25667219
4926.00 -302.88540767 144.41125418
4928.00 -303.08934755 144.56592481
4930.00 -303.29331011 144.72068408
4932.00 -303.49729529 144.87553198
4934.00 -303.70130306 145.03046849
4936.00 -303.90533337 145.18549361
4938.00 -304.10938617 145.34060734
4940.00 -304.31346141 145.49580965
4942.00 -304.51755905 145.65110055
4944.00 -304.72167904 145.80648002
4946.00 -304.92582134 145.96194805
4948.00 -305.12998589 146.11750464
4950.00 -305.33417265 146.27314978
4952.00 -305.53838158 146.42888345
4954.00 -305.74261263 146.58470565
4956.00 -305.94686575 146.74061636
4958.00 -306.15114089 146.89661558
4960.00 -306.35543802 147.05270331
4962.00 -306.55975708 147.20887952
4964.00 -306.76409802 147.36514421
4966.00 -306.96846081 147.52149738
4968.00 -307.17284539 147.67793900
4970.00 -307.37725172 147.83446908
4972.00 -307.58167975 147.99108760
4974.00 -307.78612944 148.14779455
4976.00 -307.99060073 148.30458993
4978.00 -308.19509359 148.46147372
4980.00 -308.39960797 148.61844592
4982.00 -308.60414382 148.77550651
4984.00 -308.80870109 148.93265548
4986.00 -309.01327975 149.08989283
4988.00 -309.21787973 149.24721855
4990.00 -309.42250101 149.40463262
4992.00 -309.62714352 149.56213504
4994.00 -309.83180723 149.71972580
4996.00 -310.03649209 149.87740488
4998.00 -310.24119805 150.03517228
5000.00 -310.44592507 150.19302799
