wavelength(nm)         real         imag
100.00   3.75973273   0.00134038
102.00   3.75406647   0.00142242
104.00   3.74828805   0.00150774
106.00   3.74239747   0.00159640
108.00   3.73639474   0.00168847
110.00   3.73027985   0.00178401
112.00   3.72405282   0.00188310
114.00   3.71771364   0.00198578
116.00   3.71126231   0.00209213
118.00   3.70469885   0.00220221
120.00   3.69802324   0.00231609
122.00   3.69123550   0.00243382
124.00   3.68433563   0.00255548
126.00   3.67732362   0.00268112
128.00   3.67019949   0.00281082
130.00   3.66296324   0.00294463
132.00   3.65561487   0.00308262
134.00   3.64815438   0.00322486
136.00   3.64058177   0.00337141
138.00   3.63289706   0.00352233
140.00   3.62510024   0.00367768
142.00   3.61719131   0.00383754
144.00   3.60917029   0.00400196
146.00   3.60103717   0.00417102
148.00   3.59279195   0.00434476
150.00   3.58443465   0.00452327
152.00   3.57596526   0.00470660
154.00   3.56738379   0.00489481
156.00   3.55869024   0.00508798
158.00   3.54988461   0.00528616
160.00   3.54096692   0.00548942
162.00   3.53193716   0.00569782
164.00   3.52279533   0.00591143
166.00   3.51354145   0.00613032
168.00   3.50417551   0.00635454
170.00   3.49469752   0.00658416
172.00   3.48510749   0.00681924
174.00   3.47540541   0.00705985
176.00   3.46559129   0.00730606
178.00   3.45566514   0.00755792
180.00   3.44562696   0.00781550
182.00   3.43547676   0.00807887
184.00   3.42521454   0.00834809
186.00   3.41484030   0.00862322
188.00   3.40435404   0.00890433
190.00   3.39375578   0.00919148
192.00   3.38304552   0.00948474
194.00   3.37222326   0.00978417
196.00   3.36128901   0.01008983
198.00   3.35024277   0.01040179
200.00   3.33908455   0.01072011
202.00   3.32781435   0.01104486
204.00   3.31643217   0.01137610
206.00   3.30493803   0.01171390
208.00   3.29333192   0.01205831
210.00   3.28161386   0.01240941
212.00   3.26978384   0.01276725
214.00   3.25784188   0.01313190
216.00   3.24578797   0.01350343
218.00   3.23362212   0.01388190
220.00   3.22134434   0.01426738
222.00   3.20895464   0.01465992
224.00   3.19645301   0.01505959
226.00   3.18383947   0.01546645
228.00   3.17111402   0.01588058
230.00   3.15827666   0.01630203
232.00   3.14532740   0.01673087
234.00   3.13226625   0.01716716
236.00   3.11909321   0.01761096
238.00   3.10580829   0.01806235
240.00   3.09241150   0.01852138
242.00   3.07890283   0.01898812
244.00   3.06528230   0.01946262
246.00   3.05154991   0.01994497
248.00   3.03770567   0.02043521
250.00   3.02374958   0.02093342
252.00   3.00968165   0.02143966
254.00   2.99550189   0.02195398
256.00   2.98121030   0.02247647
258.00   2.96680688   0.02300717
260.00   2.95229165   0.02354615
262.00   2.93766462   0.02409349
264.00   2.92292578   0.02464923
266.00   2.90807514   0.02521345
268.00   2.89311272   0.02578621
270.00   2.87803851   0.02636758
272.00   2.86285252   0.02695761
274.00   2.84755477   0.02755637
276.00   2.83214525   0.02816393
278.00   2.81662397   0.02878034
280.00   2.80099095   0.02940568
282.00   2.78524618   0.03004001
284.00   2.76938967   0.03068338
286.00   2.75342144   0.03133587
288.00   2.73734149   0.03199754
290.00   2.72114982   0.03266845
292.00   2.70484644   0.03334867
294.00   2.68843136   0.03403825
296.00   2.67190459   0.03473728
298.00   2.65526613   0.03544579
300.00   2.63851599   0.03616387
302.00   2.62165418   0.03689158
304.00   2.60468071   0.03762897
306.00   2.58759558   0.03837612
308.00   2.57039880   0.03913308
310.00   2.55309037   0.03989993
312.00   2.53567032   0.04067671
314.00   2.51813863   0.04146351
316.00   2.50049533   0.04226038
318.00   2.48274041   0.04306738
320.00   2.46487390   0.04388458
322.00   2.44689578   0.04471205
324.00   2.42880608   0.04554984
326.00   2.41060480   0.04639802
328.00   2.39229194   0.04725666
330.00   2.37386752   0.04812582
332.00   2.35533155   0.04900555
334.00   2.33668403   0.04989594
336.00   2.31792496   0.05079703
338.00   2.29905437   0.05170889
340.00   2.28007225   0.05263159
342.00   2.26097862   0.05356519
344.00   2.24177348   0.05450976
346.00   2.22245684   0.05546535
348.00   2.20302871   0.05643203
350.00   2.18348910   0.05740987
352.00   2.16383802   0.05839892
354.00   2.14407547   0.05939926
356.00   2.12420147   0.06041094
358.00   2.10421602   0.06143404
360.00   2.08411913   0.06246860
362.00   2.06391081   0.06351470
364.00   2.04359107   0.06457241
366.00   2.02315992   0.06564177
368.00   2.00261737   0.06672286
370.00   1.98196342   0.06781575
372.00   1.96119809   0.06892048
374.00   1.94032138   0.07003714
376.00   1.91933331   0.07116577
378.00   1.89823387   0.07230646
380.00   1.87702309   0.07345924
382.00   1.85570097   0.07462421
384.00   1.83426752   0.07580140
386.00   1.81272275   0.07699090
388.00   1.79106667   0.07819275
390.00   1.76929929   0.07940704
392.00   1.74742061   0.08063381
394.00   1.72543066   0.08187313
396.00   1.70332942   0.08312508
398.00   1.68111693   0.08438970
400.00   1.65879318   0.08566706
402.00   1.63635819   0.08695723
404.00   1.61381197   0.08826027
406.00   1.59115452   0.08957624
408.00   1.56838585   0.09090521
410.00   1.54550599   0.09224724
412.00   1.52251492   0.09360239
414.00   1.49941268   0.09497073
416.00   1.47619925   0.09635232
418.00   1.45287467   0.09774722
420.00   1.42943893   0.09915550
422.00   1.40589205   0.10057722
424.00   1.38223403   0.10201244
426.00   1.35846489   0.10346123
428.00   1.33458464   0.10492365
430.00   1.31059328   0.10639976
432.00   1.28649083   0.10788963
434.00   1.26227731   0.10939332
436.00   1.23795271   0.11091089
438.00   1.21351705   0.11244241
440.00   1.18897034   0.11398793
442.00   1.16431259   0.11554753
444.00   1.13954381   0.11712127
446.00   1.11466402   0.11870920
448.00   1.08967322   0.12031140
450.00   1.06457142   0.12192792
452.00   1.03935864   0.12355883
454.00   1.01403488   0.12520419
456.00   0.98860017   0.12686407
458.00   0.96305450   0.12853852
460.00   0.93739789   0.13022762
462.00   0.91163035   0.13193142
464.00   0.88575189   0.13364998
466.00   0.85976253   0.13538338
468.00   0.83366227   0.13713167
470.00   0.80745113   0.13889492
472.00   0.78112911   0.14067319
474.00   0.75469624   0.14246654
476.00   0.72815251   0.14427503
478.00   0.70149795   0.14609874
480.00   0.67473256   0.14793771
482.00   0.64785635   0.14979203
484.00   0.62086934   0.15166173
486.00   0.59377154   0.15354690
488.00   0.56656296   0.15544760
490.00   0.53924361   0.15736388
492.00   0.51181351   0.15929581
494.00   0.48427266   0.16124345
496.00   0.45662108   0.16320687
498.00   0.42885879   0.16518612
500.00   0.40098578   0.16718128
502.00   0.37300208   0.16919240
504.00   0.34490769   0.17121955
506.00   0.31670263   0.17326279
508.00   0.28838692   0.17532218
510.00   0.25996055   0.17739779
512.00   0.23142356   0.17948967
514.00   0.20277594   0.18159790
516.00   0.17401771   0.18372253
518.00   0.14514889   0.18586363
520.00   0.11616948   0.18802126
522.00   0.08707950   0.19019548
524.00   0.05787896   0.19238635
526.00   0.02856787   0.19459395
528.00  -0.00085375   0.19681832
530.00  -0.03038589   0.19905954
532.00  -0.06002854   0.20131766
534.00  -0.08978168   0.20359276
536.00  -0.11964531   0.20588488
538.00  -0.14961940   0.20819410
540.00  -0.17970395   0.21052048
542.00  -0.20989895   0.21286407
544.00  -0.24020437   0.21522495
546.00  -0.27062021   0.21760317
548.00  -0.30114645   0.21999880
550.00  -0.33178309   0.22241190
552.00  -0.36253010   0.22484253
554.00  -0.39338747   0.22729076
556.00  -0.42435520   0.22975665
558.00  -0.45543326   0.23224025
560.00  -0.48662164   0.23474164
562.00  -0.51792034   0.23726088
564.00  -0.54932933   0.23979802
566.00  -0.58084860   0.24235313
568.00  -0.61247814   0.24492628
570.00  -0.64421793   0.24751752
572.00  -0.67606797   0.25012692
574.00  -0.70802823   0.25275454
576.00  -0.74009871   0.25540044
578.00  -0.77227939   0.25806468
580.00  -0.80457025   0.26074734
582.00  -0.83697128   0.26344846
584.00  -0.86948248   0.26616812
586.00  -0.90210381   0.26890637
588.00  -0.93483527   0.27166328
590.00  -0.96767685   0.27443891
592.00  -1.00062853   0.27723332
594.00  -1.03369029   0.28004657
596.00  -1.06686213   0.28287873
598.00  -1.10014403   0.28572986
600.00  -1.13353596   0.28860002
602.00  -1.16703793   0.29148928
604.00  -1.20064991   0.29439768
606.00  -1.23437189   0.29732531
608.00  -1.26820386   0.30027222
610.00  -1.30214579   0.30323846
612.00  -1.33619768   0.30622412
614.00  -1.37035951   0.30922924
616.00  -1.40463127   0.31225388
618.00  -1.43901294   0.31529812
620.00  -1.47350450   0.31836201
622.00  -1.50810595   0.32144562
624.00  -1.54281726   0.32454900
626.00  -1.57763842   0.32767222
628.00  -1.61256942   0.33081535
630.00  -1.64761024   0.33397843
632.00  -1.68276086   0.33716155
634.00  -1.71802128   0.34036475
636.00  -1.75339147   0.34358810
638.00  -1.78887142   0.34683166
640.00  -1.82446111   0.35009549
642.00  -1.86016054   0.35337966
644.00  -1.89596967   0.35668423
646.00  -1.93188851   0.36000925
648.00  -1.96791702   0.36335480
650.00  -2.00405521   0.36672093
652.00  -2.04030304   0.37010771
654.00  -2.07666051   0.37351519
656.00  -2.11312760   0.37694344
658.00  -2.14970430   0.38039253
660.00  -2.18639058   0.38386250
662.00  -2.22318643   0.38735343
664.00  -2.26009184   0.39086538
666.00  -2.29710679   0.39439840
668.00  -2.33423127   0.39795256
670.00  -2.37146525   0.40152793
672.00  -2.40880873   0.40512456
674.00  -2.44626168   0.40874251
676.00  -2.48382409   0.41238185
678.00  -2.52149594   0.41604264
680.00  -2.55927722   0.41972494
682.00  -2.59716791   0.42342881
684.00  -2.63516800   0.42715431
686.00  -2.67327746   0.43090151
688.00  -2.71149629   0.43467046
690.00  -2.74982446   0.43846124
692.00  -2.78826196   0.44227389
694.00  -2.82680877   0.44610849
696.00  -2.86546487   0.44996509
698.00  -2.90423025   0.45384375
700.00  -2.94310490   0.45774454
702.00  -2.98208879   0.46166752
704.00  -3.02118190   0.46561274
706.00  -3.06038423   0.46958028
708.00  -3.09969575   0.47357019
710.00  -3.13911645   0.47758253
712.00  -3.17864631   0.48161737
714.00  -3.21828531   0.48567476
716.00  -3.25803344   0.48975477
718.00  -3.29789067   0.49385747
720.00  -3.33785700   0.49798290
722.00  -3.37793240   0.50213113
724.00  -3.41811686   0.50630223
726.00  -3.45841035   0.51049625
728.00  -3.49881287   0.51471326
730.00  -3.53932439   0.51895332
732.00  -3.57994490   0.52321648
734.00  -3.62067438   0.52750281
736.00  -3.66151281   0.53181238
738.00  -3.70246018   0.53614523
740.00  -3.74351646   0.54050144
742.00  -3.78468164   0.54488107
744.00  -3.82595570   0.54928417
746.00  -3.86733863   0.55371081
748.00  -3.90883040   0.55816104
750.00  -3.95043099   0.56263494
752.00  -3.99214040   0.56713255
754.00  -4.03395860   0.57165395
756.00  -4.07588557   0.57619919
758.00  -4.11792129   0.58076833
760.00  -4.16006576   0.58536144
762.00  -4.20231894   0.58997857
764.00  -4.24468082   0.59461979
766.00  -4.28715139   0.59928516
768.00  -4.32973062   0.60397474
770.00  -4.37241850   0.60868858
772.00  -4.41521500   0.61342676
774.00  -4.45812011   0.61818933
776.00  -4.50113381   0.62297635
778.00  -4.54425609   0.62778788
780.00  -4.58748692   0.63262399
782.00  -4.63082628   0.63748473
784.00  -4.67427416   0.64237017
786.00  -4.71783053   0.64728036
788.00  -4.76149539   0.65221537
790.00  -4.80526870   0.65717526
792.00  -4.84915045   0.66216009
794.00  -4.89314063   0.66716992
796.00  -4.93723921   0.67220480
798.00  -4.98144617   0.67726481
800.00  -5.02576150   0.68235000
802.00  -5.07018517   0.68746044
804.00  -5.11471717   0.69259617
806.00  -5.15935748   0.69775727
808.00  -5.20410608   0.70294380
810.00  -5.24896294   0.70815581
812.00  -5.29392806   0.71339336
814.00  -5.33900140   0.71865652
816.00  -5.38418296   0.72394535
818.00  -5.42947271   0.72925990
820.00  -5.47487063   0.73460025
822.00  -5.52037670   0.73996644
824.00  -5.56599090   0.74535853
826.00  -5.61171322   0.75077660
828.00  -5.65754363   0.75622070
830.00  -5.70348212   0.76169088
832.00  -5.74952866   0.76718722
834.00  -5.79568323   0.77270977
836.00  -5.84194582   0.77825859
838.00  -5.88831640   0.78383374
840.00  -5.93479496   0.78943528
842.00  -5.98138147   0.79506327
844.00  -6.02807592   0.80071778
846.00  -6.07487828   0.80639885
848.00  -6.12178853   0.81210656
850.00  -6.16880666   0.81784097
852.00  -6.21593265   0.82360212
854.00  -6.26316646   0.82939009
856.00  -6.31050810   0.83520494
858.00  -6.35795752   0.84104671
860.00  -6.40551472   0.84691548
862.00  -6.45317967   0.85281131
864.00  -6.50095235   0.85873425
866.00  -6.54883274   0.86468436
868.00  -6.59682082   0.87066170
870.00  -6.64491658   0.87666635
872.00  -6.69311998   0.88269834
874.00  -6.74143101   0.88875775
876.00  -6.78984965   0.89484463
878.00  -6.83837588   0.90095905
880.00  -6.88700967   0.90710106
882.00  -6.93575101   0.91327072
884.00  -6.98459987   0.91946810
886.00  -7.03355624   0.92569325
888.00  -7.08262009   0.93194624
890.00  -7.13179140   0.93822712
892.00  -7.18107016   0.94453595
894.00  -7.23045633   0.95087280
896.00  -7.27994990   0.95723771
898.00  -7.32955085   0.96363076
900.00  -7.37925915   0.97005201
902.00  -7.42907479   0.97650150
904.00  -7.47899774   0.98297931
906.00  -7.52902798   0.98948548
908.00  -7.57916549   0.99602009
910.00  -7.62941025   1.00258319
912.00  -7.67976224   1.00917484
914.00  -7.73022144   1.01579510
916.00  -7.78078782   1.02244403
918.00  -7.83146136   1.02912168
920.00  -7.88224204   1.03582813
922.00  -7.93312984   1.04256342
924.00  -7.98412474   1.04932763
926.00  -8.03522671   1.05612079
928.00  -8.08643574   1.06294299
930.00  -8.13775180   1.06979427
932.00  -8.18917486   1.07667469
934.00  -8.24070492   1.08358432
936.00  -8.29234194   1.09052322
938.00  -8.34408590   1.09749144
940.00  -8.39593679   1.10448904
942.00  -8.44789457   1.11151608
944.00  -8.49995923   1.11857262
946.00  -8.55213075   1.12565873
948.00  -8.60440910   1.13277445
950.00  -8.65679426   1.13991985
952.00  -8.70928620   1.14709499
954.00  -8.76188491   1.15429993
956.00  -8.81459036   1.16153473
958.00  -8.86740254   1.16879944
960.00  -8.92032141   1.17609412
962.00  -8.97334695   1.18341884
964.00  -9.02647915   1.19077366
966.00  -9.07971798   1.19815862
968.00  -9.13306341   1.20557380
970.00  -9.18651543   1.21301924
972.00  -9.24007401   1.22049502
974.00  -9.29373912   1.22800118
976.00  -9.34751076   1.23553779
978.00  -9.40138888   1.24310490
980.00  -9.45537347   1.25070258
982.00  -9.50946451   1.25833089
984.00  -9.56366198   1.26598987
986.00  -9.61796584   1.27367960
988.00  -9.67237608   1.28140013
990.00  -9.72689267   1.28915152
992.00  -9.78151560   1.29693382
994.00  -9.83624483   1.30474710
996.00  -9.89108034   1.31259142
998.00  -9.94602212   1.32046683
1000.00 -10.00107013   1.32837339
1002.00 -10.05622436   1.33631117
1004.00 -10.11148477   1.34428021
1006.00 -10.16685135   1.35228058
1008.00 -10.22232408   1.36031235
1010.00 -10.27790292   1.36837555
1012.00 -10.33358786   1.37647026
1014.00 -10.38937887   1.38459653
1016.00 -10.44527593   1.39275443
1018.00 -10.50127901   1.40094400
1020.00 -10.55738809   1.40916531
1022.00 -10.61360315   1.41741842
1024.00 -10.66992416   1.42570339
1026.00 -10.72635110   1.43402027
1028.00 -10.78288395   1.44236912
1030.00 -10.83952267   1.45075000
1032.00 -10.89626725   1.45916296
1034.00 -10.95311766   1.46760808
1036.00 -11.01007388   1.47608540
1038.00 -11.06713588   1.48459498
1040.00 -11.12430365   1.49313689
1042.00 -11.18157714   1.50171118
1044.00 -11.23895635   1.51031790
1046.00 -11.29644125   1.51895712
1048.00 -11.35403180   1.52762889
1050.00 -11.41172799   1.53633328
1052.00 -11.46952980   1.54507034
1054.00 -11.52743719   1.55384012
1056.00 -11.58545015   1.56264270
1058.00 -11.64356865   1.57147811
1060.00 -11.70179266   1.58034643
1062.00 -11.76012215   1.58924772
1064.00 -11.81855712   1.59818202
1066.00 -11.87709752   1.60714939
1068.00 -11.93574334   1.61614990
1070.00 -11.99449455   1.62518361
1072.00 -12.05335112   1.63425056
1074.00 -12.11231303   1.64335082
1076.00 -12.17138026   1.65248445
1078.00 -12.23055278   1.66165150
1080.00 -12.28983056   1.67085204
1082.00 -12.34921358   1.68008611
1084.00 -12.40870182   1.68935378
1086.00 -12.46829524   1.69865511
1088.00 -12.52799383   1.70799014
1090.00 -12.58779755   1.71735895
1092.00 -12.64770639   1.72676159
1094.00 -12.70772032   1.73619811
1096.00 -12.76783931   1.74566857
1098.00 -12.82806334   1.75517303
1100.00 -12.88839238   1.76471156
1102.00 -12.94882640   1.77428419
1104.00 -13.00936538   1.78389101
1106.00 -13.07000930   1.79353205
1108.00 -13.13075812   1.80320738
1110.00 -13.19161183   1.81291705
1112.00 -13.25257040   1.82266113
1114.00 -13.31363379   1.83243967
1116.00 -13.37480199   1.84225272
1118.00 -13.43607498   1.85210035
1120.00 -13.49745271   1.86198261
1122.00 -13.55893517   1.87189956
1124.00 -13.62052234   1.88185126
1126.00 -13.68221417   1.89183776
1128.00 -13.74401066   1.90185913
1130.00 -13.80591177   1.91191541
1132.00 -13.86791748   1.92200666
1134.00 -13.93002776   1.93213295
1136.00 -13.99224258   1.94229433
1138.00 -14.05456192   1.95249086
1140.00 -14.11698575   1.96272259
1142.00 -14.17951405   1.97298958
1144.00 -14.24214678   1.98329188
1146.00 -14.30488393   1.99362957
1148.00 -14.36772547   2.00400268
1150.00 -14.43067136   2.01441128
1152.00 -14.49372158   2.02485543
1154.00 -14.55687612   2.03533518
1156.00 -14.62013493   2.04585059
1158.00 -14.68349799   2.05640172
1160.00 -14.74696528   2.06698862
1162.00 -14.81053676   2.07761135
1164.00 -14.87421242   2.08826996
1166.00 -14.93799223   2.09896452
1168.00 -15.00187615   2.10969508
1170.00 -15.06586416   2.12046169
1172.00 -15.12995624   2.13126442
1174.00 -15.19415236   2.14210332
1176.00 -15.25845248   2.15297844
1178.00 -15.32285659   2.16388985
1180.00 -15.38736465   2.17483760
1182.00 -15.45197665   2.18582174
1184.00 -15.51669254   2.19684234
1186.00 -15.58151231   2.20789944
1188.00 -15.64643592   2.21899311
1190.00 -15.71146335   2.23012341
1192.00 -15.77659458   2.24129038
1194.00 -15.84182957   2.25249408
1196.00 -15.90716829   2.26373458
1198.00 -15.97261073   2.27501192
1200.00 -16.03815684   2.28632617
1202.00 -16.10380661   2.29767738
1204.00 -16.16956001   2.30906560
1206.00 -16.23541701   2.32049090
1208.00 -16.30137757   2.33195333
1210.00 -16.36744168   2.34345294
1212.00 -16.43360931   2.35498979
1214.00 -16.49988042   2.36656394
1216.00 -16.56625499   2.37817544
1218.00 -16.63273300   2.38982435
1220.00 -16.69931441   2.40151073
1222.00 -16.76599919   2.41323462
1224.00 -16.83278732   2.42499610
1226.00 -16.89967877   2.43679521
1228.00 -16.96667351   2.44863200
1230.00 -17.03377152   2.46050655
1232.00 -17.10097276   2.47241889
1234.00 -17.16827720   2.48436909
1236.00 -17.23568483   2.49635720
1238.00 -17.30319560   2.50838329
1240.00 -17.37080950   2.52044739
1242.00 -17.43852649   2.53254958
1244.00 -17.50634654   2.54468990
1246.00 -17.57426963   2.55686841
1248.00 -17.64229573   2.56908517
1250.00 -17.71042481   2.58134024
1252.00 -17.77865683   2.59363366
1254.00 -17.84699178   2.60596549
1256.00 -17.91542963   2.61833580
1258.00 -17.98397034   2.63074463
1260.00 -18.05261388   2.64319204
1262.00 -18.12136023   2.65567809
1264.00 -18.19020936   2.66820282
1266.00 -18.25916123   2.68076631
1268.00 -18.32821583   2.69336860
1270.00 -18.39737312   2.70600974
1272.00 -18.46663307   2.71868980
1274.00 -18.53599565   2.73140883
1276.00 -18.60546084   2.74416688
1278.00 -18.67502861   2.75696401
1280.00 -18.74469891   2.76980028
1282.00 -18.81447174   2.78267573
1284.00 -18.88434705   2.79559043
1286.00 -18.95432482   2.80854443
1288.00 -19.02440502   2.82153778
1290.00 -19.09458762   2.83457054
1292.00 -19.16487259   2.84764277
1294.00 -19.23525990   2.86075452
1296.00 -19.30574952   2.87390584
1298.00 -19.37634142   2.88709680
1300.00 -19.44703558   2.90032744
1302.00 -19.51783195   2.91359782
1304.00 -19.58873052   2.92690799
1306.00 -19.65973126   2.94025802
1308.00 -19.73083412   2.95364795
1310.00 -19.80203909   2.96707784
1312.00 -19.87334614   2.98054774
1314.00 -19.94475523   2.99405771
1316.00 -20.01626633   3.00760781
1318.00 -20.08787941   3.02119809
1320.00 -20.15959445   3.03482860
1322.00 -20.23141142   3.04849939
1324.00 -20.30333028   3.06221053
1326.00 -20.37535100   3.07596207
1328.00 -20.44747356   3.08975406
1330.00 -20.51969793   3.10358656
1332.00 -20.59202406   3.11745961
1334.00 -20.66445194   3.13137329
1336.00 -20.73698154   3.14532763
1338.00 -20.80961281   3.15932270
1340.00 -20.88234574   3.17335854
1342.00 -20.95518030   3.18743522
1344.00 -21.02811644   3.20155279
1346.00 -21.10115415   3.21571130
1348.00 -21.17429338   3.22991080
1350.00 -21.24753412   3.24415136
1352.00 -21.32087633   3.25843302
1354.00 -21.39431998   3.27275584
1356.00 -21.46786504   3.28711987
1358.00 -21.54151147   3.30152517
1360.00 -21.61525926   3.31597179
1362.00 -21.68910836   3.33045979
1364.00 -21.76305875   3.34498922
1366.00 -21.83711039   3.35956013
1368.00 -21.91126325   3.37417258
1370.00 -21.98551731   3.38882662
1372.00 -22.05987254   3.40352230
1374.00 -22.13432889   3.41825969
1376.00 -22.20888635   3.43303883
1378.00 -22.28354487   3.44785978
1380.00 -22.35830444   3.46272258
1382.00 -22.43316501   3.47762731
1384.00 -22.50812656   3.49257400
1386.00 -22.58318905   3.50756271
1388.00 -22.65835246   3.52259351
1390.00 -22.73361675   3.53766643
1392.00 -22.80898189   3.55278153
1394.00 -22.88444785   3.56793888
1396.00 -22.96001460   3.58313851
1398.00 -23.03568211   3.59838049
1400.00 -23.11145034   3.61366486
1402.00 -23.18731927   3.62899169
1404.00 -23.26328886   3.64436103
1406.00 -23.33935908   3.65977292
1408.00 -23.41552990   3.67522742
1410.00 -23.49180129   3.69072459
1412.00 -23.56817322   3.70626448
1414.00 -23.64464565   3.72184715
1416.00 -23.72121855   3.73747263
1418.00 -23.79789190   3.75314100
1420.00 -23.87466565   3.76885230
1422.00 -23.95153978   3.78460658
1424.00 -24.02851426   3.80040391
1426.00 -24.10558905   3.81624432
1428.00 -24.18276412   3.83212788
1430.00 -24.26003945   3.84805464
1432.00 -24.33741499   3.86402465
1434.00 -24.41489071   3.88003796
1436.00 -24.49246659   3.89609463
1438.00 -24.57014259   3.91219472
1440.00 -24.64791868   3.92833826
1442.00 -24.72579483   3.94452532
1444.00 -24.80377100   3.96075595
1446.00 -24.88184717   3.97703021
1448.00 -24.96002329   3.99334813
1450.00 -25.03829935   4.00970979
1452.00 -25.11667530   4.02611523
1454.00 -25.19515111   4.04256450
1456.00 -25.27372675   4.05905765
1458.00 -25.35240219   4.07559475
1460.00 -25.43117739   4.09217583
1462.00 -25.51005233   4.10880096
1464.00 -25.58902697   4.12547019
1466.00 -25.66810128   4.14218357
1468.00 -25.74727522   4.15894114
1470.00 -25.82654876   4.17574298
1472.00 -25.90592187   4.19258912
1474.00 -25.98539452   4.20947962
1476.00 -26.06496667   4.22641453
1478.00 -26.14463830   4.24339390
1480.00 -26.22440936   4.26041779
1482.00 -26.30427983   4.27748625
1484.00 -26.38424967   4.29459934
1486.00 -26.46431885   4.31175709
1488.00 -26.54448733   4.32895957
1490.00 -26.62475509   4.34620683
1492.00 -26.70512208   4.36349892
1494.00 -26.78558829   4.38083590
1496.00 -26.86615367   4.39821780
1498.00 -26.94681818   4.41564470
1500.00 -27.02758181   4.43311663
1502.00 -27.10844451   4.45063365
1504.00 -27.18940625   4.46819582
1506.00 -27.27046699   4.48580318
1508.00 -27.35162671   4.50345579
1510.00 -27.43288538   4.52115370
1512.00 -27.51424294   4.53889695
1514.00 -27.59569938   4.55668561
1516.00 -27.67725466   4.57451973
1518.00 -27.75890875   4.59239935
1520.00 -27.84066161   4.61032452
1522.00 -27.92251321   4.62829531
1524.00 -28.00446351   4.64631176
1526.00 -28.08651248   4.66437392
1528.00 -28.16866010   4.68248185
1530.00 -28.25090631   4.70063559
1532.00 -28.33325110   4.71883520
1534.00 -28.41569442   4.73708073
1536.00 -28.49823625   4.75537223
1538.00 -28.58087654   4.77370975
1540.00 -28.66361527   4.79209335
1542.00 -28.74645240   4.81052307
1544.00 -28.82938789   4.82899897
1546.00 -28.91242172   4.84752110
1548.00 -28.99555385   4.86608951
1550.00 -29.07878424   4.88470424
1552.00 -29.16211286   4.90336536
1554.00 -29.24553967   4.92207291
1556.00 -29.32906465   4.94082695
1558.00 -29.41268776   4.95962752
1560.00 -29.49640896   4.97847468
1562.00 -29.58022821   4.99736848
1564.00 -29.66414549   5.01630896
1566.00 -29.74816076   5.03529619
1568.00 -29.83227399   5.05433020
1570.00 -29.91648514   5.07341106
1572.00 -30.00079417   5.09253881
1574.00 -30.08520106   5.11171351
1576.00 -30.16970576   5.13093520
1578.00 -30.25430825   5.15020394
1580.00 -30.33900848   5.16951977
1582.00 -30.42380643   5.18888275
1584.00 -30.50870205   5.20829292
1586.00 -30.59369532   5.22775035
1588.00 -30.67878620   5.24725508
1590.00 -30.76397466   5.26680715
1592.00 -30.84926065   5.28640663
1594.00 -30.93464415   5.30605356
1596.00 -31.02012511   5.32574799
1598.00 -31.10570352   5.34548997
1600.00 -31.19137932   5.36527956
1602.00 -31.27715248   5.38511679
1604.00 -31.36302298   5.40500174
1606.00 -31.44899077   5.42493444
1608.00 -31.53505582   5.44491494
1610.00 -31.62121809   5.46494330
1612.00 -31.70747756   5.48501956
1614.00 -31.79383417   5.50514378
1616.00 -31.88028791   5.52531600
1618.00 -31.96683873   5.54553628
1620.00 -32.05348660   5.56580467
1622.00 -32.14023148   5.58612121
1624.00 -32.22707333   5.60648597
1626.00 -32.31401213   5.62689897
1628.00 -32.40104784   5.64736029
1630.00 -32.48818041   5.66786996
1632.00 -32.57540982   5.68842804
1634.00 -32.66273603   5.70903457
1636.00 -32.75015901   5.72968962
1638.00 -32.83767871   5.75039321
1640.00 -32.92529511   5.77114542
1642.00 -33.01300816   5.79194628
1644.00 -33.10081784   5.81279585
1646.00 -33.18872410   5.83369418
1648.00 -33.27672691   5.85464131
1650.00 -33.36482624   5.87563729
1652.00 -33.45302204   5.89668218
1654.00 -33.54131429   5.91777603
1656.00 -33.62970294   5.93891888
1658.00 -33.71818796   5.96011078
1660.00 -33.80676932   5.98135179
1662.00 -33.89544698   6.00264195
1664.00 -33.98422089   6.02398131
1666.00 -34.07309104   6.04536993
1668.00 -34.16205737   6.06680785
1670.00 -34.25111986   6.08829511
1672.00 -34.34027847   6.10983178
1674.00 -34.42953316   6.13141790
1676.00 -34.51888390   6.15305351
1678.00 -34.60833064   6.17473868
1680.00 -34.69787336   6.19647344
1682.00 -34.78751201   6.21825785
1684.00 -34.87724656   6.24009195
1686.00 -34.96707698   6.26197580
1688.00 -35.05700322   6.28390944
1690.00 -35.14702526   6.30589292
1692.00 -35.23714305   6.32792630
1694.00 -35.32735656   6.35000961
1696.00 -35.41766575   6.37214292
1698.00 -35.50807058   6.39432627
1700.00 -35.59857102   6.41655970
1702.00 -35.68916704   6.43884327
1704.00 -35.77985858   6.46117702
1706.00 -35.87064563   6.48356101
1708.00 -35.96152814   6.50599528
1710.00 -36.05250607   6.52847988
1712.00 -36.14357939   6.55101487
1714.00 -36.23474806   6.57360028
1716.00 -36.32601204   6.59623617
1718.00 -36.41737130   6.61892258
1720.00 -36.50882580   6.64165957
1722.00 -36.60037550   6.66444719
1724.00 -36.69202037   6.68728547
1726.00 -36.78376037   6.71017448
1728.00 -36.87559546   6.73311425
1730.00 -36.96752561   6.75610484
1732.00 -37.05955077   6.77914630
1734.00 -37.15167091   6.80223867
1736.00 -37.24388600   6.82538200
1738.00 -37.33619599   6.84857634
1740.00 -37.42860085   6.87182174
1742.00 -37.52110054   6.89511824
1744.00 -37.61369503   6.91846590
1746.00 -37.70638427   6.94186477
1748.00 -37.79916823   6.96531488
1750.00 -37.89204688   6.98881629
1752.00 -37.98502017   7.01236905
1754.00 -38.07808806   7.03597321
1756.00 -38.17125053   7.05962881
1758.00 -38.26450753   7.08333590
1760.00 -38.35785902   7.10709452
1762.00 -38.45130497   7.13090474
1764.00 -38.54484534   7.15476658
1766.00 -38.63848008   7.17868011
1768.00 -38.73220918   7.20264537
1770.00 -38.82603258   7.22666241
1772.00 -38.91995024   7.25073127
1774.00 -39.01396214   7.27485201
1776.00 -39.10806823   7.29902467
1778.00 -39.20226848   7.32324929
1780.00 -39.29656284   7.34752593
1782.00 -39.39095128   7.37185463
1784.00 -39.48543376   7.39623545
1786.00 -39.58001025   7.42066842
1788.00 -39.67468070   7.44515359
1790.00 -39.76944508   7.46969102
1792.00 -39.86430334   7.49428075
1794.00 -39.95925546   7.51892283
1796.00 -40.05430139   7.54361730
1798.00 -40.14944110   7.56836422
1800.00 -40.24467454   7.59316362
1802.00 -40.34000168   7.61801556
1804.00 -40.43542248   7.64292008
1806.00 -40.53093690   7.66787723
1808.00 -40.62654490   7.69288706
1810.00 -40.72224645   7.71794962
1812.00 -40.81804151   7.74306494
1814.00 -40.91393003   7.76823309
1816.00 -41.00991199   7.79345410
1818.00 -41.10598733   7.81872802
1820.00 -41.20215603   7.84405491
1822.00 -41.29841805   7.86943479
1824.00 -41.39477334   7.89486773
1826.00 -41.49122186   7.92035377
1828.00 -41.58776359   7.94589296
1830.00 -41.68439847   7.97148534
1832.00 -41.78112648   7.99713096
1834.00 -41.87794757   8.02282987
1836.00 -41.97486170   8.04858210
1838.00 -42.07186884   8.07438772
1840.00 -42.16896894   8.10024676
1842.00 -42.26616198   8.12615928
1844.00 -42.36344790   8.15212531
1846.00 -42.46082667   8.17814491
1848.00 -42.55829825   8.20421813
1850.00 -42.65586261   8.23034499
1852.00 -42.75351969   8.25652557
1854.00 -42.85126947   8.28275989
1856.00 -42.94911191   8.30904801
1858.00 -43.04704696   8.33538997
1860.00 -43.14507459   8.36178582
1862.00 -43.24319476   8.38823561
1864.00 -43.34140743   8.41473938
1866.00 -43.43971255   8.44129717
1868.00 -43.53811010   8.46790904
1870.00 -43.63660003   8.49457503
1872.00 -43.73518230   8.52129518
1874.00 -43.83385687   8.54806955
1876.00 -43.93262370   8.57489817
1878.00 -44.03148276   8.60178109
1880.00 -44.13043401   8.62871836
1882.00 -44.22947740   8.65571003
1884.00 -44.32861289   8.68275614
1886.00 -44.42784045   8.70985673
1888.00 -44.52716004   8.73701185
1890.00 -44.62657162   8.76422155
1892.00 -44.72607514   8.79148588
1894.00 -44.82567057   8.81880487
1896.00 -44.92535788   8.84617857
1898.00 -45.02513701   8.87360704
1900.00 -45.12500793   8.90109031
1902.00 -45.22497059   8.92862843
1904.00 -45.32502497   8.95622144
1906.00 -45.42517102   8.98386940
1908.00 -45.52540870   9.01157234
1910.00 -45.62573797   9.03933032
1912.00 -45.72615880   9.06714337
1914.00 -45.82667113   9.09501154
1916.00 -45.92727493   9.12293488
1918.00 -46.02797017   9.15091343
1920.00 -46.12875680   9.17894724
1922.00 -46.22963477   9.20703635
1924.00 -46.33060406   9.23518081
1926.00 -46.43166463   9.26338066
1928.00 -46.53281642   9.29163594
1930.00 -46.63405940   9.31994671
1932.00 -46.73539354   9.34831301
1934.00 -46.83681878   9.37673488
1936.00 -46.93833510   9.40521237
1938.00 -47.03994245   9.43374551
1940.00 -47.14164079   9.46233437
1942.00 -47.24343008   9.49097897
1944.00 -47.34531028   9.51967937
1946.00 -47.44728135   9.54843561
1948.00 -47.54934324   9.57724774
1950.00 -47.65149593   9.60611579
1952.00 -47.75373937   9.63503982
1954.00 -47.85607351   9.66401987
1956.00 -47.95849833   9.69305598
1958.00 -48.06101377   9.72214820
1960.00 -48.16361979   9.75129657
1962.00 -48.26631637   9.78050113
1964.00 -48.36910345   9.80976194
1966.00 -48.47198099   9.83907903
1968.00 -48.57494896   9.86845245
1970.00 -48.67800731   9.89788224
1972.00 -48.78115601   9.92736845
1974.00 -48.88439501   9.95691112
1976.00 -48.98772427   9.98651030
1978.00 -49.09114376  10.01616602
1980.00 -49.19465342  10.04587834
1982.00 -49.29825323  10.07564730
1984.00 -49.40194313  10.10547293
1986.00 -49.50572309  10.13535530
1988.00 -49.60959307  10.16529443
1990.00 -49.71355303  10.19529038
1992.00 -49.81760292  10.22534318
1994.00 -49.92174271  10.25545288
1996.00 -50.02597234  10.28561953
1998.00 -50.13029180  10.31584316
2000.00 -50.23470102  10.34612383
2002.00 -50.33919998  10.37646157
2004.00 -50.44378862  10.40685643
2006.00 -50.54846691  10.43730846
2008.00 -50.65323481  10.46781769
2010.00 -50.75809228  10.49838417
2012.00 -50.86303927  10.52900794
2014.00 -50.96807575  10.55968905
2016.00 -51.07320167  10.59042753
2018.00 -51.17841699  10.62122344
2020.00 -51.28372166  10.65207682
2022.00 -51.38911566  10.68298771
2024.00 -51.49459894  10.71395615
2026.00 -51.60017145  10.74498218
2028.00 -51.70583316  10.77606585
2030.00 -51.81158402  10.80720721
2032.00 -51.91742399  10.83840629
2034.00 -52.02335303  10.86966314
2036.00 -52.12937110  10.90097780
2038.00 -52.23547816  10.93235032
2040.00 -52.34167416  10.96378073
2042.00 -52.44795907  10.99526908
2044.00 -52.55433284  11.02681542
2046.00 -52.66079544  11.05841978
2048.00 -52.76734681  11.09008221
2050.00 -52.87398692  11.12180275
2052.00 -52.98071572  11.15358144
2054.00 -53.08753318  11.18541833
2056.00 -53.19443926  11.21731346
2058.00 -53.30143390  11.24926687
2060.00 -53.40851707  11.28127861
2062.00 -53.51568873  11.31334871
2064.00 -53.62294884  11.34547722
2066.00 -53.73029735  11.37766419
2068.00 -53.83773422  11.40990964
2070.00 -53.94525941  11.44221364
2072.00 -54.05287287  11.47457621
2074.00 -54.16057458  11.50699741
2076.00 -54.26836448  11.53947727
2078.00 -54.37624253  11.57201583
2080.00 -54.48420868  11.60461314
2082.00 -54.59226291  11.63726924
2084.00 -54.70040516  11.66998418
2086.00 -54.80863540  11.70275798
2088.00 -54.91695358  11.73559071
2090.00 -55.02535965  11.76848239
2092.00 -55.13385359  11.80143307
2094.00 -55.24243533  11.83444280
2096.00 -55.35110485  11.86751161
2098.00 -55.45986211  11.90063954
2100.00 -55.56870704  11.93382664
2102.00 -55.67763963  11.96707296
2104.00 -55.78665982  12.00037852
2106.00 -55.89576757  12.03374337
2108.00 -56.00496283  12.06716757
2110.00 -56.11424558  12.10065113
2112.00 -56.22361575  12.13419412
2114.00 -56.33307332  12.16779656
2116.00 -56.44261824  12.20145850
2118.00 -56.55225046  12.23517999
2120.00 -56.66196995  12.26896106
2122.00 -56.77177666  12.30280176
2124.00 -56.88167054  12.33670212
2126.00 -56.99165157  12.37066219
2128.00 -57.10171968  12.40468201
2130.00 -57.21187485  12.43876162
2132.00 -57.32211702  12.47290106
2134.00 -57.43244616  12.50710037
2136.00 -57.54286222  12.54135960
2138.00 -57.65336517  12.57567878
2140.00 -57.76395495  12.61005796
2142.00 -57.87463152  12.64449718
2144.00 -57.98539484  12.67899647
2146.00 -58.09624488  12.71355589
2148.00 -58.20718158  12.74817546
2150.00 -58.31820490  12.78285523
2152.00 -58.42931480  12.81759525
2154.00 -58.54051124  12.85239555
2156.00 -58.65179417  12.88725617
2158.00 -58.76316356  12.92217716
2160.00 -58.87461935  12.95715855
2162.00 -58.98616151  12.99220038
2164.00 -59.09778998  13.02730270
2166.00 -59.20950474  13.06246555
2168.00 -59.32130574  13.09768897
2170.00 -59.43319292  13.13297299
2172.00 -59.54516626  13.16831766
2174.00 -59.65722570  13.20372302
2176.00 -59.76937120  13.23918911
2178.00 -59.88160273  13.27471597
2180.00 -59.99392023  13.31030363
2182.00 -60.10632367  13.34595215
2184.00 -60.21881299  13.38166156
2186.00 -60.33138816  13.41743189
2188.00 -60.44404914  13.45326320
2190.00 -60.55679587  13.48915552
2192.00 -60.66962832  13.52510889
2194.00 -60.78254645  13.56112335
2196.00 -60.89555020  13.59719894
2198.00 -61.00863955  13.63333570
2200.00 -61.12181443  13.66953367
2202.00 -61.23507482  13.70579289
2204.00 -61.34842066  13.74211340
2206.00 -61.46185191  13.77849524
2208.00 -61.57536853  13.81493845
2210.00 -61.68897048  13.85144307
2212.00 -61.80265771  13.88800914
2214.00 -61.91643017  13.92463670
2216.00 -62.03028783  13.96132579
2218.00 -62.14423065  13.99807645
2220.00 -62.25825856  14.03488871
2222.00 -62.37237155  14.07176263
2224.00 -62.48656955  14.10869822
2226.00 -62.60085253  14.14569555
2228.00 -62.71522044  14.18275464
2230.00 -62.82967323  14.21987553
2232.00 -62.94421088  14.25705827
2234.00 -63.05883332  14.29430290
2236.00 -63.17354052  14.33160944
2238.00 -63.28833243  14.36897795
2240.00 -63.40320902  14.40640846
2242.00 -63.51817022  14.44390101
2244.00 -63.63321601  14.48145564
2246.00 -63.74834634  14.51907239
2248.00 -63.86356115  14.55675129
2250.00 -63.97886042  14.59449239
2252.00 -64.09424409  14.63229573
2254.00 -64.20971213  14.67016134
2256.00 -64.32526448  14.70808927
2258.00 -64.44090110  14.74607954
2260.00 -64.55662195  14.78413221
2262.00 -64.67242699  14.82224731
2264.00 -64.78831616  14.86042487
2266.00 -64.90428944  14.89866495
2268.00 -65.02034676  14.93696756
2270.00 -65.13648809  14.97533277
2272.00 -65.25271339  15.01376059
2274.00 -65.36902261  15.05225108
2276.00 -65.48541570  15.09080426
2278.00 -65.60189262  15.12942019
2280.00 -65.71845332  15.16809889
2282.00 -65.83509777  15.20684040
2284.00 -65.95182592  15.24564477
2286.00 -66.06863772  15.28451203
2288.00 -66.18553312  15.32344222
2290.00 -66.30251210  15.36243538
2292.00 -66.41957459  15.40149155
2294.00 -66.53672055  15.44061076
2296.00 -66.65394995  15.47979305
2298.00 -66.77126274  15.51903846
2300.00 -66.88865886  15.55834703
2302.00 -67.00613828  15.59771880
2304.00 -67.12370096  15.63715380
2306.00 -67.24134684  15.67665207
2308.00 -67.35907589  15.71621366
2310.00 -67.47688805  15.75583859
2312.00 -67.59478329  15.79552691
2314.00 -67.71276156  15.83527865
2316.00 -67.83082282  15.87509385
2318.00 -67.94896701  15.91497255
2320.00 -68.06719410  15.95491479
2322.00 -68.18550403  15.99492060
2324.00 -68.30389678  16.03499003
2326.00 -68.42237228  16.07512310
2328.00 -68.54093050  16.11531986
2330.00 -68.65957140  16.15558035
2332.00 -68.77829491  16.19590459
2334.00 -68.89710101  16.23629264
2336.00 -69.01598965  16.27674452
2338.00 -69.13496077  16.31726028
2340.00 -69.25401435  16.35783994
2342.00 -69.37315032  16.39848356
2344.00 -69.49236865  16.43919115
2346.00 -69.61166930  16.47996278
2348.00 -69.73105221  16.52079846
2350.00 -69.85051734  16.56169823
2352.00 -69.97006464  16.60266214
2354.00 -70.08969408  16.64369022
2356.00 -70.20940561  16.68478251
2358.00 -70.32919917  16.72593905
2360.00 -70.44907474  16.76715986
2362.00 -70.56903225  16.80844499
2364.00 -70.68907167  16.84979448
2366.00 -70.80919294  16.89120835
2368.00 -70.92939604  16.93268666
2370.00 -71.04968090  16.97422943
2372.00 -71.17004749  17.01583670
2374.00 -71.29049576  17.05750851
2376.00 -71.41102566  17.09924490
2378.00 -71.53163715  17.14104589
2380.00 -71.65233018  17.18291154
2382.00 -71.77310471  17.22484187
2384.00 -71.89396070  17.26683691
2386.00 -72.01489809  17.30889672
2388.00 -72.13591684  17.35102132
2390.00 -72.25701691  17.39321074
2392.00 -72.37819825  17.43546503
2394.00 -72.49946082  17.47778423
2396.00 -72.62080456  17.52016836
2398.00 -72.74222944  17.56261747
2400.00 -72.86373541  17.60513158
2402.00 -72.98532243  17.64771074
2404.00 -73.10699044  17.69035499
2406.00 -73.22873940  17.73306435
2408.00 -73.35056927  17.77583887
2410.00 -73.47248000  17.81867857
2412.00 -73.59447154  17.86158351
2414.00 -73.71654386  17.90455370
2416.00 -73.83869690  17.94758919
2418.00 -73.96093062  17.99069001
2420.00 -74.08324497  18.03385621
2422.00 -74.20563991  18.07708780
2424.00 -74.32811539  18.12038484
2426.00 -74.45067136  18.16374735
2428.00 -74.57330778  18.20717538
2430.00 -74.69602461  18.25066895
2432.00 -74.81882180  18.29422810
2434.00 -74.94169930  18.33785287
2436.00 -75.06465706  18.38154329
2438.00 -75.18769504  18.42529940
2440.00 -75.31081320  18.46912123
2442.00 -75.43401149  18.51300883
2444.00 -75.55728986  18.55696221
2446.00 -75.68064827  18.60098143
2448.00 -75.80408667  18.64506651
2450.00 -75.92760501  18.68921749
2452.00 -76.05120325  18.73343440
2454.00 -76.17488135  18.77771728
2456.00 -76.29863925  18.82206617
2458.00 -76.42247691  18.86648110
2460.00 -76.54639429  18.91096210
2462.00 -76.67039133  18.95550921
2464.00 -76.79446800  19.00012246
2466.00 -76.91862425  19.04480189
2468.00 -77.04286002  19.08954754
2470.00 -77.16717528  19.13435943
2472.00 -77.29156997  19.17923761
2474.00 -77.41604406  19.22418210
2476.00 -77.54059750  19.26919295
2478.00 -77.66523023  19.31427018
2480.00 -77.78994221  19.35941383
2482.00 -77.91473341  19.40462394
2484.00 -78.03960376  19.44990054
2486.00 -78.16455323  19.49524366
2488.00 -78.28958176  19.54065334
2490.00 -78.41468932  19.58612962
2492.00 -78.53987585  19.63167252
2494.00 -78.66514131  19.67728208
2496.00 -78.79048566  19.72295834
2498.00 -78.91590883  19.76870133
2500.00 -79.04141080  19.81451109
2502.00 -79.16699152  19.86038764
2504.00 -79.29265093  19.90633102
2506.00 -79.41838898  19.95234127
2508.00 -79.54420565  19.99841842
2510.00 -79.67010087  20.04456250
2512.00 -79.79607460  20.09077355
2514.00 -79.92212680  20.13705161
2516.00 -80.04825741  20.18339669
2518.00 -80.17446639  20.22980885
2520.00 -80.30075370  20.27628811
2522.00 -80.42711929  20.32283451
2524.00 -80.55356311  20.36944808
2526.00 -80.68008512  20.41612885
2528.00 -80.80668526  20.46287685
2530.00 -80.93336349  20.50969213
2532.00 -81.06011977  20.55657472
2534.00 -81.18695405  20.60352464
2536.00 -81.31386628  20.65054193
2538.00 -81.44085641  20.69762663
2540.00 -81.56792440  20.74477877
2542.00 -81.69507020  20.79199837
2544.00 -81.82229377  20.83928548
2546.00 -81.94959505  20.88664013
2548.00 -82.07697401  20.93406235
2550.00 -82.20443059  20.98155218
2552.00 -82.33196475  21.02910964
2554.00 -82.45957643  21.07673477
2556.00 -82.58726561  21.12442760
2558.00 -82.71503221  21.17218817
2560.00 -82.84287621  21.22001651
2562.00 -82.97079755  21.26791265
2564.00 -83.09879619  21.31587663
2566.00 -83.22687207  21.36390847
2568.00 -83.35502516  21.41200821
2570.00 -83.48325541  21.46017589
2572.00 -83.61156276  21.50841153
2574.00 -83.73994717  21.55671517
2576.00 -83.86840860  21.60508684
2578.00 -83.99694699  21.65352658
2580.00 -84.12556230  21.70203441
2582.00 -84.25425449  21.75061037
2584.00 -84.38302350  21.79925449
2586.00 -84.51186929  21.84796681
2588.00 -84.64079182  21.89674735
2590.00 -84.76979102  21.94559615
2592.00 -84.89886687  21.99451323
2594.00 -85.02801930  22.04349865
2596.00 -85.15724828  22.09255241
2598.00 -85.28655376  22.14167457
2600.00 -85.41593568  22.19086514
2602.00 -85.54539401  22.24012416
2604.00 -85.67492869  22.28945167
2606.00 -85.80453967  22.33884769
2608.00 -85.93422692  22.38831226
2610.00 -86.06399038  22.43784541
2612.00 -86.19383000  22.48744717
2614.00 -86.32374574  22.53711758
2616.00 -86.45373756  22.58685666
2618.00 -86.58380539  22.63666444
2620.00 -86.71394921  22.68654097
2622.00 -86.84416895  22.73648626
2624.00 -86.97446457  22.78650035
2626.00 -87.10483603  22.83658328
2628.00 -87.23528327  22.88673508
2630.00 -87.36580625  22.93695577
2632.00 -87.49640493  22.98724539
2634.00 -87.62707924  23.03760396
2636.00 -87.75782916  23.08803153
2638.00 -87.88865462  23.13852812
2640.00 -88.01955559  23.18909377
2642.00 -88.15053201  23.23972849
2644.00 -88.28158384  23.29043234
2646.00 -88.41271103  23.34120533
2648.00 -88.54391352  23.39204750
2650.00 -88.67519129  23.44295888
2652.00 -88.80654427  23.49393951
2654.00 -88.93797242  23.54498940
2656.00 -89.06947569  23.59610859
2658.00 -89.20105403  23.64729712
2660.00 -89.33270740  23.69855502
2662.00 -89.46443575  23.74988231
2664.00 -89.59623903  23.80127903
2666.00 -89.72811720  23.85274520
2668.00 -89.86007020  23.90428086
2670.00 -89.99209798  23.95588604
2672.00 -90.12420051  24.00756077
2674.00 -90.25637773  24.05930508
2676.00 -90.38862960  24.11111901
2678.00 -90.52095606  24.16300257
2680.00 -90.65335707  24.21495580
2682.00 -90.78583259  24.26697874
2684.00 -90.91838255  24.31907141
2686.00 -91.05100693  24.37123384
2688.00 -91.18370566  24.42346607
2690.00 -91.31647870  24.47576812
2692.00 -91.44932601  24.52814003
2694.00 -91.58224753  24.58058182
2696.00 -91.71524321  24.63309353
2698.00 -91.84831302  24.68567518
2700.00 -91.98145690  24.73832680
2702.00 -92.11467480  24.79104843
2704.00 -92.24796667  24.84384010
2706.00 -92.38133248  24.89670183
2708.00 -92.51477216  24.94963366
2710.00 -92.64828567  25.00263561
2712.00 -92.78187297  25.05570772
2714.00 -92.91553400  25.10885001
2716.00 -93.04926873  25.16206252
2718.00 -93.18307709  25.21534527
2720.00 -93.31695904  25.26869829
2722.00 -93.45091454  25.32212162
2724.00 -93.58494353  25.37561529
2726.00 -93.71904597  25.42917932
2728.00 -93.85322181  25.48281374
2730.00 -93.98747100  25.53651858
2732.00 -94.12179349  25.59029388
2734.00 -94.25618924  25.64413965
2736.00 -94.39065820  25.69805594
2738.00 -94.52520031  25.75204277
2740.00 -94.65981554  25.80610017
2742.00 -94.79450383  25.86022816
2744.00 -94.92926513  25.91442679
2746.00 -95.06409940  25.96869607
2748.00 -95.19900659  26.02303604
2750.00 -95.33398665  26.07744672
2752.00 -95.46903953  26.13192815
2754.00 -95.60416519  26.18648036
2756.00 -95.73936357  26.24110336
2758.00 -95.87463463  26.29579720
2760.00 -96.00997831  26.35056190
2762.00 -96.14539458  26.40539749
2764.00 -96.28088338  26.46030400
2766.00 -96.41644466  26.51528145
2768.00 -96.55207838  26.57032989
2770.00 -96.68778449  26.62544932
2772.00 -96.82356294  26.68063979
2774.00 -96.95941368  26.73590133
2776.00 -97.09533666  26.79123395
2778.00 -97.23133183  26.84663769
2780.00 -97.36739915  26.90211259
2782.00 -97.50353857  26.95765865
2784.00 -97.63975004  27.01327593
2786.00 -97.77603351  27.06896443
2788.00 -97.91238893  27.12472420
2790.00 -98.04881625  27.18055526
2792.00 -98.18531543  27.23645764
2794.00 -98.32188642  27.29243137
2796.00 -98.45852916  27.34847647
2798.00 -98.59524362  27.40459297
2800.00 -98.73202974  27.46078090
2802.00 -98.86888747  27.51704030
2804.00 -99.00581677  27.57337118
2806.00 -99.14281758  27.62977358
2808.00 -99.27988986  27.68624752
2810.00 -99.41703356  27.74279303
2812.00 -99.55424863  27.79941014
2814.00 -99.69153502  27.85609888
2816.00 -99.82889268  27.91285928
2818.00 -99.96632157  27.96969135
2820.00 -100.10382164  28.02659514
2822.00 -100.24139283  28.08357067
2824.00 -100.37903511  28.14061796
2826.00 -100.51674841  28.19773705
2828.00 -100.65453270  28.25492795
2830.00 -100.79238792  28.31219071
2832.00 -100.93031402  28.36952534
2834.00 -101.06831096  28.42693188
2836.00 -101.20637869  28.48441035
2838.00 -101.34451716  28.54196077
2840.00 -101.48272632  28.59958319
2842.00 -101.62100612  28.65727761
2844.00 -101.75935651  28.71504408
2846.00 -101.89777744  28.77288261
2848.00 -102.03626887  28.83079324
2850.00 -102.17483075  28.88877599
2852.00 -102.31346302  28.94683089
2854.00 -102.45216565  29.00495797
2856.00 -102.59093857  29.06315725
2858.00 -102.72978175  29.12142876
2860.00 -102.86869513  29.17977253
2862.00 -103.00767866  29.23818858
2864.00 -103.14673230  29.29667694
2866.00 -103.28585599  29.35523764
2868.00 -103.42504969  29.41387070
2870.00 -103.56431335  29.47257616
2872.00 -103.70364692  29.53135404
2874.00 -103.84305035  29.59020435
2876.00 -103.98252360  29.64912714
2878.00 -104.12206660  29.70812243
2880.00 -104.26167932  29.76719025
2882.00 -104.40136171  29.82633061
2884.00 -104.54111371  29.88554355
2886.00 -104.68093529  29.94482910
2888.00 -104.82082638  30.00418727
2890.00 -104.96078694  30.06361811
2892.00 -105.10081692  30.12312162
2894.00 -105.24091627  30.18269785
2896.00 -105.38108495  30.24234681
2898.00 -105.52132290  30.30206853
2900.00 -105.66163007  30.36186304
2902.00 -105.80200642  30.42173036
2904.00 -105.94245190  30.48167052
2906.00 -106.08296646  30.54168355
2908.00 -106.22355005  30.60176948
2910.00 -106.36420261  30.66192832
2912.00 -106.50492411  30.72216010
2914.00 -106.64571449  30.78246485
2916.00 -106.78657370  30.84284260
2918.00 -106.92750170  30.90329337
2920.00 -107.06849843  30.96381719
2922.00 -107.20956385  31.02441408
2924.00 -107.35069791  31.08508407
2926.00 -107.49190055  31.14582718
2928.00 -107.63317173  31.20664344
2930.00 -107.77451140  31.26753288
2932.00 -107.91591952  31.32849552
2934.00 -108.05739602  31.38953138
2936.00 -108.19894087  31.45064050
2938.00 -108.34055400  31.51182289
2940.00 -108.48223539  31.57307859
2942.00 -108.62398497  31.63440761
2944.00 -108.76580269  31.69580999
2946.00 -108.90768851  31.75728574
2948.00 -109.04964238  31.81883490
2950.00 -109.19166425  31.88045749
2952.00 -109.33375406  31.94215353
2954.00 -109.47591178  32.00392305
2956.00 -109.61813734  32.06576607
2958.00 -109.76043071  32.12768262
2960.00 -109.90279183  32.18967273
2962.00 -110.04522065  32.25173641
2964.00 -110.18771713  32.31387370
2966.00 -110.33028121  32.37608462
2968.00 -110.47291285  32.43836919
2970.00 -110.61561199  32.50072743
2972.00 -110.75837859  32.56315938
2974.00 -110.90121260  32.62566506
2976.00 -111.04411396  32.68824449
2978.00 -111.18708264  32.75089770
2980.00 -111.33011857  32.81362470
2982.00 -111.47322172  32.87642554
2984.00 -111.61639202  32.93930022
2986.00 -111.75962944  33.00224878
2988.00 -111.90293392  33.06527123
2990.00 -112.04630541  33.12836761
2992.00 -112.18974387  33.19153794
2994.00 -112.33324924  33.25478224
2996.00 -112.47682148  33.31810053
2998.00 -112.62046053  33.38149285
3000.00 -112.76416635  33.44495921
3002.00 -112.90793888  33.50849963
3004.00 -113.05177808  33.57211416
3006.00 -113.19568391  33.63580279
3008.00 -113.33965630  33.69956557
3010.00 -113.48369521  33.76340251
3012.00 -113.62780058  33.82731364
3014.00 -113.77197238  33.89129899
3016.00 -113.91621056  33.95535857
3018.00 -114.06051505  34.01949241
3020.00 -114.20488581  34.08370053
3022.00 -114.34932280  34.14798296
3024.00 -114.49382596  34.21233973
3026.00 -114.63839525  34.27677085
3028.00 -114.78303061  34.34127634
3030.00 -114.92773200  34.40585624
3032.00 -115.07249936  34.47051056
3034.00 -115.21733264  34.53523934
3036.00 -115.36223181  34.60004258
3038.00 -115.50719680  34.66492032
3040.00 -115.65222757  34.72987258
3042.00 -115.79732406  34.79489939
3044.00 -115.94248624  34.86000076
3046.00 -116.08771404  34.92517671
3048.00 -116.23300742  34.99042728
3050.00 -116.37836634  35.05575249
3052.00 -116.52379073  35.12115235
3054.00 -116.66928056  35.18662690
3056.00 -116.81483576  35.25217615
3058.00 -116.96045630  35.31780013
3060.00 -117.10614212  35.38349886
3062.00 -117.25189318  35.44927236
3064.00 -117.39770941  35.51512066
3066.00 -117.54359078  35.58104378
3068.00 -117.68953724  35.64704174
3070.00 -117.83554873  35.71311457
3072.00 -117.98162520  35.77926228
3074.00 -118.12776661  35.84548490
3076.00 -118.27397290  35.91178246
3078.00 -118.42024403  35.97815497
3080.00 -118.56657995  36.04460246
3082.00 -118.71298060  36.11112496
3084.00 -118.85944594  36.17772247
3086.00 -119.00597592  36.24439503
3088.00 -119.15257049  36.31114266
3090.00 -119.29922959  36.37796538
3092.00 -119.44595318  36.44486321
3094.00 -119.59274121  36.51183618
3096.00 -119.73959363  36.57888430
3098.00 -119.88651039  36.64600760
3100.00 -120.03349144  36.71320611
3102.00 -120.18053673  36.78047984
3104.00 -120.32764621  36.84782881
3106.00 -120.47481983  36.91525305
3108.00 -120.62205755  36.98275259
3110.00 -120.76935930  37.05032743
3112.00 -120.91672505  37.11797761
3114.00 -121.06415473  37.18570315
3116.00 -121.21164831  37.25350406
3118.00 -121.35920574  37.32138037
3120.00 -121.50682695  37.38933210
3122.00 -121.65451191  37.45735928
3124.00 -121.80226056  37.52546192
3126.00 -121.95007286  37.59364005
3128.00 -122.09794875  37.66189368
3130.00 -122.24588818  37.73022285
3132.00 -122.39389111  37.79862756
3134.00 -122.54195748  37.86710785
3136.00 -122.69008725  37.93566373
3138.00 -122.83828036  38.00429523
3140.00 -122.98653677  38.07300237
3142.00 -123.13485642  38.14178516
3144.00 -123.28323927  38.21064363
3146.00 -123.43168527  38.27957781
3148.00 -123.58019436  38.34858770
3150.00 -123.72876650  38.41767334
3152.00 -123.87740163  38.48683475
3154.00 -124.02609971  38.55607193
3156.00 -124.17486069  38.62538493
3158.00 -124.32368452  38.69477375
3160.00 -124.47257114  38.76423842
3162.00 -124.62152051  38.83377897
3164.00 -124.77053258  38.90339540
3166.00 -124.91960729  38.97308774
3168.00 -125.06874461  39.04285602
3170.00 -125.21794447  39.11270024
3172.00 -125.36720683  39.18262045
3174.00 -125.51653164  39.25261664
3176.00 -125.66591885  39.32268885
3178.00 -125.81536841  39.39283710
3180.00 -125.96488026  39.46306140
3182.00 -126.11445437  39.53336178
3184.00 -126.26409067  39.60373826
3186.00 -126.41378913  39.67419086
3188.00 -126.56354968  39.74471959
3190.00 -126.71337228  39.81532448
3192.00 -126.86325689  39.88600556
3194.00 -127.01320344  39.95676283
3196.00 -127.16321189  40.02759632
3198.00 -127.31328220  40.09850605
3200.00 -127.46341430  40.16949204
3202.00 -127.61360816  40.24055431
3204.00 -127.76386371  40.31169288
3206.00 -127.91418091  40.38290777
3208.00 -128.06455972  40.45419901
3210.00 -128.21500008  40.52556660
3212.00 -128.36550193  40.59701058
3214.00 -128.51606524  40.66853095
3216.00 -128.66668995  40.74012775
3218.00 -128.81737601  40.81180098
3220.00 -128.96812337  40.88355068
3222.00 -129.11893199  40.95537685
3224.00 -129.26980180  41.02727953
3226.00 -129.42073277  41.09925872
3228.00 -129.57172483  41.17131445
3230.00 -129.72277795  41.24344674
3232.00 -129.87389207  41.31565561
3234.00 -130.02506714  41.38794108
3236.00 -130.17630312  41.46030317
3238.00 -130.32759994  41.53274189
3240.00 -130.47895757  41.60525726
3242.00 -130.63037595  41.67784932
3244.00 -130.78185503  41.75051806
3246.00 -130.93339476  41.82326353
3248.00 -131.08499509  41.89608572
3250.00 -131.23665598  41.96898467
3252.00 -131.38837737  42.04196039
3254.00 -131.54015921  42.11501290
3256.00 -131.69200145  42.18814222
3258.00 -131.84390405  42.26134837
3260.00 -131.99586694  42.33463136
3262.00 -132.14789009  42.40799123
3264.00 -132.29997344  42.48142798
3266.00 -132.45211694  42.55494164
3268.00 -132.60432055  42.62853222
3270.00 -132.75658421  42.70219974
3272.00 -132.90890787  42.77594422
3274.00 -133.06129148  42.84976569
3276.00 -133.21373499  42.92366415
3278.00 -133.36623836  42.99763963
3280.00 -133.51880152  43.07169215
3282.00 -133.67142444  43.14582172
3284.00 -133.82410707  43.22002837
3286.00 -133.97684934  43.29431210
3288.00 -134.12965122  43.36867295
3290.00 -134.28251265  43.44311093
3292.00 -134.43543358  43.51762605
3294.00 -134.58841396  43.59221834
3296.00 -134.74145374  43.66688782
3298.00 -134.89455288  43.74163449
3300.00 -135.04771132  43.81645839
3302.00 -135.20092901  43.89135953
3304.00 -135.35420590  43.96633792
3306.00 -135.50754195  44.04139359
3308.00 -135.66093710  44.11652655
3310.00 -135.81439130  44.19173683
3312.00 -135.96790450  44.26702443
3314.00 -136.12147665  44.34238938
3316.00 -136.27510770  44.41783169
3318.00 -136.42879761  44.49335139
3320.00 -136.58254632  44.56894849
3322.00 -136.73635378  44.64462301
3324.00 -136.89021994  44.72037496
3326.00 -137.04414475  44.79620437
3328.00 -137.19812816  44.87211126
3330.00 -137.35217013  44.94809563
3332.00 -137.50627060  45.02415751
3334.00 -137.66042952  45.10029691
3336.00 -137.81464684  45.17651386
3338.00 -137.96892251  45.25280836
3340.00 -138.12325648  45.32918045
3342.00 -138.27764870  45.40563013
3344.00 -138.43209913  45.48215742
3346.00 -138.58660771  45.55876234
3348.00 -138.74117438  45.63544491
3350.00 -138.89579911  45.71220514
3352.00 -139.05048184  45.78904306
3354.00 -139.20522252  45.86595867
3356.00 -139.36002110  45.94295200
3358.00 -139.51487754  46.02002307
3360.00 -139.66979177  46.09717188
3362.00 -139.82476375  46.17439846
3364.00 -139.97979344  46.25170283
3366.00 -140.13488077  46.32908499
3368.00 -140.29002571  46.40654498
3370.00 -140.44522819  46.48408280
3372.00 -140.60048818  46.56169847
3374.00 -140.75580561  46.63939201
3376.00 -140.91118045  46.71716344
3378.00 -141.06661264  46.79501277
3380.00 -141.22210213  46.87294002
3382.00 -141.37764886  46.95094520
3384.00 -141.53325280  47.02902834
3386.00 -141.68891389  47.10718945
3388.00 -141.84463207  47.18542854
3390.00 -142.00040731  47.26374563
3392.00 -142.15623955  47.34214075
3394.00 -142.31212873  47.42061389
3396.00 -142.46807482  47.49916509
3398.00 -142.62407775  47.57779436
3400.00 -142.78013749  47.65650171
3402.00 -142.93625397  47.73528716
3404.00 -143.09242716  47.81415073
3406.00 -143.24865699  47.89309243
3408.00 -143.40494342  47.97211228
3410.00 -143.56128640  48.05121030
3412.00 -143.71768588  48.13038650
3414.00 -143.87414181  48.20964089
3416.00 -144.03065414  48.28897350
3418.00 -144.18722282  48.36838434
3420.00 -144.34384779  48.44787342
3422.00 -144.50052902  48.52744077
3424.00 -144.65726644  48.60708639
3426.00 -144.81406001  48.68681030
3428.00 -144.97090969  48.76661252
3430.00 -145.12781540  48.84649307
3432.00 -145.28477712  48.92645196
3434.00 -145.44179479  49.00648920
3436.00 -145.59886835  49.08660482
3438.00 -145.75599777  49.16679882
3440.00 -145.91318298  49.24707123
3442.00 -146.07042394  49.32742205
3444.00 -146.22772059  49.40785131
3446.00 -146.38507290  49.48835901
3448.00 -146.54248080  49.56894518
3450.00 -146.69994425  49.64960983
3452.00 -146.85746320  49.73035298
3454.00 -147.01503760  49.81117464
3456.00 -147.17266739  49.89207482
3458.00 -147.33035254  49.97305354
3460.00 -147.48809298  50.05411082
3462.00 -147.64588866  50.13524668
3464.00 -147.80373955  50.21646111
3466.00 -147.96164558  50.29775415
3468.00 -148.11960671  50.37912581
3470.00 -148.27762289  50.46057610
3472.00 -148.43569406  50.54210503
3474.00 -148.59382018  50.62371263
3476.00 -148.75200120  50.70539890
3478.00 -148.91023707  50.78716387
3480.00 -149.06852773  50.86900754
3482.00 -149.22687315  50.95092993
3484.00 -149.38527325  51.03293105
3486.00 -149.54372801  51.11501093
3488.00 -149.70223736  51.19716957
3490.00 -149.86080126  51.27940699
3492.00 -150.01941966  51.36172321
3494.00 -150.17809250  51.44411823
3496.00 -150.33681974  51.52659208
3498.00 -150.49560132  51.60914476
3500.00 -150.65443721  51.69177630
3502.00 -150.81332734  51.77448670
3504.00 -150.97227167  51.85727598
3506.00 -151.13127014  51.94014416
3508.00 -151.29032271  52.02309125
3510.00 -151.44942933  52.10611726
3512.00 -151.60858994  52.18922221
3514.00 -151.76780450  52.27240611
3516.00 -151.92707296  52.35566898
3518.00 -152.08639526  52.43901083
3520.00 -152.24577136  52.52243167
3522.00 -152.40520121  52.60593152
3524.00 -152.56468476  52.68951039
3526.00 -152.72422195  52.77316830
3528.00 -152.88381273  52.85690526
3530.00 -153.04345707  52.94072128
3532.00 -153.20315490  53.02461638
3534.00 -153.36290618  53.10859058
3536.00 -153.52271085  53.19264387
3538.00 -153.68256887  53.27677629
3540.00 -153.84248019  53.36098784
3542.00 -154.00244475  53.44527853
3544.00 -154.16246251  53.52964839
3546.00 -154.32253342  53.61409742
3548.00 -154.48265742  53.69862563
3550.00 -154.64283447  53.78323305
3552.00 -154.80306452  53.86791968
3554.00 -154.96334752  53.95268554
3556.00 -155.12368341  54.03753064
3558.00 -155.28407215  54.12245499
3560.00 -155.44451368  54.20745861
3562.00 -155.60500796  54.29254151
3564.00 -155.76555494  54.37770370
3566.00 -155.92615457  54.46294520
3568.00 -156.08680679  54.54826603
3570.00 -156.24751156  54.63366618
3572.00 -156.40826883  54.71914568
3574.00 -156.56907854  54.80470454
3576.00 -156.72994065  54.89034278
3578.00 -156.89085511  54.97606039
3580.00 -157.05182187  55.06185741
3582.00 -157.21284087  55.14773384
3584.00 -157.37391207  55.23368969
3586.00 -157.53503542  55.31972498
3588.00 -157.69621087  55.40583972
3590.00 -157.85743836  55.49203392
3592.00 -158.01871786  55.57830760
3594.00 -158.18004930  55.66466076
3596.00 -158.34143263  55.75109343
3598.00 -158.50286782  55.83760561
3600.00 -158.66435480  55.92419731
3602.00 -158.82589354  56.01086855
3604.00 -158.98748397  56.09761934
3606.00 -159.14912605  56.18444970
3608.00 -159.31081972  56.27135963
3610.00 -159.47256495  56.35834915
3612.00 -159.63436168  56.44541827
3614.00 -159.79620985  56.53256700
3616.00 -159.95810942  56.61979536
3618.00 -160.12006035  56.70710335
3620.00 -160.28206257  56.79449099
3622.00 -160.44411604  56.88195829
3624.00 -160.60622071  56.96950527
3626.00 -160.76837653  57.05713193
3628.00 -160.93058345  57.14483829
3630.00 -161.09284142  57.23262436
3632.00 -161.25515039  57.32049015
3634.00 -161.41751031  57.40843568
3636.00 -161.57992113  57.49646095
3638.00 -161.74238280  57.58456598
3640.00 -161.90489527  57.67275077
3642.00 -162.06745849  57.76101535
3644.00 -162.23007242  57.84935972
3646.00 -162.39273699  57.93778389
3648.00 -162.55545217  58.02628788
3650.00 -162.71821789  58.11487170
3652.00 -162.88103412  58.20353535
3654.00 -163.04390080  58.29227886
3656.00 -163.20681789  58.38110223
3658.00 -163.36978532  58.47000547
3660.00 -163.53280306  58.55898860
3662.00 -163.69587105  58.64805162
3664.00 -163.85898924  58.73719456
3666.00 -164.02215759  58.82641741
3668.00 -164.18537604  58.91572019
3670.00 -164.34864454  59.00510292
3672.00 -164.51196305  59.09456559
3674.00 -164.67533151  59.18410823
3676.00 -164.83874988  59.27373085
3678.00 -165.00221810  59.36343346
3680.00 -165.16573612  59.45321606
3682.00 -165.32930390  59.54307867
3684.00 -165.49292139  59.63302130
3686.00 -165.65658853  59.72304396
3688.00 -165.82030527  59.81314666
3690.00 -165.98407157  59.90332941
3692.00 -166.14788738  59.99359223
3694.00 -166.31175265  60.08393513
3696.00 -166.47566732  60.17435810
3698.00 -166.63963135  60.26486118
3700.00 -166.80364468  60.35544436
3702.00 -166.96770727  60.44610765
3704.00 -167.13181908  60.53685108
3706.00 -167.29598004  60.62767464
3708.00 -167.46019010  60.71857835
3710.00 -167.62444923  60.80956223
3712.00 -167.78875737  60.90062627
3714.00 -167.95311446  60.99177049
3716.00 -168.11752047  61.08299491
3718.00 -168.28197533  61.17429952
3720.00 -168.44647901  61.26568435
3722.00 -168.61103145  61.35714940
3724.00 -168.77563259  61.44869468
3726.00 -168.94028240  61.54032020
3728.00 -169.10498083  61.63202598
3730.00 -169.26972781  61.72381202
3732.00 -169.43452330  61.81567833
3734.00 -169.59936726  61.90762493
3736.00 -169.76425964  61.99965182
3738.00 -169.92920037  62.09175901
3740.00 -170.09418942  62.18394652
3742.00 -170.25922674  62.27621435
3744.00 -170.42431227  62.36856251
3746.00 -170.58944596  62.46099102
3748.00 -170.75462777  62.55349988
3750.00 -170.91985765  62.64608910
3752.00 -171.08513554  62.73875869
3754.00 -171.25046140  62.83150867
3756.00 -171.41583518  62.92433904
3758.00 -171.58125683  63.01724981
3760.00 -171.74672629  63.11024099
3762.00 -171.91224352  63.20331259
3764.00 -172.07780847  63.29646462
3766.00 -172.24342109  63.38969710
3768.00 -172.40908133  63.48301002
3770.00 -172.57478915  63.57640340
3772.00 -172.74054448  63.66987725
3774.00 -172.90634728  63.76343158
3776.00 -173.07219751  63.85706640
3778.00 -173.23809511  63.95078171
3780.00 -173.40404003  64.04457753
3782.00 -173.57003222  64.13845386
3784.00 -173.73607164  64.23241071
3786.00 -173.90215823  64.32644810
3788.00 -174.06829195  64.42056604
3790.00 -174.23447274  64.51476452
3792.00 -174.40070056  64.60904357
3794.00 -174.56697536  64.70340318
3796.00 -174.73329708  64.79784337
3798.00 -174.89966568  64.89236416
3800.00 -175.06608111  64.98696553
3802.00 -175.23254332  65.08164752
3804.00 -175.39905226  65.17641011
3806.00 -175.56560787  65.27125333
3808.00 -175.73221012  65.36617719
3810.00 -175.89885895  65.46118168
3812.00 -176.06555431  65.55626682
3814.00 -176.23229615  65.65143262
3816.00 -176.39908443  65.74667909
3818.00 -176.56591908  65.84200623
3820.00 -176.73280008  65.93741406
3822.00 -176.89972735  66.03290258
3824.00 -177.06670087  66.12847180
3826.00 -177.23372057  66.22412172
3828.00 -177.40078640  66.31985237
3830.00 -177.56789832  66.41566374
3832.00 -177.73505628  66.51155585
3834.00 -177.90226023  66.60752870
3836.00 -178.06951012  66.70358230
3838.00 -178.23680590  66.79971666
3840.00 -178.40414752  66.89593179
3842.00 -178.57153493  66.99222770
3844.00 -178.73896808  67.08860438
3846.00 -178.90644693  67.18506186
3848.00 -179.07397142  67.28160014
3850.00 -179.24154150  67.37821923
3852.00 -179.40915713  67.47491914
3854.00 -179.57681825  67.57169986
3856.00 -179.74452482  67.66856142
3858.00 -179.91227678  67.76550383
3860.00 -180.08007410  67.86252707
3862.00 -180.24791671  67.95963118
3864.00 -180.41580457  68.05681614
3866.00 -180.58373763  68.15408198
3868.00 -180.75171585  68.25142870
3870.00 -180.91973916  68.34885630
3872.00 -181.08780753  68.44636480
3874.00 -181.25592090  68.54395420
3876.00 -181.42407922  68.64162451
3878.00 -181.59228245  68.73937574
3880.00 -181.76053054  68.83720789
3882.00 -181.92882343  68.93512097
3884.00 -182.09716108  69.03311499
3886.00 -182.26554343  69.13118996
3888.00 -182.43397045  69.22934589
3890.00 -182.60244208  69.32758277
3892.00 -182.77095826  69.42590062
3894.00 -182.93951896  69.52429945
3896.00 -183.10812412  69.62277927
3898.00 -183.27677370  69.72134007
3900.00 -183.44546764  69.81998187
3902.00 -183.61420589  69.91870468
3904.00 -183.78298841  70.01750849
3906.00 -183.95181515  70.11639333
3908.00 -184.12068605  70.21535919
3910.00 -184.28960107  70.31440609
3912.00 -184.45856017  70.41353403
3914.00 -184.62756328  70.51274301
3916.00 -184.79661037  70.61203305
3918.00 -184.96570138  70.71140414
3920.00 -185.13483626  70.81085631
3922.00 -185.30401497  70.91038955
3924.00 -185.47323745  71.01000386
3926.00 -185.64250366  71.10969927
3928.00 -185.81181354  71.20947577
3930.00 -185.98116706  71.30933338
3932.00 -186.15056416  71.40927209
3934.00 -186.32000478  71.50929191
3936.00 -186.48948889  71.60939286
3938.00 -186.65901643  71.70957493
3940.00 -186.82858735  71.80983813
3942.00 -186.99820161  71.91018248
3944.00 -187.16785916  72.01060797
3946.00 -187.33755994  72.11111462
3948.00 -187.50730391  72.21170242
3950.00 -187.67709102  72.31237139
3952.00 -187.84692122  72.41312154
3954.00 -188.01679446  72.51395286
3956.00 -188.18671069  72.61486536
3958.00 -188.35666987  72.71585906
3960.00 -188.52667194  72.81693395
3962.00 -188.69671685  72.91809004
3964.00 -188.86680457  73.01932734
3966.00 -189.03693503  73.12064586
3968.00 -189.20710819  73.22204560
3970.00 -189.37732400  73.32352656
3972.00 -189.54758242  73.42508876
3974.00 -189.71788338  73.52673220
3976.00 -189.88822685  73.62845688
3978.00 -190.05861278  73.73026281
3980.00 -190.22904111  73.83214999
3982.00 -190.39951180  73.93411844
3984.00 -190.57002480  74.03616816
3986.00 -190.74058006  74.13829914
3988.00 -190.91117753  74.24051141
3990.00 -191.08181716  74.34280496
3992.00 -191.25249891  74.44517980
3994.00 -191.42322272  74.54763594
3996.00 -191.59398855  74.65017338
3998.00 -191.76479635  74.75279212
4000.00 -191.93564607  74.85549218
4002.00 -192.10653765  74.95827355
4004.00 -192.27747106  75.06113625
4006.00 -192.44844624  75.16408027
4008.00 -192.61946315  75.26710563
4010.00 -192.79052173  75.37021233
4012.00 -192.96162193  75.47340037
4014.00 -193.13276372  75.57666976
4016.00 -193.30394704  75.68002050
4018.00 -193.47517183  75.78345261
4020.00 -193.64643806  75.88696607
4022.00 -193.81774568  75.99056091
4024.00 -193.98909463  76.09423712
4026.00 -194.16048486  76.19799472
4028.00 -194.33191634  76.30183369
4030.00 -194.50338900  76.40575406
4032.00 -194.67490281  76.50975582
4034.00 -194.84645771  76.61383898
4036.00 -195.01805365  76.71800354
4038.00 -195.18969058  76.82224952
4040.00 -195.36136847  76.92657690
4042.00 -195.53308725  77.03098571
4044.00 -195.70484688  77.13547594
4046.00 -195.87664732  77.24004759
4048.00 -196.04848850  77.34470068
4050.00 -196.22037040  77.44943521
4052.00 -196.39229294  77.55425118
4054.00 -196.56425610  77.65914859
4056.00 -196.73625981  77.76412746
4058.00 -196.90830404  77.86918778
4060.00 -197.08038873  77.97432956
4062.00 -197.25251383  78.07955280
4064.00 -197.42467929  78.18485751
4066.00 -197.59688508  78.29024370
4068.00 -197.76913113  78.39571136
4070.00 -197.94141740  78.50126051
4072.00 -198.11374385  78.60689114
4074.00 -198.28611042  78.71260326
4076.00 -198.45851706  78.81839687
4078.00 -198.63096373  78.92427198
4080.00 -198.80345038  79.03022860
4082.00 -198.97597696  79.13626672
4084.00 -199.14854342  79.24238635
4086.00 -199.32114971  79.34858749
4088.00 -199.49379580  79.45487016
4090.00 -199.66648161  79.56123434
4092.00 -199.83920712  79.66768005
4094.00 -200.01197227  79.77420729
4096.00 -200.18477700  79.88081607
4098.00 -200.35762129  79.98750638
4100.00 -200.53050507  80.09427824
4102.00 -200.70342829  80.20113164
4104.00 -200.87639092  80.30806659
4106.00 -201.04939290  80.41508309
4108.00 -201.22243418  80.52218115
4110.00 -201.39551471  80.62936077
4112.00 -201.56863445  80.73662195
4114.00 -201.74179335  80.84396470
4116.00 -201.91499136  80.95138902
4118.00 -202.08822843  81.05889491
4120.00 -202.26150452  81.16648238
4122.00 -202.43481957  81.27415143
4124.00 -202.60817354  81.38190207
4126.00 -202.78156638  81.48973429
4128.00 -202.95499805  81.59764811
4130.00 -203.12846848  81.70564352
4132.00 -203.30197764  81.81372052
4134.00 -203.47552548  81.92187913
4136.00 -203.64911195  82.03011934
4138.00 -203.82273700  82.13844116
4140.00 -203.99640058  82.24684459
4142.00 -204.17010265  82.35532963
4144.00 -204.34384316  82.46389629
4146.00 -204.51762205  82.57254456
4148.00 -204.69143929  82.68127446
4150.00 -204.86529482  82.79008599
4152.00 -205.03918859  82.89897914
4154.00 -205.21312056  83.00795392
4156.00 -205.38709069  83.11701034
4158.00 -205.56109891  83.22614840
4160.00 -205.73514519  83.33536809
4162.00 -205.90922947  83.44466943
4164.00 -206.08335171  83.55405241
4166.00 -206.25751186  83.66351704
4168.00 -206.43170987  83.77306332
4170.00 -206.60594570  83.88269125
4172.00 -206.78021930  83.99240084
4174.00 -206.95453061  84.10219209
4176.00 -207.12887959  84.21206499
4178.00 -207.30326620  84.32201956
4180.00 -207.47769038  84.43205580
4182.00 -207.65215209  84.54217371
4184.00 -207.82665128  84.65237328
4186.00 -208.00118790  84.76265453
4188.00 -208.17576190  84.87301745
4190.00 -208.35037324  84.98346206
4192.00 -208.52502187  85.09398834
4194.00 -208.69970774  85.20459630
4196.00 -208.87443080  85.31528595
4198.00 -209.04919101  85.42605728
4200.00 -209.22398831  85.53691031
4202.00 -209.39882267  85.64784502
4204.00 -209.57369402  85.75886143
4206.00 -209.74860234  85.86995953
4208.00 -209.92354756  85.98113933
4210.00 -210.09852963  86.09240083
4212.00 -210.27354852  86.20374403
4214.00 -210.44860418  86.31516893
4216.00 -210.62369655  86.42667554
4218.00 -210.79882559  86.53826385
4220.00 -210.97399125  86.64993388
4222.00 -211.14919348  86.76168561
4224.00 -211.32443224  86.87351905
4226.00 -211.49970748  86.98543421
4228.00 -211.67501915  87.09743109
4230.00 -211.85036720  87.20950968
4232.00 -212.02575159  87.32166999
4234.00 -212.20117227  87.43391202
4236.00 -212.37662919  87.54623577
4238.00 -212.55212230  87.65864125
4240.00 -212.72765156  87.77112845
4242.00 -212.90321691  87.88369738
4244.00 -213.07881832  87.99634803
4246.00 -213.25445573  88.10908042
4248.00 -213.43012910  88.22189454
4250.00 -213.60583838  88.33479039
4252.00 -213.78158351  88.44776797
4254.00 -213.95736447  88.56082729
4256.00 -214.13318118  88.67396834
4258.00 -214.30903362  88.78719113
4260.00 -214.48492173  88.90049566
4262.00 -214.66084547  89.01388193
4264.00 -214.83680478  89.12734994
4266.00 -215.01279962  89.24089969
4268.00 -215.18882994  89.35453119
4270.00 -215.36489570  89.46824443
4272.00 -215.54099685  89.58203941
4274.00 -215.71713334  89.69591614
4276.00 -215.89330512  89.80987462
4278.00 -216.06951215  89.92391484
4280.00 -216.24575438  90.03803682
4282.00 -216.42203175  90.15224054
4284.00 -216.59834424  90.26652602
4286.00 -216.77469178  90.38089324
4288.00 -216.95107433  90.49534222
4290.00 -217.12749184  90.60987295
4292.00 -217.30394427  90.72448544
4294.00 -217.48043157  90.83917968
4296.00 -217.65695369  90.95395567
4298.00 -217.83351059  91.06881342
4300.00 -218.01010221  91.18375293
4302.00 -218.18672851  91.29877419
4304.00 -218.36338945  91.41387721
4306.00 -218.54008497  91.52906198
4308.00 -218.71681503  91.64432852
4310.00 -218.89357959  91.75967681
4312.00 -219.07037858  91.87510686
4314.00 -219.24721198  91.99061868
4316.00 -219.42407973  92.10621225
4318.00 -219.60098178  92.22188758
4320.00 -219.77791808  92.33764467
4322.00 -219.95488860  92.45348352
4324.00 -220.13189328  92.56940413
4326.00 -220.30893208  92.68540651
4328.00 -220.48600494  92.80149064
4330.00 -220.66311183  92.91765653
4332.00 -220.84025269  93.03390419
4334.00 -221.01742749  93.15023361
4336.00 -221.19463616  93.26664479
4338.00 -221.37187867  93.38313773
4340.00 -221.54915496  93.49971243
4342.00 -221.72646500  93.61636889
4344.00 -221.90380873  93.73310711
4346.00 -222.08118610  93.84992710
4348.00 -222.25859708  93.96682884
4350.00 -222.43604161  94.08381235
4352.00 -222.61351965  94.20087761
4354.00 -222.79103115  94.31802464
4356.00 -222.96857606  94.43525342
4358.00 -223.14615434  94.55256397
4360.00 -223.32376593  94.66995627
4362.00 -223.50141081  94.78743033
4364.00 -223.67908890  94.90498615
4366.00 -223.85680018  95.02262373
4368.00 -224.03454459  95.14034307
4370.00 -224.21232208  95.25814416
4372.00 -224.39013262  95.37602701
4374.00 -224.56797615  95.49399162
4376.00 -224.74585262  95.61203798
4378.00 -224.92376200  95.73016610
4380.00 -225.10170423  95.84837597
4382.00 -225.27967926  95.96666759
4384.00 -225.45768706  96.08504097
4386.00 -225.63572756  96.20349609
4388.00 -225.81380074  96.32203297
4390.00 -225.99190653  96.44065160
4392.00 -226.17004490  96.55935198
4394.00 -226.34821580  96.67813411
4396.00 -226.52641918  96.79699798
4398.00 -226.70465499  96.91594361
4400.00 -226.88292319  97.03497098
4402.00 -227.06122373  97.15408009
4404.00 -227.23955656  97.27327095
4406.00 -227.41792164  97.39254355
4408.00 -227.59631893  97.51189789
4410.00 -227.77474837  97.63133397
4412.00 -227.95320992  97.75085180
4414.00 -228.13170354  97.87045136
4416.00 -228.31022917  97.99013266
4418.00 -228.48878677  98.10989569
4420.00 -228.66737629  98.22974046
4422.00 -228.84599769  98.34966697
4424.00 -229.02465093  98.46967520
4426.00 -229.20333594  98.58976517
4428.00 -229.38205270  98.70993686
4430.00 -229.56080115  98.83019029
4432.00 -229.73958124  98.95052544
4434.00 -229.91839294  99.07094232
4436.00 -230.09723619  99.19144092
4438.00 -230.27611094  99.31202124
4440.00 -230.45501716  99.43268329
4442.00 -230.63395479  99.55342705
4444.00 -230.81292379  99.67425253
4446.00 -230.99192411  99.79515973
4448.00 -231.17095571  99.91614864
4450.00 -231.35001854 100.03721926
4452.00 -231.52911256 100.15837160
4454.00 -231.70823771 100.27960564
4456.00 -231.88739396 100.40092139
4458.00 -232.06658125 100.52231885
4460.00 -232.24579954 100.64379801
4462.00 -232.42504878 100.76535888
4464.00 -232.60432893 100.88700144
4466.00 -232.78363995 101.00872570
4468.00 -232.96298178 101.13053166
4470.00 -233.14235438 101.25241931
4472.00 -233.32175770 101.37438866
4474.00 -233.50119170 101.49643969
4476.00 -233.68065633 101.61857241
4478.00 -233.86015155 101.74078682
4480.00 -234.03967731 101.86308291
4482.00 -234.21923356 101.98546069
4484.00 -234.39882027 102.10792014
4486.00 -234.57843737 102.23046127
4488.00 -234.75808483 102.35308408
4490.00 -234.93776260 102.47578856
4492.00 -235.11747064 102.59857471
4494.00 -235.29720889 102.72144253
4496.00 -235.47697732 102.84439201
4498.00 -235.65677587 102.96742316
4500.00 -235.83660451 103.09053597
4502.00 -236.01646318 103.21373044
4504.00 -236.19635184 103.33700656
4506.00 -236.37627045 103.46036434
4508.00 -236.55621895 103.58380376
4510.00 -236.73619731 103.70732484
4512.00 -236.91620548 103.83092756
4514.00 -237.09624340 103.95461193
4516.00 -237.27631105 104.07837794
4518.00 -237.45640836 104.20222558
4520.00 -237.63653529 104.32615486
4522.00 -237.81669181 104.45016577
4524.00 -237.99687786 104.57425832
4526.00 -238.17709340 104.69843249
4528.00 -238.35733837 104.82268828
4530.00 -238.53761275 104.94702570
4532.00 -238.71791648 105.07144473
4534.00 -238.89824951 105.19594538
4536.00 -239.07861180 105.32052764
4538.00 -239.25900330 105.44519151
4540.00 -239.43942398 105.56993699
4542.00 -239.61987378 105.69476407
4544.00 -239.80035265 105.81967276
4546.00 -239.98086056 105.94466304
4548.00 -240.16139746 106.06973491
4550.00 -240.34196329 106.19488838
4552.00 -240.52255803 106.32012344
4554.00 -240.70318161 106.44544008
4556.00 -240.88383400 106.57083830
4558.00 -241.06451515 106.69631810
4560.00 -241.24522502 106.82187947
4562.00 -241.42596355 106.94752242
4564.00 -241.60673071 107.07324694
4566.00 -241.78752644 107.19905302
4568.00 -241.96835071 107.32494066
4570.00 -242.14920347 107.45090987
4572.00 -242.33008467 107.57696062
4574.00 -242.51099427 107.70309293
4576.00 -242.69193222 107.82930679
4578.00 -242.87289848 107.95560219
4580.00 -243.05389300 108.08197913
4582.00 -243.23491574 108.20843761
4584.00 -243.41596665 108.33497763
4586.00 -243.59704569 108.46159917
4588.00 -243.77815281 108.58830224
4590.00 -243.95928796 108.71508684
4592.00 -244.14045110 108.84195295
4594.00 -244.32164220 108.96890058
4596.00 -244.50286119 109.09592972
4598.00 -244.68410804 109.22304037
4600.00 -244.86538269 109.35023252
4602.00 -245.04668512 109.47750617
4604.00 -245.22801526 109.60486132
4606.00 -245.40937309 109.73229796
4608.00 -245.59075854 109.85981609
4610.00 -245.77217158 109.98741570
4612.00 -245.95361216 110.11509680
4614.00 -246.13508023 110.24285937
4616.00 -246.31657576 110.37070341
4618.00 -246.49809869 110.49862892
4620.00 -246.67964898 110.62663590
4622.00 -246.86122659 110.75472433
4624.00 -247.04283148 110.88289422
4626.00 -247.22446358 111.01114557
4628.00 -247.40612287 111.13947836
4630.00 -247.58780930 111.26789259
4632.00 -247.76952282 111.39638826
4634.00 -247.95126339 111.52496537
4636.00 -248.13303096 111.65362391
4638.00 -248.31482548 111.78236387
4640.00 -248.49664692 111.91118526
4642.00 -248.67849523 112.04008806
4644.00 -248.86037036 112.16907227
4646.00 -249.04227227 112.29813790
4648.00 -249.22420092 112.42728493
4650.00 -249.40615626 112.55651335
4652.00 -249.58813824 112.68582317
4654.00 -249.77014682 112.81521438
4656.00 -249.95218195 112.94468698
4658.00 -250.13424360 113.07424096
4660.00 -250.31633171 113.20387631
4662.00 -250.49844625 113.33359304
4664.00 -250.68058716 113.46339113
4666.00 -250.86275441 113.59327059
4668.00 -251.04494794 113.72323140
4670.00 -251.22716772 113.85327356
4672.00 -251.40941370 113.98339707
4674.00 -251.59168583 114.11360193
4676.00 -251.77398408 114.24388812
4678.00 -251.95630839 114.37425565
4680.00 -252.13865872 114.50470450
4682.00 -252.32103502 114.63523468
4684.00 -252.50343727 114.76584618
4686.00 -252.68586539 114.89653899
4688.00 -252.86831937 115.02731311
4690.00 -253.05079914 115.15816853
4692.00 -253.23330467 115.28910525
4694.00 -253.41583591 115.42012326
4696.00 -253.59839281 115.55122256
4698.00 -253.78097534 115.68240314
4700.00 -253.96358345 115.81366500
4702.00 -254.14621708 115.94500813
4704.00 -254.32887621 116.07643253
4706.00 -254.51156079 116.20793819
4708.00 -254.69427077 116.33952511
4710.00 -254.87700610 116.47119328
4712.00 -255.05976674 116.60294270
4714.00 -255.24255266 116.73477335
4716.00 -255.42536380 116.86668524
4718.00 -255.60820012 116.99867836
4720.00 -255.79106157 117.13075270
4722.00 -255.97394812 117.26290827
4724.00 -256.15685972 117.39514504
4726.00 -256.33979632 117.52746303
4728.00 -256.52275788 117.65986221
4730.00 -256.70574435 117.79234259
4732.00 -256.88875570 117.92490416
4734.00 -257.07179188 118.05754692
4736.00 -257.25485283 118.19027086
4738.00 -257.43793853 118.32307597
4740.00 -257.62104893 118.45596225
4742.00 -257.80418398 118.58892969
4744.00 -257.98734363 118.72197829
4746.00 -258.17052785 118.85510804
4748.00 -258.35373660 118.98831893
4750.00 -258.53696981 119.12161096
4752.00 -258.72022746 119.25498413
4754.00 -258.90350950 119.38843842
4756.00 -259.08681589 119.52197384
4758.00 -259.27014657 119.65559037
4760.00 -259.45350151 119.78928800
4762.00 -259.63688067 119.92306675
4764.00 -259.82028400 120.05692659
4766.00 -260.00371145 120.19086752
4768.00 -260.18716298 120.32488954
4770.00 -260.37063856 120.45899263
4772.00 -260.55413813 120.59317680
4774.00 -260.73766165 120.72744203
4776.00 -260.92120907 120.86178833
4778.00 -261.10478037 120.99621568
4780.00 -261.28837548 121.13072408
4782.00 -261.47199437 121.26531352
4784.00 -261.65563699 121.39998400
4786.00 -261.83930330 121.53473550
4788.00 -262.02299326 121.66956803
4790.00 -262.20670682 121.80448157
4792.00 -262.39044394 121.93947613
4794.00 -262.57420458 122.07455169
4796.00 -262.75798869 122.20970824
4798.00 -262.94179623 122.34494579
4800.00 -263.12562715 122.48026432
4802.00 -263.30948141 122.61566383
4804.00 -263.49335897 122.75114431
4806.00 -263.67725979 122.88670576
4808.00 -263.86118382 123.02234816
4810.00 -264.04513102 123.15807151
4812.00 -264.22910134 123.29387581
4814.00 -264.41309474 123.42976105
4816.00 -264.59711118 123.56572722
4818.00 -264.78115062 123.70177431
4820.00 -264.96521300 123.83790232
4822.00 -265.14929830 123.97411125
4824.00 -265.33340646 124.11040107
4826.00 -265.51753744 124.24677180
4828.00 -265.70169121 124.38322341
4830.00 -265.88586770 124.51975591
4832.00 -266.07006689 124.65636929
4834.00 -266.25428873 124.79306353
4836.00 -266.43853317 124.92983864
4838.00 -266.62280018 125.06669460
4840.00 -266.80708970 125.20363142
4842.00 -266.99140171 125.34064907
4844.00 -267.17573614 125.47774756
4846.00 -267.36009297 125.61492688
4848.00 -267.54447214 125.75218702
4850.00 -267.72887362 125.88952797
4852.00 -267.91329736 126.02694973
4854.00 -268.09774332 126.16445229
4856.00 -268.28221145 126.30203564
4858.00 -268.46670172 126.43969977
4860.00 -268.65121407 126.57744469
4862.00 -268.83574847 126.71527037
4864.00 -269.02030488 126.85317681
4866.00 -269.20488324 126.99116402
4868.00 -269.38948352 127.12923197
4870.00 -269.57410568 127.26738066
4872.00 -269.75874967 127.40561008
4874.00 -269.94341545 127.54392023
4876.00 -270.12810297 127.68231110
4878.00 -270.31281220 127.82078268
4880.00 -270.49754309 127.95933496
4882.00 -270.68229560 128.09796794
4884.00 -270.86706968 128.23668161
4886.00 -271.05186530 128.37547596
4888.00 -271.23668240 128.51435098
4890.00 -271.42152096 128.65330667
4892.00 -271.60638091 128.79234301
4894.00 -271.79126223 128.93146001
4896.00 -271.97616487 129.07065765
4898.00 -272.16108879 129.20993593
4900.00 -272.34603393 129.34929483
4902.00 -272.53100028 129.48873435
4904.00 -272.71598776 129.62825448
4906.00 -272.90099636 129.76785522
4908.00 -273.08602602 129.90753655
4910.00 -273.27107670 130.04729847
4912.00 -273.45614836 130.18714097
4914.00 -273.64124095 130.32706404
4916.00 -273.82635444 130.46706768
4918.00 -274.01148878 130.60715187
4920.00 -274.19664393 130.74731662
4922.00 -274.38181985 130.88756190
4924.00 -274.56701649 131.02788771
4926.00 -274.75223381 131.16829405
4928.00 -274.93747177 131.30878091
4930.00 -275.12273033 131.44934827
4932.00 -275.30800944 131.58999614
4934.00 -275.49330907 131.73072449
4936.00 -275.67862916 131.87153333
4938.00 -275.86396969 132.01242264
4940.00 -276.04933060 132.15339243
4942.00 -276.23471185 132.29444267
4944.00 -276.42011340 132.43557336
4946.00 -276.60553522 132.57678449
4948.00 -276.79097724 132.71807606
4950.00 -276.97643945 132.85944805
4952.00 -277.16192178 133.00090046
4954.00 -277.34742421 133.14243328
4956.00 -277.53294669 133.28404650
4958.00 -277.71848917 133.42574011
4960.00 -277.90405161 133.56751410
4962.00 -278.08963398 133.70936847
4964.00 -278.27523623 133.85130321
4966.00 -278.46085831 133.99331830
4968.00 -278.64650019 134.13541374
4970.00 -278.83216182 134.27758953
4972.00 -279.01784317 134.41984564
4974.00 -279.20354419 134.56218208
4976.00 -279.38926483 134.70459884
4978.00 -279.57500506 134.84709590
4980.00 -279.76076484 134.98967326
4982.00 -279.94654411 135.13233090
4984.00 -280.13234285 135.27506883
4986.00 -280.31816101 135.41788703
4988.00 -280.50399854 135.56078549
4990.00 -280.68985541 135.70376420
4992.00 -280.87573157 135.84682316
4994.00 -281.06162698 135.98996235
4996.00 -281.24754161 136.13318178
4998.00 -281.43347540 136.27648142
5000.00 -281.61942831 136.41986126
