wavelength(nm)         real         imag
100.00   3.68184388   0.00208468
102.00   3.67303121   0.00221227
104.00   3.66404410   0.00234496
106.00   3.65488255   0.00248286
108.00   3.64554657   0.00262606
110.00   3.63603616   0.00277466
112.00   3.62635132   0.00292876
114.00   3.61649207   0.00308846
116.00   3.60645839   0.00325387
118.00   3.59625031   0.00342507
120.00   3.58586781   0.00360218
122.00   3.57531092   0.00378529
124.00   3.56457962   0.00397451
126.00   3.55367393   0.00416992
128.00   3.54259385   0.00437164
130.00   3.53133939   0.00457975
132.00   3.51991055   0.00479437
134.00   3.50830733   0.00501559
136.00   3.49652975   0.00524351
138.00   3.48457780   0.00547824
140.00   3.47245149   0.00571986
142.00   3.46015083   0.00596848
144.00   3.44767582   0.00622421
146.00   3.43502647   0.00648714
148.00   3.42220278   0.00675736
150.00   3.40920475   0.00703499
152.00   3.39603241   0.00732012
154.00   3.38268574   0.00761285
156.00   3.36916476   0.00791328
158.00   3.35546947   0.00822150
160.00   3.34159988   0.00853763
162.00   3.32755599   0.00886176
164.00   3.31333782   0.00919399
166.00   3.29894535   0.00953441
168.00   3.28437862   0.00988314
170.00   3.26963761   0.01024026
172.00   3.25472233   0.01060589
174.00   3.23963280   0.01098011
176.00   3.22436902   0.01136303
178.00   3.20893099   0.01175475
180.00   3.19331872   0.01215537
182.00   3.17753222   0.01256498
184.00   3.16157150   0.01298369
186.00   3.14543656   0.01341160
188.00   3.12912741   0.01384881
190.00   3.11264406   0.01429541
192.00   3.09598651   0.01475151
194.00   3.07915477   0.01521721
196.00   3.06214885   0.01569260
198.00   3.04496876   0.01617779
200.00   3.02761450   0.01667287
202.00   3.01008608   0.01717795
204.00   2.99238351   0.01769312
206.00   2.97450680   0.01821849
208.00   2.95645596   0.01875415
210.00   2.93823098   0.01930021
212.00   2.91983189   0.01985676
214.00   2.90125868   0.02042390
216.00   2.88251137   0.02100174
218.00   2.86358997   0.02159037
220.00   2.84449448   0.02218989
222.00   2.82522491   0.02280040
224.00   2.80578127   0.02342201
226.00   2.78616357   0.02405480
228.00   2.76637181   0.02469889
230.00   2.74640602   0.02535437
232.00   2.72626618   0.02602133
234.00   2.70595232   0.02669989
236.00   2.68546444   0.02739013
238.00   2.66480256   0.02809217
240.00   2.64396667   0.02880609
242.00   2.62295679   0.02953200
244.00   2.60177293   0.03027000
246.00   2.58041510   0.03102018
248.00   2.55888331   0.03178266
250.00   2.53717756   0.03255751
252.00   2.51529787   0.03334486
254.00   2.49324424   0.03414478
256.00   2.47101669   0.03495739
258.00   2.44861522   0.03578279
260.00   2.42603985   0.03662107
262.00   2.40329059   0.03747233
264.00   2.38036743   0.03833668
266.00   2.35727041   0.03921420
268.00   2.33399951   0.04010501
270.00   2.31055477   0.04100920
272.00   2.28693617   0.04192687
274.00   2.26314375   0.04285811
276.00   2.23917749   0.04380304
278.00   2.21503743   0.04476174
280.00   2.19072356   0.04573432
282.00   2.16623590   0.04672088
284.00   2.14157446   0.04772152
286.00   2.11673925   0.04873633
288.00   2.09173027   0.04976542
290.00   2.06654755   0.05080888
292.00   2.04119109   0.05186681
294.00   2.01566090   0.05293932
296.00   1.98995700   0.05402649
298.00   1.96407939   0.05512844
300.00   1.93802809   0.05624527
302.00   1.91180311   0.05737706
304.00   1.88540445   0.05852392
306.00   1.85883214   0.05968595
308.00   1.83208618   0.06086324
310.00   1.80516658   0.06205591
312.00   1.77807336   0.06326404
314.00   1.75080653   0.06448773
316.00   1.72336610   0.06572709
318.00   1.69575208   0.06698221
320.00   1.66796449   0.06825320
322.00   1.64000333   0.06954015
324.00   1.61186862   0.07084316
326.00   1.58356037   0.07216233
328.00   1.55507859   0.07349775
330.00   1.52642330   0.07484954
332.00   1.49759450   0.07621779
334.00   1.46859222   0.07760259
336.00   1.43941646   0.07900404
338.00   1.41006724   0.08042226
340.00   1.38054456   0.08185732
342.00   1.35084845   0.08330934
344.00   1.32097891   0.08477841
346.00   1.29093596   0.08626463
348.00   1.26071961   0.08776810
350.00   1.23032987   0.08928892
352.00   1.19976676   0.09082719
354.00   1.16903030   0.09238300
356.00   1.13812048   0.09395646
358.00   1.10703734   0.09554767
360.00   1.07578087   0.09715672
362.00   1.04435110   0.09878371
364.00   1.01274804   0.10042874
366.00   0.98097170   0.10209191
368.00   0.94902210   0.10377332
370.00   0.91689925   0.10547307
372.00   0.88460316   0.10719125
374.00   0.85213385   0.10892797
376.00   0.81949133   0.11068333
378.00   0.78667562   0.11245742
380.00   0.75368673   0.11425034
382.00   0.72052468   0.11606219
384.00   0.68718948   0.11789307
386.00   0.65368114   0.11974308
388.00   0.61999968   0.12161231
390.00   0.58614511   0.12350087
392.00   0.55211745   0.12540886
394.00   0.51791672   0.12733637
396.00   0.48354292   0.12928350
398.00   0.44899608   0.13125035
400.00   0.41427621   0.13323702
402.00   0.37938332   0.13524360
404.00   0.34431743   0.13727020
406.00   0.30907855   0.13931692
408.00   0.27366670   0.14138385
410.00   0.23808190   0.14347110
412.00   0.20232416   0.14557875
414.00   0.16639349   0.14770691
416.00   0.13028992   0.14985568
418.00   0.09401345   0.15202516
420.00   0.05756411   0.15421544
422.00   0.02094191   0.15642662
424.00  -0.01585314   0.15865881
426.00  -0.05282102   0.16091209
428.00  -0.08996171   0.16318658
430.00  -0.12727519   0.16548236
432.00  -0.16476146   0.16779953
434.00  -0.20242049   0.17013820
436.00  -0.24025226   0.17249846
438.00  -0.27825677   0.17488041
440.00  -0.31643399   0.17728415
442.00  -0.35478391   0.17970978
444.00  -0.39330651   0.18215739
446.00  -0.43200178   0.18462709
448.00  -0.47086969   0.18711896
450.00  -0.50991023   0.18963312
452.00  -0.54912338   0.19216966
454.00  -0.58850913   0.19472867
456.00  -0.62806746   0.19731026
458.00  -0.66779836   0.19991452
460.00  -0.70770179   0.20254155
462.00  -0.74777776   0.20519145
464.00  -0.78802623   0.20786432
466.00  -0.82844719   0.21056025
468.00  -0.86904063   0.21327935
470.00  -0.90980653   0.21602171
472.00  -0.95074486   0.21878743
474.00  -0.99185562   0.22157661
476.00  -1.03313878   0.22438934
478.00  -1.07459432   0.22722573
480.00  -1.11622224   0.23008587
482.00  -1.15802250   0.23296985
484.00  -1.19999509   0.23587779
486.00  -1.24213999   0.23880977
488.00  -1.28445719   0.24176590
490.00  -1.32694667   0.24474627
492.00  -1.36960840   0.24775098
494.00  -1.41244237   0.25078012
496.00  -1.45544856   0.25383381
498.00  -1.49862695   0.25691212
500.00  -1.54197753   0.26001517
502.00  -1.58550026   0.26314304
504.00  -1.62919515   0.26629584
506.00  -1.67306215   0.26947367
508.00  -1.71710127   0.27267662
510.00  -1.76131247   0.27590479
512.00  -1.80569574   0.27915827
514.00  -1.85025106   0.28243718
516.00  -1.89497841   0.28574159
518.00  -1.93987777   0.28907162
520.00  -1.98494912   0.29242735
522.00  -2.03019244   0.29580889
524.00  -2.07560771   0.29921634
526.00  -2.12119492   0.30264978
528.00  -2.16695403   0.30610933
530.00  -2.21288504   0.30959507
532.00  -2.25898792   0.31310710
534.00  -2.30526265   0.31664553
536.00  -2.35170921   0.32021044
538.00  -2.39832758   0.32380195
540.00  -2.44511774   0.32742013
542.00  -2.49207968   0.33106510
544.00  -2.53921336   0.33473695
546.00  -2.58651878   0.33843577
548.00  -2.63399590   0.34216166
550.00  -2.68164471   0.34591473
552.00  -2.72946520   0.34969507
554.00  -2.77745732   0.35350277
556.00  -2.82562108   0.35733793
558.00  -2.87395644   0.36120066
560.00  -2.92246338   0.36509104
562.00  -2.97114189   0.36900918
564.00  -3.01999194   0.37295517
566.00  -3.06901351   0.37692910
568.00  -3.11820657   0.38093109
570.00  -3.16757112   0.38496122
572.00  -3.21710713   0.38901958
574.00  -3.26681457   0.39310629
576.00  -3.31669342   0.39722143
578.00  -3.36674366   0.40136511
580.00  -3.41696528   0.40553741
582.00  -3.46735824   0.40973844
584.00  -3.51792253   0.41396829
586.00  -3.56865813   0.41822706
588.00  -3.61956500   0.42251485
590.00  -3.67064314   0.42683175
592.00  -3.72189252   0.43117787
594.00  -3.77331311   0.43555329
596.00  -3.82490490   0.43995812
598.00  -3.87666785   0.44439245
600.00  -3.92860196   0.44885637
602.00  -3.98070719   0.45335000
604.00  -4.03298353   0.45787341
606.00  -4.08543094   0.46242672
608.00  -4.13804942   0.46701001
610.00  -4.19083893   0.47162338
612.00  -4.24379945   0.47626693
614.00  -4.29693096   0.48094076
616.00  -4.35023344   0.48564496
618.00  -4.40370686   0.49037963
620.00  -4.45735121   0.49514486
622.00  -4.51116645   0.49994076
624.00  -4.56515256   0.50476742
626.00  -4.61930952   0.50962493
628.00  -4.67363731   0.51451339
630.00  -4.72813590   0.51943291
632.00  -4.78280528   0.52438357
634.00  -4.83764540   0.52936547
636.00  -4.89265626   0.53437871
638.00  -4.94783783   0.53942338
640.00  -5.00319008   0.54449959
642.00  -5.05871299   0.54960742
644.00  -5.11440654   0.55474697
646.00  -5.17027070   0.55991835
648.00  -5.22630545   0.56512164
650.00  -5.28251076   0.57035695
652.00  -5.33888661   0.57562436
654.00  -5.39543298   0.58092398
656.00  -5.45214984   0.58625590
658.00  -5.50903716   0.59162022
660.00  -5.56609492   0.59701704
662.00  -5.62332310   0.60244644
664.00  -5.68072167   0.60790853
666.00  -5.73829061   0.61340340
668.00  -5.79602988   0.61893115
670.00  -5.85393948   0.62449188
672.00  -5.91201937   0.63008567
674.00  -5.97026952   0.63571263
676.00  -6.02868992   0.64137286
678.00  -6.08728053   0.64706644
680.00  -6.14604133   0.65279348
682.00  -6.20497229   0.65855407
684.00  -6.26407340   0.66434830
686.00  -6.32334462   0.67017628
688.00  -6.38278593   0.67603809
690.00  -6.44239730   0.68193384
692.00  -6.50217871   0.68786362
694.00  -6.56213013   0.69382752
696.00  -6.62225154   0.69982564
698.00  -6.68254290   0.70585809
700.00  -6.74300420   0.71192494
702.00  -6.80363541   0.71802630
704.00  -6.86443649   0.72416227
706.00  -6.92540743   0.73033293
708.00  -6.98654820   0.73653840
710.00  -7.04785877   0.74277875
712.00  -7.10933911   0.74905408
714.00  -7.17098921   0.75536450
716.00  -7.23280902   0.76171010
718.00  -7.29479853   0.76809097
720.00  -7.35695771   0.77450721
722.00  -7.41928653   0.78095891
724.00  -7.48178496   0.78744617
726.00  -7.54445299   0.79396909
728.00  -7.60729057   0.80052775
730.00  -7.67029769   0.80712226
732.00  -7.73347431   0.81375271
734.00  -7.79682041   0.82041920
736.00  -7.86033596   0.82712182
738.00  -7.92402094   0.83386066
740.00  -7.98787531   0.84063583
742.00  -8.05189906   0.84744741
744.00  -8.11609214   0.85429550
746.00  -8.18045454   0.86118020
748.00  -8.24498622   0.86810160
750.00  -8.30968716   0.87505980
752.00  -8.37455733   0.88205489
754.00  -8.43959671   0.88908697
756.00  -8.50480526   0.89615613
758.00  -8.57018295   0.90326247
760.00  -8.63572976   0.91040608
762.00  -8.70144566   0.91758705
764.00  -8.76733062   0.92480549
766.00  -8.83338462   0.93206148
768.00  -8.89960762   0.93935513
770.00  -8.96599959   0.94668652
772.00  -9.03256051   0.95405575
774.00  -9.09929035   0.96146292
776.00  -9.16618908   0.96890812
778.00  -9.23325667   0.97639144
780.00  -9.30049309   0.98391298
782.00  -9.36789831   0.99147284
784.00  -9.43547231   0.99907110
786.00  -9.50321505   1.00670787
788.00  -9.57112651   1.01438324
790.00  -9.63920665   1.02209730
792.00  -9.70745545   1.02985015
794.00  -9.77587288   1.03764188
796.00  -9.84445890   1.04547258
798.00  -9.91321349   1.05334236
800.00  -9.98213663   1.06125130
802.00 -10.05122827   1.06919950
804.00 -10.12048839   1.07718705
806.00 -10.18991696   1.08521405
808.00 -10.25951395   1.09328060
810.00 -10.32927932   1.10138678
812.00 -10.39921306   1.10953269
814.00 -10.46931513   1.11771842
816.00 -10.53958550   1.12594407
818.00 -10.61002413   1.13420974
820.00 -10.68063101   1.14251551
822.00 -10.75140609   1.15086149
824.00 -10.82234935   1.15924776
826.00 -10.89346076   1.16767442
828.00 -10.96474028   1.17614156
830.00 -11.03618789   1.18464928
832.00 -11.10780356   1.19319767
834.00 -11.17958725   1.20178683
836.00 -11.25153893   1.21041684
838.00 -11.32365858   1.21908781
840.00 -11.39594616   1.22779982
842.00 -11.46840163   1.23655298
844.00 -11.54102498   1.24534736
846.00 -11.61381617   1.25418308
848.00 -11.68677516   1.26306022
850.00 -11.75990193   1.27197887
852.00 -11.83319644   1.28093913
854.00 -11.90665867   1.28994110
856.00 -11.98028858   1.29898486
858.00 -12.05408613   1.30807051
860.00 -12.12805131   1.31719814
862.00 -12.20218407   1.32636785
864.00 -12.27648438   1.33557973
866.00 -12.35095222   1.34483387
868.00 -12.42558755   1.35413037
870.00 -12.50039033   1.36346932
872.00 -12.57536054   1.37285082
874.00 -12.65049815   1.38227495
876.00 -12.72580311   1.39174181
878.00 -12.80127541   1.40125149
880.00 -12.87691500   1.41080409
882.00 -12.95272186   1.42039970
884.00 -13.02869595   1.43003841
886.00 -13.10483724   1.43972032
888.00 -13.18114569   1.44944552
890.00 -13.25762128   1.45921410
892.00 -13.33426397   1.46902616
894.00 -13.41107373   1.47888178
896.00 -13.48805053   1.48878107
898.00 -13.56519432   1.49872411
900.00 -13.64250509   1.50871099
902.00 -13.71998279   1.51874182
904.00 -13.79762740   1.52881668
906.00 -13.87543887   1.53893566
908.00 -13.95341718   1.54909886
910.00 -14.03156229   1.55930638
912.00 -14.10987418   1.56955830
914.00 -14.18835280   1.57985471
916.00 -14.26699812   1.59019571
918.00 -14.34581011   1.60058140
920.00 -14.42478873   1.61101186
922.00 -14.50393395   1.62148719
924.00 -14.58324575   1.63200747
926.00 -14.66272407   1.64257281
928.00 -14.74236890   1.65318329
930.00 -14.82218018   1.66383901
932.00 -14.90215790   1.67454006
934.00 -14.98230202   1.68528653
936.00 -15.06261250   1.69607852
938.00 -15.14308931   1.70691611
940.00 -15.22373241   1.71779940
942.00 -15.30454176   1.72872848
944.00 -15.38551735   1.73970344
946.00 -15.46665912   1.75072438
948.00 -15.54796705   1.76179138
950.00 -15.62944109   1.77290455
952.00 -15.71108123   1.78406396
954.00 -15.79288741   1.79526972
956.00 -15.87485961   1.80652192
958.00 -15.95699779   1.81782064
960.00 -16.03930192   1.82916598
962.00 -16.12177195   1.84055804
964.00 -16.20440786   1.85199689
966.00 -16.28720961   1.86348265
968.00 -16.37017716   1.87501539
970.00 -16.45331049   1.88659520
972.00 -16.53660954   1.89822219
974.00 -16.62007430   1.90989644
976.00 -16.70370471   1.92161805
978.00 -16.78750075   1.93338710
980.00 -16.87146239   1.94520368
982.00 -16.95558957   1.95706790
984.00 -17.03988228   1.96897983
986.00 -17.12434047   1.98093958
988.00 -17.20896410   1.99294723
990.00 -17.29375315   2.00500288
992.00 -17.37870757   2.01710661
994.00 -17.46382733   2.02925852
996.00 -17.54911239   2.04145869
998.00 -17.63456271   2.05370723
1000.00 -17.72017827   2.06600422
1002.00 -17.80595902   2.07834975
1004.00 -17.89190492   2.09074392
1006.00 -17.97801594   2.10318681
1008.00 -18.06429205   2.11567851
1010.00 -18.15073320   2.12821913
1012.00 -18.23733936   2.14080874
1014.00 -18.32411049   2.15344744
1016.00 -18.41104656   2.16613532
1018.00 -18.49814752   2.17887247
1020.00 -18.58541335   2.19165899
1022.00 -18.67284400   2.20449496
1024.00 -18.76043943   2.21738047
1026.00 -18.84819962   2.23031562
1028.00 -18.93612451   2.24330049
1030.00 -19.02421409   2.25633518
1032.00 -19.11246829   2.26941977
1034.00 -19.20088710   2.28255437
1036.00 -19.28947047   2.29573905
1038.00 -19.37821836   2.30897391
1040.00 -19.46713074   2.32225904
1042.00 -19.55620757   2.33559453
1044.00 -19.64544881   2.34898047
1046.00 -19.73485442   2.36241695
1048.00 -19.82442436   2.37590406
1050.00 -19.91415860   2.38944190
1052.00 -20.00405710   2.40303055
1054.00 -20.09411982   2.41667009
1056.00 -20.18434672   2.43036064
1058.00 -20.27473776   2.44410226
1060.00 -20.36529291   2.45789506
1062.00 -20.45601213   2.47173913
1064.00 -20.54689537   2.48563454
1066.00 -20.63794260   2.49958140
1068.00 -20.72915378   2.51357980
1070.00 -20.82052887   2.52762981
1072.00 -20.91206784   2.54173155
1074.00 -21.00377064   2.55588508
1076.00 -21.09563724   2.57009051
1078.00 -21.18766759   2.58434792
1080.00 -21.27986166   2.59865741
1082.00 -21.37221940   2.61301906
1084.00 -21.46474079   2.62743297
1086.00 -21.55742577   2.64189921
1088.00 -21.65027432   2.65641789
1090.00 -21.74328638   2.67098909
1092.00 -21.83646193   2.68561290
1094.00 -21.92980091   2.70028942
1096.00 -22.02330330   2.71501872
1098.00 -22.11696906   2.72980091
1100.00 -22.21079813   2.74463607
1102.00 -22.30479049   2.75952428
1104.00 -22.39894609   2.77446565
1106.00 -22.49326489   2.78946025
1108.00 -22.58774686   2.80450818
1110.00 -22.68239194   2.81960953
1112.00 -22.77720012   2.83476438
1114.00 -22.87217133   2.84997283
1116.00 -22.96730555   2.86523497
1118.00 -23.06260273   2.88055088
1120.00 -23.15806283   2.89592065
1122.00 -23.25368581   2.91134437
1124.00 -23.34947163   2.92682213
1126.00 -23.44542026   2.94235403
1128.00 -23.54153164   2.95794014
1130.00 -23.63780574   2.97358056
1132.00 -23.73424252   2.98927538
1134.00 -23.83084194   3.00502468
1136.00 -23.92760396   3.02082856
1138.00 -24.02452853   3.03668710
1140.00 -24.12161561   3.05260040
1142.00 -24.21886517   3.06856853
1144.00 -24.31627716   3.08459160
1146.00 -24.41385154   3.10066968
1148.00 -24.51158827   3.11680286
1150.00 -24.60948731   3.13299125
1152.00 -24.70754862   3.14923491
1154.00 -24.80577215   3.16553395
1156.00 -24.90415787   3.18188845
1158.00 -25.00270573   3.19829850
1160.00 -25.10141569   3.21476419
1162.00 -25.20028771   3.23128560
1164.00 -25.29932175   3.24786282
1166.00 -25.39851776   3.26449595
1168.00 -25.49787571   3.28118506
1170.00 -25.59739555   3.29793026
1172.00 -25.69707724   3.31473162
1174.00 -25.79692074   3.33158924
1176.00 -25.89692600   3.34850320
1178.00 -25.99709298   3.36547359
1180.00 -26.09742165   3.38250049
1182.00 -26.19791196   3.39958401
1184.00 -26.29856386   3.41672422
1186.00 -26.39937731   3.43392121
1188.00 -26.50035228   3.45117507
1190.00 -26.60148872   3.46848589
1192.00 -26.70278658   3.48585375
1194.00 -26.80424583   3.50327875
1196.00 -26.90586641   3.52076097
1198.00 -27.00764830   3.53830050
1200.00 -27.10959144   3.55589742
1202.00 -27.21169579   3.57355183
1204.00 -27.31396131   3.59126380
1206.00 -27.41638795   3.60903344
1208.00 -27.51897568   3.62686082
1210.00 -27.62172445   3.64474604
1212.00 -27.72463421   3.66268917
1214.00 -27.82770493   3.68069032
1216.00 -27.93093656   3.69874955
1218.00 -28.03432905   3.71686697
1220.00 -28.13788237   3.73504266
1222.00 -28.24159646   3.75327671
1224.00 -28.34547129   3.77156920
1226.00 -28.44950681   3.78992022
1228.00 -28.55370298   3.80832986
1230.00 -28.65805976   3.82679820
1232.00 -28.76257709   3.84532534
1234.00 -28.86725494   3.86391135
1236.00 -28.97209326   3.88255633
1238.00 -29.07709201   3.90126036
1240.00 -29.18225114   3.92002352
1242.00 -29.28757062   3.93884592
1244.00 -29.39305038   3.95772762
1246.00 -29.49869040   3.97666873
1248.00 -29.60449063   3.99566932
1250.00 -29.71045102   4.01472948
1252.00 -29.81657153   4.03384930
1254.00 -29.92285211   4.05302887
1256.00 -30.02929272   4.07226826
1258.00 -30.13589331   4.09156758
1260.00 -30.24265384   4.11092690
1262.00 -30.34957427   4.13034630
1264.00 -30.45665454   4.14982589
1266.00 -30.56389462   4.16936574
1268.00 -30.67129446   4.18896593
1270.00 -30.77885402   4.20862657
1272.00 -30.88657324   4.22834772
1274.00 -30.99445209   4.24812948
1276.00 -31.10249051   4.26797193
1278.00 -31.21068847   4.28787517
1280.00 -31.31904592   4.30783926
1282.00 -31.42756282   4.32786431
1284.00 -31.53623910   4.34795040
1286.00 -31.64507475   4.36809761
1288.00 -31.75406969   4.38830602
1290.00 -31.86322390   4.40857573
1292.00 -31.97253732   4.42890682
1294.00 -32.08200992   4.44929938
1296.00 -32.19164163   4.46975349
1298.00 -32.30143243   4.49026923
1300.00 -32.41138225   4.51084669
1302.00 -32.52149106   4.53148597
1304.00 -32.63175881   4.55218713
1306.00 -32.74218545   4.57295028
1308.00 -32.85277094   4.59377548
1310.00 -32.96351523   4.61466284
1312.00 -33.07441828   4.63561243
1314.00 -33.18548003   4.65662434
1316.00 -33.29670044   4.67769865
1318.00 -33.40807947   4.69883546
1320.00 -33.51961707   4.72003484
1322.00 -33.63131319   4.74129687
1324.00 -33.74316778   4.76262166
1326.00 -33.85518081   4.78400927
1328.00 -33.96735221   4.80545979
1330.00 -34.07968195   4.82697332
1332.00 -34.19216998   4.84854993
1334.00 -34.30481625   4.87018971
1336.00 -34.41762071   4.89189274
1338.00 -34.53058332   4.91365911
1340.00 -34.64370403   4.93548891
1342.00 -34.75698279   4.95738221
1344.00 -34.87041956   4.97933910
1346.00 -34.98401428   5.00135967
1348.00 -35.09776692   5.02344400
1350.00 -35.21167742   5.04559218
1352.00 -35.32574573   5.06780428
1354.00 -35.43997181   5.09008040
1356.00 -35.55435562   5.11242062
1358.00 -35.66889709   5.13482502
1360.00 -35.78359619   5.15729369
1362.00 -35.89845287   5.17982671
1364.00 -36.01346707   5.20242417
1366.00 -36.12863876   5.22508614
1368.00 -36.24396788   5.24781272
1370.00 -36.35945439   5.27060398
1372.00 -36.47509823   5.29346002
1374.00 -36.59089936   5.31638091
1376.00 -36.70685774   5.33936674
1378.00 -36.82297330   5.36241759
1380.00 -36.93924601   5.38553355
1382.00 -37.05567582   5.40871470
1384.00 -37.17226267   5.43196112
1386.00 -37.28900653   5.45527290
1388.00 -37.40590733   5.47865012
1390.00 -37.52296503   5.50209287
1392.00 -37.64017959   5.52560122
1394.00 -37.75755095   5.54917526
1396.00 -37.87507907   5.57281508
1398.00 -37.99276389   5.59652076
1400.00 -38.11060538   5.62029238
1402.00 -38.22860347   5.64413003
1404.00 -38.34675812   5.66803378
1406.00 -38.46506928   5.69200372
1408.00 -38.58353690   5.71603994
1410.00 -38.70216094   5.74014252
1412.00 -38.82094134   5.76431153
1414.00 -38.93987805   5.78854707
1416.00 -39.05897103   5.81284922
1418.00 -39.17822022   5.83721805
1420.00 -39.29762558   5.86165366
1422.00 -39.41718705   5.88615612
1424.00 -39.53690459   5.91072552
1426.00 -39.65677815   5.93536194
1428.00 -39.77680768   5.96006546
1430.00 -39.89699312   5.98483617
1432.00 -40.01733443   6.00967414
1434.00 -40.13783155   6.03457947
1436.00 -40.25848445   6.05955223
1438.00 -40.37929306   6.08459251
1440.00 -40.50025734   6.10970038
1442.00 -40.62137724   6.13487594
1444.00 -40.74265270   6.16011926
1446.00 -40.86408369   6.18543042
1448.00 -40.98567014   6.21080951
1450.00 -41.10741200   6.23625661
1452.00 -41.22930923   6.26177180
1454.00 -41.35136178   6.28735516
1456.00 -41.47356959   6.31300678
1458.00 -41.59593262   6.33872674
1460.00 -41.71845081   6.36451512
1462.00 -41.84112412   6.39037199
1464.00 -41.96395249   6.41629746
1466.00 -42.08693587   6.44229158
1468.00 -42.21007421   6.46835446
1470.00 -42.33336746   6.49448616
1472.00 -42.45681557   6.52068677
1474.00 -42.58041849   6.54695637
1476.00 -42.70417617   6.57329505
1478.00 -42.82808855   6.59970288
1480.00 -42.95215559   6.62617995
1482.00 -43.07637723   6.65272634
1484.00 -43.20075342   6.67934212
1486.00 -43.32528411   6.70602739
1488.00 -43.44996926   6.73278221
1490.00 -43.57480880   6.75960668
1492.00 -43.69980269   6.78650087
1494.00 -43.82495087   6.81346487
1496.00 -43.95025330   6.84049876
1498.00 -44.07570992   6.86760261
1500.00 -44.20132068   6.89477651
1502.00 -44.32708552   6.92202054
1504.00 -44.45300441   6.94933478
1506.00 -44.57907728   6.97671931
1508.00 -44.70530408   7.00417422
1510.00 -44.83168476   7.03169957
1512.00 -44.95821927   7.05929546
1514.00 -45.08490756   7.08696196
1516.00 -45.21174957   7.11469916
1518.00 -45.33874525   7.14250713
1520.00 -45.46589456   7.17038596
1522.00 -45.59319743   7.19833572
1524.00 -45.72065381   7.22635650
1526.00 -45.84826366   7.25444838
1528.00 -45.97602692   7.28261144
1530.00 -46.10394354   7.31084575
1532.00 -46.23201346   7.33915140
1534.00 -46.36023663   7.36752846
1536.00 -46.48861301   7.39597703
1538.00 -46.61714253   7.42449717
1540.00 -46.74582514   7.45308898
1542.00 -46.87466080   7.48175252
1544.00 -47.00364944   7.51048787
1546.00 -47.13279102   7.53929513
1548.00 -47.26208549   7.56817436
1550.00 -47.39153278   7.59712565
1552.00 -47.52113285   7.62614908
1554.00 -47.65088564   7.65524473
1556.00 -47.78079110   7.68441267
1558.00 -47.91084917   7.71365299
1560.00 -48.04105981   7.74296576
1562.00 -48.17142296   7.77235107
1564.00 -48.30193856   7.80180900
1566.00 -48.43260657   7.83133962
1568.00 -48.56342693   7.86094301
1570.00 -48.69439958   7.89061925
1572.00 -48.82552447   7.92036843
1574.00 -48.95680156   7.95019062
1576.00 -49.08823077   7.98008590
1578.00 -49.21981207   8.01005434
1580.00 -49.35154539   8.04009604
1582.00 -49.48343069   8.07021107
1584.00 -49.61546790   8.10039950
1586.00 -49.74765698   8.13066141
1588.00 -49.87999787   8.16099689
1590.00 -50.01249051   8.19140602
1592.00 -50.14513486   8.22188886
1594.00 -50.27793085   8.25244551
1596.00 -50.41087844   8.28307604
1598.00 -50.54397757   8.31378052
1600.00 -50.67722818   8.34455904
1602.00 -50.81063022   8.37541168
1604.00 -50.94418364   8.40633851
1606.00 -51.07788838   8.43733961
1608.00 -51.21174439   8.46841506
1610.00 -51.34575160   8.49956494
1612.00 -51.47990998   8.53078932
1614.00 -51.61421945   8.56208829
1616.00 -51.74867998   8.59346193
1618.00 -51.88329149   8.62491031
1620.00 -52.01805395   8.65643350
1622.00 -52.15296729   8.68803159
1624.00 -52.28803145   8.71970466
1626.00 -52.42324639   8.75145278
1628.00 -52.55861204   8.78327604
1630.00 -52.69412836   8.81517450
1632.00 -52.82979528   8.84714825
1634.00 -52.96561276   8.87919736
1636.00 -53.10158073   8.91132192
1638.00 -53.23769914   8.94352199
1640.00 -53.37396794   8.97579766
1642.00 -53.51038707   9.00814901
1644.00 -53.64695647   9.04057611
1646.00 -53.78367609   9.07307904
1648.00 -53.92054588   9.10565788
1650.00 -54.05756577   9.13831270
1652.00 -54.19473571   9.17104358
1654.00 -54.33205565   9.20385060
1656.00 -54.46952553   9.23673384
1658.00 -54.60714529   9.26969337
1660.00 -54.74491488   9.30272927
1662.00 -54.88283424   9.33584162
1664.00 -55.02090332   9.36903049
1666.00 -55.15912206   9.40229596
1668.00 -55.29749040   9.43563811
1670.00 -55.43600829   9.46905702
1672.00 -55.57467567   9.50255276
1674.00 -55.71349249   9.53612540
1676.00 -55.85245868   9.56977503
1678.00 -55.99157420   9.60350172
1680.00 -56.13083898   9.63730555
1682.00 -56.27025297   9.67118660
1684.00 -56.40981612   9.70514493
1686.00 -56.54952835   9.73918063
1688.00 -56.68938963   9.77329378
1690.00 -56.82939989   9.80748445
1692.00 -56.96955908   9.84175271
1694.00 -57.10986714   9.87609864
1696.00 -57.25032400   9.91052233
1698.00 -57.39092963   9.94502383
1700.00 -57.53168395   9.97960324
1702.00 -57.67258691  10.01426063
1704.00 -57.81363845  10.04899606
1706.00 -57.95483853  10.08380963
1708.00 -58.09618707  10.11870140
1710.00 -58.23768402  10.15367145
1712.00 -58.37932933  10.18871986
1714.00 -58.52112294  10.22384669
1716.00 -58.66306479  10.25905204
1718.00 -58.80515482  10.29433597
1720.00 -58.94739298  10.32969855
1722.00 -59.08977921  10.36513987
1724.00 -59.23231344  10.40066000
1726.00 -59.37499563  10.43625901
1728.00 -59.51782572  10.47193698
1730.00 -59.66080364  10.50769399
1732.00 -59.80392934  10.54353011
1734.00 -59.94720276  10.57944541
1736.00 -60.09062385  10.61543997
1738.00 -60.23419254  10.65151387
1740.00 -60.37790879  10.68766718
1742.00 -60.52177252  10.72389997
1744.00 -60.66578368  10.76021233
1746.00 -60.80994222  10.79660432
1748.00 -60.95424808  10.83307602
1750.00 -61.09870119  10.86962750
1752.00 -61.24330150  10.90625884
1754.00 -61.38804896  10.94297012
1756.00 -61.53294349  10.97976141
1758.00 -61.67798505  11.01663277
1760.00 -61.82317358  11.05358430
1762.00 -61.96850902  11.09061606
1764.00 -62.11399130  11.12772812
1766.00 -62.25962037  11.16492057
1768.00 -62.40539618  11.20219347
1770.00 -62.55131866  11.23954689
1772.00 -62.69738775  11.27698093
1774.00 -62.84360340  11.31449564
1776.00 -62.98996555  11.35209110
1778.00 -63.13647413  11.38976738
1780.00 -63.28312909  11.42752457
1782.00 -63.42993037  11.46536273
1784.00 -63.57687792  11.50328193
1786.00 -63.72397166  11.54128226
1788.00 -63.87121155  11.57936378
1790.00 -64.01859753  11.61752657
1792.00 -64.16612952  11.65577070
1794.00 -64.31380748  11.69409624
1796.00 -64.46163135  11.73250328
1798.00 -64.60960107  11.77099187
1800.00 -64.75771657  11.80956210
1802.00 -64.90597780  11.84821405
1804.00 -65.05438470  11.88694777
1806.00 -65.20293720  11.92576335
1808.00 -65.35163526  11.96466086
1810.00 -65.50047880  12.00364037
1812.00 -65.64946778  12.04270195
1814.00 -65.79860213  12.08184569
1816.00 -65.94788178  12.12107164
1818.00 -66.09730669  12.16037989
1820.00 -66.24687679  12.19977051
1822.00 -66.39659201  12.23924356
1824.00 -66.54645231  12.27879913
1826.00 -66.69645762  12.31843728
1828.00 -66.84660788  12.35815809
1830.00 -66.99690304  12.39796163
1832.00 -67.14734302  12.43784798
1834.00 -67.29792777  12.47781719
1836.00 -67.44865723  12.51786936
1838.00 -67.59953135  12.55800455
1840.00 -67.75055005  12.59822283
1842.00 -67.90171328  12.63852427
1844.00 -68.05302098  12.67890895
1846.00 -68.20447309  12.71937695
1848.00 -68.35606955  12.75992832
1850.00 -68.50781029  12.80056314
1852.00 -68.65969527  12.84128149
1854.00 -68.81172440  12.88208344
1856.00 -68.96389765  12.92296906
1858.00 -69.11621493  12.96393842
1860.00 -69.26867620  13.00499159
1862.00 -69.42128140  13.04612865
1864.00 -69.57403046  13.08734966
1866.00 -69.72692332  13.12865470
1868.00 -69.87995991  13.17004384
1870.00 -70.03314019  13.21151715
1872.00 -70.18646409  13.25307470
1874.00 -70.33993154  13.29471657
1876.00 -70.49354249  13.33644282
1878.00 -70.64729688  13.37825353
1880.00 -70.80119464  13.42014877
1882.00 -70.95523571  13.46212861
1884.00 -71.10942003  13.50419311
1886.00 -71.26374754  13.54634236
1888.00 -71.41821818  13.58857642
1890.00 -71.57283189  13.63089536
1892.00 -71.72758860  13.67329926
1894.00 -71.88248826  13.71578818
1896.00 -72.03753080  13.75836219
1898.00 -72.19271616  13.80102138
1900.00 -72.34804428  13.84376580
1902.00 -72.50351510  13.88659553
1904.00 -72.65912855  13.92951063
1906.00 -72.81488458  13.97251119
1908.00 -72.97078311  14.01559726
1910.00 -73.12682410  14.05876893
1912.00 -73.28300748  14.10202625
1914.00 -73.43933318  14.14536931
1916.00 -73.59580115  14.18879816
1918.00 -73.75241132  14.23231289
1920.00 -73.90916363  14.27591356
1922.00 -74.06605801  14.31960024
1924.00 -74.22309442  14.36337300
1926.00 -74.38027277  14.40723191
1928.00 -74.53759302  14.45117704
1930.00 -74.69505510  14.49520846
1932.00 -74.85265894  14.53932625
1934.00 -75.01040449  14.58353046
1936.00 -75.16829167  14.62782118
1938.00 -75.32632044  14.67219846
1940.00 -75.48449073  14.71666238
1942.00 -75.64280247  14.76121301
1944.00 -75.80125559  14.80585042
1946.00 -75.95985005  14.85057468
1948.00 -76.11858578  14.89538586
1950.00 -76.27746271  14.94028402
1952.00 -76.43648077  14.98526924
1954.00 -76.59563992  15.03034158
1956.00 -76.75494008  15.07550112
1958.00 -76.91438119  15.12074791
1960.00 -77.07396320  15.16608205
1962.00 -77.23368602  15.21150358
1964.00 -77.39354961  15.25701258
1966.00 -77.55355390  15.30260912
1968.00 -77.71369883  15.34829327
1970.00 -77.87398433  15.39406510
1972.00 -78.03441034  15.43992467
1974.00 -78.19497680  15.48587205
1976.00 -78.35568364  15.53190732
1978.00 -78.51653080  15.57803053
1980.00 -78.67751822  15.62424177
1982.00 -78.83864583  15.67054109
1984.00 -78.99991358  15.71692857
1986.00 -79.16132139  15.76340428
1988.00 -79.32286920  15.80996827
1990.00 -79.48455695  15.85662063
1992.00 -79.64638458  15.90336141
1994.00 -79.80835202  15.95019070
1996.00 -79.97045921  15.99710855
1998.00 -80.13270608  16.04411503
2000.00 -80.29509257  16.09121021
2002.00 -80.45761862  16.13839416
2004.00 -80.62028417  16.18566694
2006.00 -80.78308914  16.23302863
2008.00 -80.94603348  16.28047930
2010.00 -81.10911712  16.32801900
2012.00 -81.27234000  16.37564781
2014.00 -81.43570205  16.42336579
2016.00 -81.59920321  16.47117301
2018.00 -81.76284341  16.51906955
2020.00 -81.92662260  16.56705546
2022.00 -82.09054070  16.61513081
2024.00 -82.25459765  16.66329568
2026.00 -82.41879340  16.71155012
2028.00 -82.58312786  16.75989421
2030.00 -82.74760099  16.80832801
2032.00 -82.91221271  16.85685159
2034.00 -83.07696296  16.90546502
2036.00 -83.24185167  16.95416836
2038.00 -83.40687879  17.00296168
2040.00 -83.57204424  17.05184505
2042.00 -83.73734797  17.10081853
2044.00 -83.90278990  17.14988219
2046.00 -84.06836997  17.19903609
2048.00 -84.23408812  17.24828031
2050.00 -84.39994429  17.29761491
2052.00 -84.56593840  17.34703996
2054.00 -84.73207040  17.39655552
2056.00 -84.89834021  17.44616166
2058.00 -85.06474778  17.49585844
2060.00 -85.23129303  17.54564593
2062.00 -85.39797591  17.59552420
2064.00 -85.56479635  17.64549332
2066.00 -85.73175428  17.69555334
2068.00 -85.89884964  17.74570434
2070.00 -86.06608236  17.79594638
2072.00 -86.23345238  17.84627953
2074.00 -86.40095963  17.89670385
2076.00 -86.56860405  17.94721940
2078.00 -86.73638556  17.99782627
2080.00 -86.90430412  18.04852450
2082.00 -87.07235964  18.09931417
2084.00 -87.24055208  18.15019534
2086.00 -87.40888135  18.20116807
2088.00 -87.57734739  18.25223244
2090.00 -87.74595014  18.30338850
2092.00 -87.91468954  18.35463633
2094.00 -88.08356551  18.40597599
2096.00 -88.25257800  18.45740753
2098.00 -88.42172693  18.50893104
2100.00 -88.59101224  18.56054656
2102.00 -88.76043386  18.61225418
2104.00 -88.92999174  18.66405395
2106.00 -89.09968579  18.71594593
2108.00 -89.26951597  18.76793020
2110.00 -89.43948219  18.82000682
2112.00 -89.60958440  18.87217584
2114.00 -89.77982253  18.92443735
2116.00 -89.95019650  18.97679139
2118.00 -90.12070627  19.02923804
2120.00 -90.29135176  19.08177736
2122.00 -90.46213290  19.13440941
2124.00 -90.63304962  19.18713427
2126.00 -90.80410187  19.23995198
2128.00 -90.97528958  19.29286262
2130.00 -91.14661267  19.34586626
2132.00 -91.31807109  19.39896295
2134.00 -91.48966476  19.45215276
2136.00 -91.66139362  19.50543575
2138.00 -91.83325761  19.55881199
2140.00 -92.00525665  19.61228154
2142.00 -92.17739068  19.66584447
2144.00 -92.34965964  19.71950083
2146.00 -92.52206345  19.77325070
2148.00 -92.69460205  19.82709413
2150.00 -92.86727538  19.88103120
2152.00 -93.04008336  19.93506195
2154.00 -93.21302593  19.98918647
2156.00 -93.38610303  20.04340480
2158.00 -93.55931458  20.09771702
2160.00 -93.73266052  20.15212318
2162.00 -93.90614079  20.20662335
2164.00 -94.07975531  20.26121760
2166.00 -94.25350401  20.31590598
2168.00 -94.42738684  20.37068856
2170.00 -94.60140373  20.42556541
2172.00 -94.77555460  20.48053658
2174.00 -94.94983939  20.53560214
2176.00 -95.12425803  20.59076215
2178.00 -95.29881046  20.64601667
2180.00 -95.47349661  20.70136577
2182.00 -95.64831641  20.75680950
2184.00 -95.82326980  20.81234794
2186.00 -95.99835670  20.86798115
2188.00 -96.17357705  20.92370918
2190.00 -96.34893078  20.97953210
2192.00 -96.52441782  21.03544997
2194.00 -96.70003812  21.09146285
2196.00 -96.87579159  21.14757081
2198.00 -97.05167817  21.20377391
2200.00 -97.22769780  21.26007220
2202.00 -97.40385040  21.31646576
2204.00 -97.58013591  21.37295465
2206.00 -97.75655427  21.42953892
2208.00 -97.93310539  21.48621864
2210.00 -98.10978923  21.54299386
2212.00 -98.28660570  21.59986466
2214.00 -98.46355474  21.65683109
2216.00 -98.64063628  21.71389322
2218.00 -98.81785025  21.77105110
2220.00 -98.99519660  21.82830481
2222.00 -99.17267524  21.88565439
2224.00 -99.35028611  21.94309991
2226.00 -99.52802914  22.00064143
2228.00 -99.70590426  22.05827902
2230.00 -99.88391142  22.11601273
2232.00 -100.06205052  22.17384263
2234.00 -100.24032152  22.23176877
2236.00 -100.41872434  22.28979122
2238.00 -100.59725892  22.34791004
2240.00 -100.77592518  22.40612530
2242.00 -100.95472305  22.46443704
2244.00 -101.13365247  22.52284533
2246.00 -101.31271337  22.58135024
2248.00 -101.49190569  22.63995181
2250.00 -101.67122934  22.69865012
2252.00 -101.85068427  22.75744523
2254.00 -102.03027041  22.81633719
2256.00 -102.20998768  22.87532607
2258.00 -102.38983602  22.93441192
2260.00 -102.56981536  22.99359480
2262.00 -102.74992563  23.05287479
2264.00 -102.93016677  23.11225192
2266.00 -103.11053870  23.17172628
2268.00 -103.29104135  23.23129791
2270.00 -103.47167466  23.29096688
2272.00 -103.65243856  23.35073324
2274.00 -103.83333297  23.41059707
2276.00 -104.01435784  23.47055840
2278.00 -104.19551309  23.53061732
2280.00 -104.37679864  23.59077386
2282.00 -104.55821445  23.65102811
2284.00 -104.73976042  23.71138011
2286.00 -104.92143650  23.77182992
2288.00 -105.10324261  23.83237761
2290.00 -105.28517870  23.89302323
2292.00 -105.46724467  23.95376685
2294.00 -105.64944048  24.01460851
2296.00 -105.83176605  24.07554829
2298.00 -106.01422130  24.13658624
2300.00 -106.19680618  24.19772242
2302.00 -106.37952061  24.25895689
2304.00 -106.56236451  24.32028970
2306.00 -106.74533784  24.38172092
2308.00 -106.92844050  24.44325061
2310.00 -107.11167244  24.50487882
2312.00 -107.29503358  24.56660562
2314.00 -107.47852386  24.62843105
2316.00 -107.66214320  24.69035519
2318.00 -107.84589153  24.75237809
2320.00 -108.02976879  24.81449980
2322.00 -108.21377491  24.87672040
2324.00 -108.39790982  24.93903992
2326.00 -108.58217344  25.00145844
2328.00 -108.76656571  25.06397601
2330.00 -108.95108656  25.12659269
2332.00 -109.13573591  25.18930854
2334.00 -109.32051370  25.25212361
2336.00 -109.50541986  25.31503797
2338.00 -109.69045432  25.37805167
2340.00 -109.87561700  25.44116476
2342.00 -110.06090785  25.50437732
2344.00 -110.24632678  25.56768939
2346.00 -110.43187373  25.63110104
2348.00 -110.61754863  25.69461231
2350.00 -110.80335141  25.75822328
2352.00 -110.98928199  25.82193399
2354.00 -111.17534031  25.88574450
2356.00 -111.36152630  25.94965487
2358.00 -111.54783989  26.01366517
2360.00 -111.73428100  26.07777544
2362.00 -111.92084958  26.14198574
2364.00 -112.10754554  26.20629613
2366.00 -112.29436881  26.27070667
2368.00 -112.48131933  26.33521741
2370.00 -112.66839703  26.39982842
2372.00 -112.85560183  26.46453974
2374.00 -113.04293367  26.52935144
2376.00 -113.23039247  26.59426357
2378.00 -113.41797817  26.65927619
2380.00 -113.60569069  26.72438935
2382.00 -113.79352996  26.78960312
2384.00 -113.98149591  26.85491755
2386.00 -114.16958848  26.92033269
2388.00 -114.35780759  26.98584860
2390.00 -114.54615317  27.05146534
2392.00 -114.73462514  27.11718297
2394.00 -114.92322345  27.18300154
2396.00 -115.11194802  27.24892110
2398.00 -115.30079877  27.31494172
2400.00 -115.48977564  27.38106345
2402.00 -115.67887855  27.44728634
2404.00 -115.86810745  27.51361045
2406.00 -116.05746224  27.58003585
2408.00 -116.24694287  27.64656257
2410.00 -116.43654926  27.71319068
2412.00 -116.62628134  27.77992024
2414.00 -116.81613904  27.84675130
2416.00 -117.00612229  27.91368392
2418.00 -117.19623102  27.98071815
2420.00 -117.38646516  28.04785404
2422.00 -117.57682463  28.11509166
2424.00 -117.76730937  28.18243105
2426.00 -117.95791930  28.24987228
2428.00 -118.14865435  28.31741540
2430.00 -118.33951445  28.38506046
2432.00 -118.53049954  28.45280752
2434.00 -118.72160953  28.52065663
2436.00 -118.91284436  28.58860786
2438.00 -119.10420396  28.65666124
2440.00 -119.29568825  28.72481685
2442.00 -119.48729716  28.79307473
2444.00 -119.67903063  28.86143494
2446.00 -119.87088857  28.92989753
2448.00 -120.06287093  28.99846256
2450.00 -120.25497762  29.06713008
2452.00 -120.44720858  29.13590015
2454.00 -120.63956373  29.20477282
2456.00 -120.83204300  29.27374814
2458.00 -121.02464633  29.34282618
2460.00 -121.21737363  29.41200698
2462.00 -121.41022484  29.48129060
2464.00 -121.60319989  29.55067709
2466.00 -121.79629871  29.62016651
2468.00 -121.98952121  29.68975891
2470.00 -122.18286734  29.75945434
2472.00 -122.37633701  29.82925287
2474.00 -122.56993016  29.89915453
2476.00 -122.76364672  29.96915940
2478.00 -122.95748661  30.03926751
2480.00 -123.15144976  30.10947893
2482.00 -123.34553610  30.17979370
2484.00 -123.53974556  30.25021189
2486.00 -123.73407806  30.32073354
2488.00 -123.92853354  30.39135871
2490.00 -124.12311191  30.46208745
2492.00 -124.31781312  30.53291981
2494.00 -124.51263709  30.60385585
2496.00 -124.70758374  30.67489562
2498.00 -124.90265300  30.74603918
2500.00 -125.09784480  30.81728658
2502.00 -125.29315907  30.88863786
2504.00 -125.48859574  30.96009309
2506.00 -125.68415473  31.03165231
2508.00 -125.87983598  31.10331559
2510.00 -126.07563940  31.17508296
2512.00 -126.27156493  31.24695449
2514.00 -126.46761249  31.31893023
2516.00 -126.66378202  31.39101022
2518.00 -126.86007344  31.46319453
2520.00 -127.05648667  31.53548320
2522.00 -127.25302165  31.60787629
2524.00 -127.44967830  31.68037385
2526.00 -127.64645656  31.75297592
2528.00 -127.84335633  31.82568258
2530.00 -128.04037757  31.89849386
2532.00 -128.23752019  31.97140981
2534.00 -128.43478411  32.04443050
2536.00 -128.63216928  32.11755596
2538.00 -128.82967560  32.19078627
2540.00 -129.02730302  32.26412145
2542.00 -129.22505146  32.33756158
2544.00 -129.42292085  32.41110669
2546.00 -129.62091111  32.48475684
2548.00 -129.81902217  32.55851209
2550.00 -130.01725395  32.63237248
2552.00 -130.21560640  32.70633806
2554.00 -130.41407942  32.78040889
2556.00 -130.61267295  32.85458502
2558.00 -130.81138692  32.92886650
2560.00 -131.01022126  33.00325338
2562.00 -131.20917588  33.07774571
2564.00 -131.40825073  33.15234354
2566.00 -131.60744571  33.22704693
2568.00 -131.80676077  33.30185592
2570.00 -132.00619583  33.37677057
2572.00 -132.20575081  33.45179092
2574.00 -132.40542564  33.52691703
2576.00 -132.60522026  33.60214895
2578.00 -132.80513458  33.67748672
2580.00 -133.00516853  33.75293041
2582.00 -133.20532204  33.82848005
2584.00 -133.40559504  33.90413571
2586.00 -133.60598746  33.97989742
2588.00 -133.80649921  34.05576525
2590.00 -134.00713023  34.13173924
2592.00 -134.20788044  34.20781944
2594.00 -134.40874977  34.28400590
2596.00 -134.60973815  34.36029867
2598.00 -134.81084550  34.43669780
2600.00 -135.01207176  34.51320335
2602.00 -135.21341684  34.58981536
2604.00 -135.41488067  34.66653388
2606.00 -135.61646318  34.74335895
2608.00 -135.81816430  34.82029065
2610.00 -136.01998395  34.89732900
2612.00 -136.22192206  34.97447406
2614.00 -136.42397855  35.05172588
2616.00 -136.62615336  35.12908451
2618.00 -136.82844641  35.20655000
2620.00 -137.03085762  35.28412240
2622.00 -137.23338692  35.36180175
2624.00 -137.43603424  35.43958811
2626.00 -137.63879950  35.51748153
2628.00 -137.84168263  35.59548205
2630.00 -138.04468356  35.67358973
2632.00 -138.24780221  35.75180460
2634.00 -138.45103851  35.83012673
2636.00 -138.65439239  35.90855616
2638.00 -138.85786376  35.98709294
2640.00 -139.06145256  36.06573712
2642.00 -139.26515872  36.14448875
2644.00 -139.46898216  36.22334787
2646.00 -139.67292280  36.30231453
2648.00 -139.87698057  36.38138879
2650.00 -140.08115540  36.46057069
2652.00 -140.28544722  36.53986028
2654.00 -140.48985594  36.61925760
2656.00 -140.69438150  36.69876272
2658.00 -140.89902382  36.77837566
2660.00 -141.10378283  36.85809649
2662.00 -141.30865845  36.93792525
2664.00 -141.51365062  37.01786198
2666.00 -141.71875924  37.09790675
2668.00 -141.92398426  37.17805958
2670.00 -142.12932560  37.25832054
2672.00 -142.33478317  37.33868967
2674.00 -142.54035692  37.41916701
2676.00 -142.74604676  37.49975262
2678.00 -142.95185262  37.58044655
2680.00 -143.15777443  37.66124883
2682.00 -143.36381211  37.74215952
2684.00 -143.56996559  37.82317867
2686.00 -143.77623479  37.90430631
2688.00 -143.98261963  37.98554251
2690.00 -144.18912006  38.06688730
2692.00 -144.39573598  38.14834074
2694.00 -144.60246732  38.22990287
2696.00 -144.80931402  38.31157373
2698.00 -145.01627600  38.39335338
2700.00 -145.22335317  38.47524187
2702.00 -145.43054548  38.55723923
2704.00 -145.63785284  38.63934551
2706.00 -145.84527517  38.72156077
2708.00 -146.05281241  38.80388504
2710.00 -146.26046448  38.88631839
2712.00 -146.46823131  38.96886084
2714.00 -146.67611281  39.05151245
2716.00 -146.88410892  39.13427326
2718.00 -147.09221956  39.21714333
2720.00 -147.30044466  39.30012269
2722.00 -147.50878414  39.38321140
2724.00 -147.71723793  39.46640949
2726.00 -147.92580594  39.54971702
2728.00 -148.13448812  39.63313404
2730.00 -148.34328438  39.71666058
2732.00 -148.55219465  39.80029669
2734.00 -148.76121884  39.88404242
2736.00 -148.97035690  39.96789782
2738.00 -149.17960874  40.05186293
2740.00 -149.38897429  40.13593779
2742.00 -149.59845348  40.22012245
2744.00 -149.80804622  40.30441697
2746.00 -150.01775245  40.38882137
2748.00 -150.22757208  40.47333572
2750.00 -150.43750505  40.55796004
2752.00 -150.64755128  40.64269440
2754.00 -150.85771070  40.72753883
2756.00 -151.06798322  40.81249338
2758.00 -151.27836878  40.89755809
2760.00 -151.48886729  40.98273301
2762.00 -151.69947869  41.06801819
2764.00 -151.91020290  41.15341366
2766.00 -152.12103984  41.23891948
2768.00 -152.33198945  41.32453569
2770.00 -152.54305163  41.41026233
2772.00 -152.75422632  41.49609945
2774.00 -152.96551345  41.58204709
2776.00 -153.17691294  41.66810530
2778.00 -153.38842470  41.75427412
2780.00 -153.60004868  41.84055360
2782.00 -153.81178479  41.92694377
2784.00 -154.02363295  42.01344469
2786.00 -154.23559310  42.10005640
2788.00 -154.44766516  42.18677895
2790.00 -154.65984904  42.27361237
2792.00 -154.87214468  42.36055671
2794.00 -155.08455201  42.44761201
2796.00 -155.29707094  42.53477833
2798.00 -155.50970139  42.62205569
2800.00 -155.72244331  42.70944416
2802.00 -155.93529660  42.79694376
2804.00 -156.14826119  42.88455455
2806.00 -156.36133702  42.97227656
2808.00 -156.57452400  43.06010985
2810.00 -156.78782205  43.14805445
2812.00 -157.00123111  43.23611041
2814.00 -157.21475109  43.32427777
2816.00 -157.42838193  43.41255657
2818.00 -157.64212354  43.50094687
2820.00 -157.85597585  43.58944869
2822.00 -158.06993878  43.67806208
2824.00 -158.28401226  43.76678710
2826.00 -158.49819622  43.85562377
2828.00 -158.71249057  43.94457215
2830.00 -158.92689525  44.03363227
2832.00 -159.14141017  44.12280418
2834.00 -159.35603526  44.21208792
2836.00 -159.57077045  44.30148354
2838.00 -159.78561566  44.39099107
2840.00 -160.00057081  44.48061056
2842.00 -160.21563582  44.57034205
2844.00 -160.43081063  44.66018559
2846.00 -160.64609516  44.75014121
2848.00 -160.86148933  44.84020896
2850.00 -161.07699306  44.93038888
2852.00 -161.29260628  45.02068102
2854.00 -161.50832891  45.11108541
2856.00 -161.72416088  45.20160209
2858.00 -161.94010211  45.29223112
2860.00 -162.15615253  45.38297252
2862.00 -162.37231206  45.47382635
2864.00 -162.58858062  45.56479265
2866.00 -162.80495814  45.65587144
2868.00 -163.02144454  45.74706279
2870.00 -163.23803975  45.83836673
2872.00 -163.45474368  45.92978330
2874.00 -163.67155627  46.02131254
2876.00 -163.88847744  46.11295449
2878.00 -164.10550711  46.20470920
2880.00 -164.32264521  46.29657671
2882.00 -164.53989166  46.38855705
2884.00 -164.75724638  46.48065028
2886.00 -164.97470930  46.57285642
2888.00 -165.19228034  46.66517552
2890.00 -165.40995943  46.75760763
2892.00 -165.62774648  46.85015278
2894.00 -165.84564143  46.94281101
2896.00 -166.06364420  47.03558237
2898.00 -166.28175471  47.12846689
2900.00 -166.49997289  47.22146462
2902.00 -166.71829865  47.31457560
2904.00 -166.93673192  47.40779986
2906.00 -167.15527264  47.50113745
2908.00 -167.37392071  47.59458841
2910.00 -167.59267607  47.68815278
2912.00 -167.81153863  47.78183060
2914.00 -168.03050833  47.87562190
2916.00 -168.24958508  47.96952674
2918.00 -168.46876881  48.06354514
2920.00 -168.68805945  48.15767715
2922.00 -168.90745691  48.25192282
2924.00 -169.12696112  48.34628217
2926.00 -169.34657201  48.44075525
2928.00 -169.56628949  48.53534210
2930.00 -169.78611349  48.63004276
2932.00 -170.00604394  48.72485726
2934.00 -170.22608076  48.81978566
2936.00 -170.44622387  48.91482798
2938.00 -170.66647320  49.00998427
2940.00 -170.88682866  49.10525457
2942.00 -171.10729019  49.20063891
2944.00 -171.32785770  49.29613733
2946.00 -171.54853112  49.39174989
2948.00 -171.76931038  49.48747660
2950.00 -171.99019540  49.58331752
2952.00 -172.21118609  49.67927268
2954.00 -172.43228239  49.77534212
2956.00 -172.65348421  49.87152588
2958.00 -172.87479149  49.96782399
2960.00 -173.09620414  50.06423651
2962.00 -173.31772209  50.16076346
2964.00 -173.53934526  50.25740489
2966.00 -173.76107358  50.35416083
2968.00 -173.98290696  50.45103132
2970.00 -174.20484533  50.54801640
2972.00 -174.42688862  50.64511611
2974.00 -174.64903675  50.74233049
2976.00 -174.87128964  50.83965957
2978.00 -175.09364721  50.93710340
2980.00 -175.31610939  51.03466201
2982.00 -175.53867611  51.13233544
2984.00 -175.76134728  51.23012373
2986.00 -175.98412282  51.32802691
2988.00 -176.20700267  51.42604503
2990.00 -176.42998674  51.52417812
2992.00 -176.65307497  51.62242622
2994.00 -176.87626726  51.72078937
2996.00 -177.09956354  51.81926760
2998.00 -177.32296375  51.91786095
3000.00 -177.54646779  52.01656947
3002.00 -177.77007560  52.11539318
3004.00 -177.99378710  52.21433213
3006.00 -178.21760221  52.31338636
3008.00 -178.44152085  52.41255589
3010.00 -178.66554295  52.51184077
3012.00 -178.88966843  52.61124104
3014.00 -179.11389721  52.71075672
3016.00 -179.33822922  52.81038787
3018.00 -179.56266437  52.91013451
3020.00 -179.78720260  53.00999668
3022.00 -180.01184383  53.10997443
3024.00 -180.23658797  53.21006778
3026.00 -180.46143496  53.31027677
3028.00 -180.68638471  53.41060145
3030.00 -180.91143715  53.51104184
3032.00 -181.13659220  53.61159798
3034.00 -181.36184979  53.71226991
3036.00 -181.58720983  53.81305767
3038.00 -181.81267225  53.91396130
3040.00 -182.03823698  54.01498082
3042.00 -182.26390393  54.11611627
3044.00 -182.48967303  54.21736770
3046.00 -182.71554420  54.31873514
3048.00 -182.94151737  54.42021862
3050.00 -183.16759245  54.52181817
3052.00 -183.39376938  54.62353385
3054.00 -183.62004807  54.72536568
3056.00 -183.84642845  54.82731369
3058.00 -184.07291044  54.92937793
3060.00 -184.29949396  55.03155842
3062.00 -184.52617894  55.13385521
3064.00 -184.75296529  55.23626833
3066.00 -184.97985295  55.33879782
3068.00 -185.20684183  55.44144371
3070.00 -185.43393186  55.54420603
3072.00 -185.66112296  55.64708483
3074.00 -185.88841505  55.75008013
3076.00 -186.11580806  55.85319198
3078.00 -186.34330190  55.95642040
3080.00 -186.57089651  56.05976544
3082.00 -186.79859180  56.16322712
3084.00 -187.02638770  56.26680549
3086.00 -187.25428413  56.37050057
3088.00 -187.48228101  56.47431241
3090.00 -187.71037827  56.57824103
3092.00 -187.93857582  56.68228648
3094.00 -188.16687360  56.78644878
3096.00 -188.39527152  56.89072797
3098.00 -188.62376951  56.99512409
3100.00 -188.85236748  57.09963717
3102.00 -189.08106537  57.20426725
3104.00 -189.30986309  57.30901435
3106.00 -189.53876057  57.41387852
3108.00 -189.76775774  57.51885979
3110.00 -189.99685450  57.62395818
3112.00 -190.22605079  57.72917375
3114.00 -190.45534653  57.83450651
3116.00 -190.68474163  57.93995651
3118.00 -190.91423604  58.04552377
3120.00 -191.14382965  58.15120834
3122.00 -191.37352241  58.25701024
3124.00 -191.60331423  58.36292952
3126.00 -191.83320503  58.46896619
3128.00 -192.06319474  58.57512031
3130.00 -192.29328328  58.68139189
3132.00 -192.52347058  58.78778097
3134.00 -192.75375654  58.89428760
3136.00 -192.98414111  59.00091179
3138.00 -193.21462419  59.10765359
3140.00 -193.44520572  59.21451303
3142.00 -193.67588561  59.32149013
3144.00 -193.90666379  59.42858494
3146.00 -194.13754018  59.53579749
3148.00 -194.36851470  59.64312780
3150.00 -194.59958728  59.75057592
3152.00 -194.83075783  59.85814188
3154.00 -195.06202629  59.96582570
3156.00 -195.29339257  60.07362742
3158.00 -195.52485659  60.18154708
3160.00 -195.75641828  60.28958470
3162.00 -195.98807757  60.39774033
3164.00 -196.21983436  60.50601398
3166.00 -196.45168860  60.61440570
3168.00 -196.68364019  60.72291551
3170.00 -196.91568906  60.83154346
3172.00 -197.14783513  60.94028956
3174.00 -197.38007833  61.04915386
3176.00 -197.61241858  61.15813638
3178.00 -197.84485580  61.26723716
3180.00 -198.07738991  61.37645623
3182.00 -198.31002083  61.48579363
3184.00 -198.54274850  61.59524937
3186.00 -198.77557282  61.70482350
3188.00 -199.00849373  61.81451605
3190.00 -199.24151114  61.92432705
3192.00 -199.47462498  62.03425652
3194.00 -199.70783517  62.14430451
3196.00 -199.94114163  62.25447105
3198.00 -200.17454429  62.36475616
3200.00 -200.40804307  62.47515987
3202.00 -200.64163788  62.58568222
3204.00 -200.87532866  62.69632324
3206.00 -201.10911532  62.80708297
3208.00 -201.34299779  62.91796142
3210.00 -201.57697598  63.02895864
3212.00 -201.81104983  63.14007465
3214.00 -202.04521925  63.25130948
3216.00 -202.27948417  63.36266318
3218.00 -202.51384451  63.47413575
3220.00 -202.74830019  63.58572725
3222.00 -202.98285113  63.69743769
3224.00 -203.21749726  63.80926711
3226.00 -203.45223850  63.92121555
3228.00 -203.68707476  64.03328302
3230.00 -203.92200598  64.14546956
3232.00 -204.15703207  64.25777521
3234.00 -204.39215297  64.37019998
3236.00 -204.62736858  64.48274392
3238.00 -204.86267883  64.59540705
3240.00 -205.09808365  64.70818940
3242.00 -205.33358295  64.82109101
3244.00 -205.56917666  64.93411189
3246.00 -205.80486471  65.04725209
3248.00 -206.04064700  65.16051163
3250.00 -206.27652348  65.27389055
3252.00 -206.51249405  65.38738886
3254.00 -206.74855864  65.50100661
3256.00 -206.98471718  65.61474382
3258.00 -207.22096957  65.72860053
3260.00 -207.45731576  65.84257675
3262.00 -207.69375566  65.95667252
3264.00 -207.93028918  66.07088788
3266.00 -208.16691627  66.18522284
3268.00 -208.40363682  66.29967744
3270.00 -208.64045078  66.41425171
3272.00 -208.87735806  66.52894568
3274.00 -209.11435858  66.64375937
3276.00 -209.35145226  66.75869282
3278.00 -209.58863903  66.87374606
3280.00 -209.82591881  66.98891911
3282.00 -210.06329153  67.10421200
3284.00 -210.30075710  67.21962476
3286.00 -210.53831544  67.33515742
3288.00 -210.77596648  67.45081002
3290.00 -211.01371015  67.56658257
3292.00 -211.25154635  67.68247510
3294.00 -211.48947502  67.79848765
3296.00 -211.72749608  67.91462025
3298.00 -211.96560945  68.03087292
3300.00 -212.20381505  68.14724568
3302.00 -212.44211280  68.26373858
3304.00 -212.68050264  68.38035163
3306.00 -212.91898446  68.49708487
3308.00 -213.15755821  68.61393832
3310.00 -213.39622381  68.73091202
3312.00 -213.63498116  68.84800598
3314.00 -213.87383021  68.96522024
3316.00 -214.11277086  69.08255483
3318.00 -214.35180305  69.20000976
3320.00 -214.59092668  69.31758508
3322.00 -214.83014170  69.43528081
3324.00 -215.06944801  69.55309698
3326.00 -215.30884554  69.67103361
3328.00 -215.54833422  69.78909073
3330.00 -215.78791396  69.90726837
3332.00 -216.02758468  70.02556655
3334.00 -216.26734632  70.14398531
3336.00 -216.50719879  70.26252467
3338.00 -216.74714201  70.38118466
3340.00 -216.98717590  70.49996531
3342.00 -217.22730039  70.61886664
3344.00 -217.46751540  70.73788868
3346.00 -217.70782086  70.85703145
3348.00 -217.94821668  70.97629499
3350.00 -218.18870278  71.09567932
3352.00 -218.42927909  71.21518446
3354.00 -218.66994553  71.33481046
3356.00 -218.91070203  71.45455732
3358.00 -219.15154850  71.57442508
3360.00 -219.39248487  71.69441376
3362.00 -219.63351105  71.81452339
3364.00 -219.87462698  71.93475401
3366.00 -220.11583257  72.05510562
3368.00 -220.35712774  72.17557827
3370.00 -220.59851243  72.29617197
3372.00 -220.83998654  72.41688675
3374.00 -221.08155000  72.53772264
3376.00 -221.32320274  72.65867967
3378.00 -221.56494468  72.77975786
3380.00 -221.80677573  72.90095724
3382.00 -222.04869582  73.02227782
3384.00 -222.29070488  73.14371965
3386.00 -222.53280282  73.26528274
3388.00 -222.77498957  73.38696712
3390.00 -223.01726504  73.50877282
3392.00 -223.25962917  73.63069986
3394.00 -223.50208187  73.75274826
3396.00 -223.74462307  73.87491806
3398.00 -223.98725268  73.99720928
3400.00 -224.22997064  74.11962194
3402.00 -224.47277685  74.24215606
3404.00 -224.71567125  74.36481169
3406.00 -224.95865375  74.48758883
3408.00 -225.20172429  74.61048752
3410.00 -225.44488277  74.73350777
3412.00 -225.68812912  74.85664962
3414.00 -225.93146327  74.97991309
3416.00 -226.17488514  75.10329821
3418.00 -226.41839465  75.22680499
3420.00 -226.66199171  75.35043347
3422.00 -226.90567626  75.47418366
3424.00 -227.14944822  75.59805560
3426.00 -227.39330750  75.72204931
3428.00 -227.63725403  75.84616481
3430.00 -227.88128773  75.97040213
3432.00 -228.12540853  76.09476129
3434.00 -228.36961634  76.21924232
3436.00 -228.61391110  76.34384524
3438.00 -228.85829271  76.46857007
3440.00 -229.10276110  76.59341684
3442.00 -229.34731620  76.71838557
3444.00 -229.59195792  76.84347629
3446.00 -229.83668620  76.96868902
3448.00 -230.08150094  77.09402379
3450.00 -230.32640208  77.21948062
3452.00 -230.57138953  77.34505953
3454.00 -230.81646322  77.47076054
3456.00 -231.06162307  77.59658369
3458.00 -231.30686900  77.72252899
3460.00 -231.55220093  77.84859646
3462.00 -231.79761880  77.97478614
3464.00 -232.04312250  78.10109805
3466.00 -232.28871198  78.22753220
3468.00 -232.53438715  78.35408862
3470.00 -232.78014794  78.48076734
3472.00 -233.02599426  78.60756838
3474.00 -233.27192605  78.73449175
3476.00 -233.51794321  78.86153750
3478.00 -233.76404567  78.98870563
3480.00 -234.01023337  79.11599617
3482.00 -234.25650621  79.24340914
3484.00 -234.50286412  79.37094457
3486.00 -234.74930702  79.49860248
3488.00 -234.99583483  79.62638290
3490.00 -235.24244748  79.75428583
3492.00 -235.48914489  79.88231132
3494.00 -235.73592698  80.01045937
3496.00 -235.98279368  80.13873002
3498.00 -236.22974490  80.26712328
3500.00 -236.47678056  80.39563918
3502.00 -236.72390060  80.52427774
3504.00 -236.97110492  80.65303899
3506.00 -237.21839347  80.78192294
3508.00 -237.46576614  80.91092961
3510.00 -237.71322288  81.04005903
3512.00 -237.96076359  81.16931123
3514.00 -238.20838821  81.29868622
3516.00 -238.45609665  81.42818402
3518.00 -238.70388885  81.55780466
3520.00 -238.95176470  81.68754816
3522.00 -239.19972416  81.81741454
3524.00 -239.44776712  81.94740382
3526.00 -239.69589352  82.07751602
3528.00 -239.94410328  82.20775118
3530.00 -240.19239632  82.33810929
3532.00 -240.44077256  82.46859040
3534.00 -240.68923193  82.59919452
3536.00 -240.93777435  82.72992167
3538.00 -241.18639973  82.86077187
3540.00 -241.43510801  82.99174515
3542.00 -241.68389910  83.12284152
3544.00 -241.93277292  83.25406101
3546.00 -242.18172941  83.38540363
3548.00 -242.43076847  83.51686942
3550.00 -242.67989004  83.64845838
3552.00 -242.92909403  83.78017055
3554.00 -243.17838038  83.91200593
3556.00 -243.42774899  84.04396456
3558.00 -243.67719979  84.17604645
3560.00 -243.92673271  84.30825163
3562.00 -244.17634766  84.44058011
3564.00 -244.42604457  84.57303191
3566.00 -244.67582337  84.70560706
3568.00 -244.92568397  84.83830558
3570.00 -245.17562629  84.97112748
3572.00 -245.42565026  85.10407279
3574.00 -245.67575581  85.23714152
3576.00 -245.92594284  85.37033371
3578.00 -246.17621129  85.50364936
3580.00 -246.42656108  85.63708849
3582.00 -246.67699213  85.77065114
3584.00 -246.92750436  85.90433731
3586.00 -247.17809770  86.03814703
3588.00 -247.42877206  86.17208032
3590.00 -247.67952737  86.30613719
3592.00 -247.93036355  86.44031767
3594.00 -248.18128053  86.57462178
3596.00 -248.43227822  86.70904953
3598.00 -248.68335656  86.84360095
3600.00 -248.93451545  86.97827605
3602.00 -249.18575483  87.11307486
3604.00 -249.43707461  87.24799740
3606.00 -249.68847472  87.38304367
3608.00 -249.93995508  87.51821371
3610.00 -250.19151561  87.65350753
3612.00 -250.44315624  87.78892516
3614.00 -250.69487689  87.92446660
3616.00 -250.94667748  88.06013188
3618.00 -251.19855793  88.19592102
3620.00 -251.45051817  88.33183404
3622.00 -251.70255811  88.46787096
3624.00 -251.95467768  88.60403179
3626.00 -252.20687681  88.74031655
3628.00 -252.45915541  88.87672527
3630.00 -252.71151341  89.01325796
3632.00 -252.96395073  89.14991463
3634.00 -253.21646729  89.28669532
3636.00 -253.46906301  89.42360003
3638.00 -253.72173782  89.56062879
3640.00 -253.97449164  89.69778162
3642.00 -254.22732440  89.83505852
3644.00 -254.48023601  89.97245953
3646.00 -254.73322639  90.10998465
3648.00 -254.98629548  90.24763391
3650.00 -255.23944319  90.38540733
3652.00 -255.49266944  90.52330492
3654.00 -255.74597416  90.66132670
3656.00 -255.99935727  90.79947268
3658.00 -256.25281869  90.93774290
3660.00 -256.50635835  91.07613736
3662.00 -256.75997616  91.21465608
3664.00 -257.01367206  91.35329908
3666.00 -257.26744595  91.49206638
3668.00 -257.52129778  91.63095800
3670.00 -257.77522745  91.76997394
3672.00 -258.02923489  91.90911424
3674.00 -258.28332002  92.04837891
3676.00 -258.53748277  92.18776796
3678.00 -258.79172305  92.32728141
3680.00 -259.04604080  92.46691928
3682.00 -259.30043593  92.60668159
3684.00 -259.55490837  92.74656835
3686.00 -259.80945803  92.88657958
3688.00 -260.06408485  93.02671531
3690.00 -260.31878874  93.16697553
3692.00 -260.57356963  93.30736028
3694.00 -260.82842743  93.44786957
3696.00 -261.08336208  93.58850341
3698.00 -261.33837349  93.72926182
3700.00 -261.59346159  93.87014482
3702.00 -261.84862630  94.01115243
3704.00 -262.10386754  94.15228466
3706.00 -262.35918524  94.29354153
3708.00 -262.61457931  94.43492305
3710.00 -262.87004969  94.57642925
3712.00 -263.12559629  94.71806013
3714.00 -263.38121903  94.85981572
3716.00 -263.63691785  95.00169602
3718.00 -263.89269265  95.14370107
3720.00 -264.14854337  95.28583086
3722.00 -264.40446993  95.42808542
3724.00 -264.66047225  95.57046477
3726.00 -264.91655025  95.71296892
3728.00 -265.17270385  95.85559789
3730.00 -265.42893299  95.99835168
3732.00 -265.68523757  96.14123033
3734.00 -265.94161753  96.28423384
3736.00 -266.19807278  96.42736222
3738.00 -266.45460326  96.57061551
3740.00 -266.71120888  96.71399370
3742.00 -266.96788956  96.85749682
3744.00 -267.22464523  97.00112488
3746.00 -267.48147581  97.14487790
3748.00 -267.73838122  97.28875589
3750.00 -267.99536140  97.43275886
3752.00 -268.25241625  97.57688684
3754.00 -268.50954570  97.72113984
3756.00 -268.76674968  97.86551787
3758.00 -269.02402811  98.01002095
3760.00 -269.28138090  98.15464909
3762.00 -269.53880800  98.29940231
3764.00 -269.79630931  98.44428062
3766.00 -270.05388476  98.58928404
3768.00 -270.31153427  98.73441258
3770.00 -270.56925777  98.87966626
3772.00 -270.82705517  99.02504509
3774.00 -271.08492641  99.17054908
3776.00 -271.34287141  99.31617826
3778.00 -271.60089008  99.46193263
3780.00 -271.85898235  99.60781221
3782.00 -272.11714815  99.75381702
3784.00 -272.37538739  99.89994706
3786.00 -272.63370000 100.04620236
3788.00 -272.89208591 100.19258292
3790.00 -273.15054503 100.33908877
3792.00 -273.40907729 100.48571991
3794.00 -273.66768261 100.63247636
3796.00 -273.92636092 100.77935813
3798.00 -274.18511214 100.92636524
3800.00 -274.44393618 101.07349770
3802.00 -274.70283299 101.22075552
3804.00 -274.96180247 101.36813872
3806.00 -275.22084455 101.51564732
3808.00 -275.47995915 101.66328132
3810.00 -275.73914620 101.81104074
3812.00 -275.99840562 101.95892560
3814.00 -276.25773734 102.10693590
3816.00 -276.51714127 102.25507166
3818.00 -276.77661734 102.40333289
3820.00 -277.03616547 102.55171961
3822.00 -277.29578559 102.70023183
3824.00 -277.55547762 102.84886957
3826.00 -277.81524149 102.99763283
3828.00 -278.07507710 103.14652163
3830.00 -278.33498440 103.29553598
3832.00 -278.59496330 103.44467590
3834.00 -278.85501372 103.59394139
3836.00 -279.11513560 103.74333248
3838.00 -279.37532884 103.89284917
3840.00 -279.63559338 104.04249148
3842.00 -279.89592914 104.19225942
3844.00 -280.15633604 104.34215300
3846.00 -280.41681401 104.49217224
3848.00 -280.67736297 104.64231714
3850.00 -280.93798283 104.79258772
3852.00 -281.19867354 104.94298400
3854.00 -281.45943500 105.09350598
3856.00 -281.72026714 105.24415367
3858.00 -281.98116989 105.39492710
3860.00 -282.24214317 105.54582627
3862.00 -282.50318690 105.69685119
3864.00 -282.76430101 105.84800188
3866.00 -283.02548541 105.99927835
3868.00 -283.28674004 106.15068060
3870.00 -283.54806481 106.30220866
3872.00 -283.80945966 106.45386253
3874.00 -284.07092449 106.60564223
3876.00 -284.33245925 106.75754776
3878.00 -284.59406384 106.90957915
3880.00 -284.85573820 107.06173639
3882.00 -285.11748224 107.21401951
3884.00 -285.37929590 107.36642851
3886.00 -285.64117909 107.51896341
3888.00 -285.90313173 107.67162422
3890.00 -286.16515376 107.82441094
3892.00 -286.42724509 107.97732359
3894.00 -286.68940566 108.13036219
3896.00 -286.95163537 108.28352674
3898.00 -287.21393416 108.43681725
3900.00 -287.47630195 108.59023373
3902.00 -287.73873866 108.74377620
3904.00 -288.00124421 108.89744467
3906.00 -288.26381854 109.05123915
3908.00 -288.52646156 109.20515964
3910.00 -288.78917320 109.35920617
3912.00 -289.05195338 109.51337873
3914.00 -289.31480203 109.66767735
3916.00 -289.57771906 109.82210203
3918.00 -289.84070441 109.97665278
3920.00 -290.10375799 110.13132962
3922.00 -290.36687974 110.28613254
3924.00 -290.63006956 110.44106158
3926.00 -290.89332740 110.59611672
3928.00 -291.15665316 110.75129800
3930.00 -291.42004679 110.90660541
3932.00 -291.68350819 111.06203896
3934.00 -291.94703729 111.21759867
3936.00 -292.21063402 111.37328454
3938.00 -292.47429830 111.52909660
3940.00 -292.73803005 111.68503483
3942.00 -293.00182920 111.84109927
3944.00 -293.26569568 111.99728991
3946.00 -293.52962940 112.15360677
3948.00 -293.79363029 112.31004985
3950.00 -294.05769827 112.46661917
3952.00 -294.32183327 112.62331473
3954.00 -294.58603521 112.78013655
3956.00 -294.85030402 112.93708464
3958.00 -295.11463962 113.09415900
3960.00 -295.37904193 113.25135964
3962.00 -295.64351088 113.40868658
3964.00 -295.90804640 113.56613982
3966.00 -296.17264839 113.72371937
3968.00 -296.43731680 113.88142525
3970.00 -296.70205154 114.03925745
3972.00 -296.96685254 114.19721600
3974.00 -297.23171972 114.35530089
3976.00 -297.49665301 114.51351214
3978.00 -297.76165232 114.67184976
3980.00 -298.02671760 114.83031376
3982.00 -298.29184875 114.98890414
3984.00 -298.55704570 115.14762092
3986.00 -298.82230838 115.30646410
3988.00 -299.08763671 115.46543369
3990.00 -299.35303061 115.62452970
3992.00 -299.61849002 115.78375214
3994.00 -299.88401485 115.94310102
3996.00 -300.14960502 116.10257634
3998.00 -300.41526047 116.26217813
4000.00 -300.68098111 116.42190637
4002.00 -300.94676688 116.58176109
4004.00 -301.21261769 116.74174228
4006.00 -301.47853347 116.90184997
4008.00 -301.74451414 117.06208415
4010.00 -302.01055963 117.22244484
4012.00 -302.27666986 117.38293204
4014.00 -302.54284476 117.54354576
4016.00 -302.80908425 117.70428601
4018.00 -303.07538825 117.86515280
4020.00 -303.34175670 118.02614613
4022.00 -303.60818951 118.18726602
4024.00 -303.87468660 118.34851247
4026.00 -304.14124791 118.50988549
4028.00 -304.40787336 118.67138508
4030.00 -304.67456287 118.83301126
4032.00 -304.94131636 118.99476403
4034.00 -305.20813377 119.15664340
4036.00 -305.47501501 119.31864938
4038.00 -305.74196001 119.48078197
4040.00 -306.00896870 119.64304118
4042.00 -306.27604099 119.80542702
4044.00 -306.54317682 119.96793950
4046.00 -306.81037611 120.13057863
4048.00 -307.07763877 120.29334440
4050.00 -307.34496475 120.45623683
4052.00 -307.61235396 120.61925593
4054.00 -307.87980632 120.78240170
4056.00 -308.14732177 120.94567415
4058.00 -308.41490022 121.10907329
4060.00 -308.68254160 121.27259912
4062.00 -308.95024584 121.43625165
4064.00 -309.21801285 121.60003089
4066.00 -309.48584258 121.76393684
4068.00 -309.75373493 121.92796951
4070.00 -310.02168983 122.09212891
4072.00 -310.28970722 122.25641504
4074.00 -310.55778700 122.42082791
4076.00 -310.82592912 122.58536753
4078.00 -311.09413349 122.75003390
4080.00 -311.36240004 122.91482703
4082.00 -311.63072869 123.07974693
4084.00 -311.89911937 123.24479360
4086.00 -312.16757200 123.40996705
4088.00 -312.43608651 123.57526728
4090.00 -312.70466282 123.74069431
4092.00 -312.97330086 123.90624813
4094.00 -313.24200056 124.07192875
4096.00 -313.51076183 124.23773618
4098.00 -313.77958460 124.40367043
4100.00 -314.04846880 124.56973150
4102.00 -314.31741435 124.73591939
4104.00 -314.58642118 124.90223412
4106.00 -314.85548921 125.06867568
4108.00 -315.12461837 125.23524409
4110.00 -315.39380858 125.40193934
4112.00 -315.66305977 125.56876146
4114.00 -315.93237187 125.73571043
4116.00 -316.20174479 125.90278627
4118.00 -316.47117846 126.06998897
4120.00 -316.74067281 126.23731856
4122.00 -317.01022777 126.40477503
4124.00 -317.27984325 126.57235838
4126.00 -317.54951919 126.74006863
4128.00 -317.81925550 126.90790577
4130.00 -318.08905212 127.07586982
4132.00 -318.35890897 127.24396077
4134.00 -318.62882598 127.41217864
4136.00 -318.89880306 127.58052342
4138.00 -319.16884015 127.74899513
4140.00 -319.43893717 127.91759376
4142.00 -319.70909405 128.08631933
4144.00 -319.97931071 128.25517183
4146.00 -320.24958707 128.42415128
4148.00 -320.51992306 128.59325767
4150.00 -320.79031862 128.76249101
4152.00 -321.06077365 128.93185131
4154.00 -321.33128810 129.10133857
4156.00 -321.60186187 129.27095279
4158.00 -321.87249491 129.44069398
4160.00 -322.14318713 129.61056214
4162.00 -322.41393846 129.78055729
4164.00 -322.68474883 129.95067941
4166.00 -322.95561815 130.12092852
4168.00 -323.22654637 130.29130462
4170.00 -323.49753339 130.46180771
4172.00 -323.76857916 130.63243780
4174.00 -324.03968358 130.80319489
4176.00 -324.31084660 130.97407899
4178.00 -324.58206813 131.14509010
4180.00 -324.85334810 131.31622823
4182.00 -325.12468644 131.48749337
4184.00 -325.39608306 131.65888553
4186.00 -325.66753791 131.83040472
4188.00 -325.93905090 132.00205093
4190.00 -326.21062195 132.17382418
4192.00 -326.48225100 132.34572447
4194.00 -326.75393797 132.51775179
4196.00 -327.02568279 132.68990616
4198.00 -327.29748538 132.86218757
4200.00 -327.56934566 133.03459603
4202.00 -327.84126357 133.20713155
4204.00 -328.11323903 133.37979412
4206.00 -328.38527197 133.55258375
4208.00 -328.65736230 133.72550044
4210.00 -328.92950996 133.89854420
4212.00 -329.20171487 134.07171503
4214.00 -329.47397697 134.24501293
4216.00 -329.74629616 134.41843790
4218.00 -330.01867239 134.59198996
4220.00 -330.29110558 134.76566909
4222.00 -330.56359564 134.93947530
4224.00 -330.83614252 135.11340860
4226.00 -331.10874613 135.28746899
4228.00 -331.38140640 135.46165647
4230.00 -331.65412326 135.63597105
4232.00 -331.92689663 135.81041272
4234.00 -332.19972644 135.98498149
4236.00 -332.47261261 136.15967736
4238.00 -332.74555508 136.33450034
4240.00 -333.01855376 136.50945042
4242.00 -333.29160859 136.68452761
4244.00 -333.56471949 136.85973191
4246.00 -333.83788638 137.03506332
4248.00 -334.11110920 137.21052185
4250.00 -334.38438786 137.38610750
4252.00 -334.65772230 137.56182026
4254.00 -334.93111244 137.73766015
4256.00 -335.20455821 137.91362716
4258.00 -335.47805953 138.08972130
4260.00 -335.75161633 138.26594256
4262.00 -336.02522854 138.44229095
4264.00 -336.29889608 138.61876647
4266.00 -336.57261888 138.79536913
4268.00 -336.84639687 138.97209891
4270.00 -337.12022997 139.14895584
4272.00 -337.39411810 139.32593990
4274.00 -337.66806121 139.50305110
4276.00 -337.94205920 139.68028944
4278.00 -338.21611201 139.85765492
4280.00 -338.49021957 140.03514755
4282.00 -338.76438180 140.21276732
4284.00 -339.03859862 140.39051423
4286.00 -339.31286997 140.56838830
4288.00 -339.58719577 140.74638951
4290.00 -339.86157595 140.92451787
4292.00 -340.13601044 141.10277338
4294.00 -340.41049915 141.28115604
4296.00 -340.68504202 141.45966585
4298.00 -340.95963898 141.63830282
4300.00 -341.23428994 141.81706694
4302.00 -341.50899485 141.99595822
4304.00 -341.78375362 142.17497665
4306.00 -342.05856618 142.35412224
4308.00 -342.33343246 142.53339499
4310.00 -342.60835238 142.71279489
4312.00 -342.88332588 142.89232196
4314.00 -343.15835287 143.07197618
4316.00 -343.43343329 143.25175757
4318.00 -343.70856707 143.43166611
4320.00 -343.98375412 143.61170181
4322.00 -344.25899438 143.79186468
4324.00 -344.53428777 143.97215470
4326.00 -344.80963422 144.15257189
4328.00 -345.08503366 144.33311624
4330.00 -345.36048601 144.51378775
4332.00 -345.63599121 144.69458643
4334.00 -345.91154917 144.87551226
4336.00 -346.18715983 145.05656526
4338.00 -346.46282311 145.23774542
4340.00 -346.73853894 145.41905275
4342.00 -347.01430725 145.60048723
4344.00 -347.29012796 145.78204888
4346.00 -347.56600100 145.96373769
4348.00 -347.84192631 146.14555366
4350.00 -348.11790379 146.32749679
4352.00 -348.39393339 146.50956708
4354.00 -348.67001503 146.69176454
4356.00 -348.94614864 146.87408915
4358.00 -349.22233414 147.05654092
4360.00 -349.49857146 147.23911985
4362.00 -349.77486053 147.42182595
4364.00 -350.05120128 147.60465919
4366.00 -350.32759364 147.78761960
4368.00 -350.60403752 147.97070716
4370.00 -350.88053286 148.15392188
4372.00 -351.15707959 148.33726375
4374.00 -351.43367764 148.52073278
4376.00 -351.71032692 148.70432896
4378.00 -351.98702737 148.88805229
4380.00 -352.26377892 149.07190277
4382.00 -352.54058149 149.25588041
4384.00 -352.81743502 149.43998519
4386.00 -353.09433942 149.62421712
4388.00 -353.37129463 149.80857620
4390.00 -353.64830057 149.99306242
4392.00 -353.92535718 150.17767579
4394.00 -354.20246437 150.36241630
4396.00 -354.47962208 150.54728395
4398.00 -354.75683024 150.73227874
4400.00 -355.03408876 150.91740067
4402.00 -355.31139759 151.10264973
4404.00 -355.58875665 151.28802594
4406.00 -355.86616586 151.47352927
4408.00 -356.14362516 151.65915974
4410.00 -356.42113446 151.84491734
4412.00 -356.69869371 152.03080207
4414.00 -356.97630282 152.21681392
4416.00 -357.25396173 152.40295290
4418.00 -357.53167036 152.58921901
4420.00 -357.80942864 152.77561223
4422.00 -358.08723650 152.96213258
4424.00 -358.36509387 153.14878004
4426.00 -358.64300067 153.33555461
4428.00 -358.92095683 153.52245630
4430.00 -359.19896229 153.70948511
4432.00 -359.47701696 153.89664102
4434.00 -359.75512078 154.08392403
4436.00 -360.03327368 154.27133415
4438.00 -360.31147558 154.45887137
4440.00 -360.58972641 154.64653570
4442.00 -360.86802610 154.83432712
4444.00 -361.14637457 155.02224563
4446.00 -361.42477177 155.21029124
4448.00 -361.70321760 155.39846393
4450.00 -361.98171201 155.58676371
4452.00 -362.26025492 155.77519058
4454.00 -362.53884626 155.96374453
4456.00 -362.81748595 156.15242555
4458.00 -363.09617393 156.34123366
4460.00 -363.37491013 156.53016883
4462.00 -363.65369447 156.71923108
4464.00 -363.93252687 156.90842039
4466.00 -364.21140728 157.09773677
4468.00 -364.49033561 157.28718021
4470.00 -364.76931180 157.47675070
4472.00 -365.04833578 157.66644825
4474.00 -365.32740746 157.85627286
4476.00 -365.60652679 158.04622451
4478.00 -365.88569369 158.23630321
4480.00 -366.16490809 158.42650895
4482.00 -366.44416991 158.61684173
4484.00 -366.72347909 158.80730154
4486.00 -367.00283555 158.99788838
4488.00 -367.28223923 159.18860226
4490.00 -367.56169005 159.37944316
4492.00 -367.84118794 159.57041108
4494.00 -368.12073283 159.76150601
4496.00 -368.40032465 159.95272797
4498.00 -368.67996332 160.14407693
4500.00 -368.95964878 160.33555290
4502.00 -369.23938095 160.52715587
4504.00 -369.51915977 160.71888584
4506.00 -369.79898515 160.91074280
4508.00 -370.07885704 161.10272676
4510.00 -370.35877536 161.29483770
4512.00 -370.63874004 161.48707563
4514.00 -370.91875101 161.67944054
4516.00 -371.19880819 161.87193242
4518.00 -371.47891151 162.06455127
4520.00 -371.75906092 162.25729709
4522.00 -372.03925632 162.45016987
4524.00 -372.31949766 162.64316960
4526.00 -372.59978486 162.83629629
4528.00 -372.88011785 163.02954994
4530.00 -373.16049656 163.22293052
4532.00 -373.44092092 163.41643805
4534.00 -373.72139086 163.61007251
4536.00 -374.00190631 163.80383390
4538.00 -374.28246719 163.99772222
4540.00 -374.56307344 164.19173747
4542.00 -374.84372499 164.38587963
4544.00 -375.12442175 164.58014870
4546.00 -375.40516368 164.77454468
4548.00 -375.68595068 164.96906756
4550.00 -375.96678270 165.16371734
4552.00 -376.24765966 165.35849402
4554.00 -376.52858150 165.55339758
4556.00 -376.80954813 165.74842803
4558.00 -377.09055949 165.94358535
4560.00 -377.37161551 166.13886955
4562.00 -377.65271613 166.33428061
4564.00 -377.93386126 166.52981854
4566.00 -378.21505084 166.72548333
4568.00 -378.49628479 166.92127497
4570.00 -378.77756306 167.11719345
4572.00 -379.05888556 167.31323878
4574.00 -379.34025223 167.50941094
4576.00 -379.62166299 167.70570994
4578.00 -379.90311778 167.90213576
4580.00 -380.18461653 168.09868840
4582.00 -380.46615916 168.29536785
4584.00 -380.74774560 168.49217412
4586.00 -381.02937580 168.68910718
4588.00 -381.31104966 168.88616705
4590.00 -381.59276713 169.08335370
4592.00 -381.87452814 169.28066714
4594.00 -382.15633261 169.47810736
4596.00 -382.43818047 169.67567436
4598.00 -382.72007166 169.87336812
4600.00 -383.00200610 170.07118865
4602.00 -383.28398372 170.26913593
4604.00 -383.56600446 170.46720996
4606.00 -383.84806825 170.66541074
4608.00 -384.13017500 170.86373825
4610.00 -384.41232466 171.06219250
4612.00 -384.69451716 171.26077347
4614.00 -384.97675242 171.45948116
4616.00 -385.25903037 171.65831557
4618.00 -385.54135095 171.85727668
4620.00 -385.82371408 172.05636449
4622.00 -386.10611970 172.25557899
4624.00 -386.38856774 172.45492019
4626.00 -386.67105811 172.65438806
4628.00 -386.95359077 172.85398261
4630.00 -387.23616563 173.05370382
4632.00 -387.51878262 173.25355170
4634.00 -387.80144168 173.45352623
4636.00 -388.08414274 173.65362741
4638.00 -388.36688573 173.85385523
4640.00 -388.64967057 174.05420968
4642.00 -388.93249721 174.25469076
4644.00 -389.21536556 174.45529846
4646.00 -389.49827556 174.65603278
4648.00 -389.78122714 174.85689370
4650.00 -390.06422023 175.05788122
4652.00 -390.34725476 175.25899533
4654.00 -390.63033066 175.46023603
4656.00 -390.91344786 175.66160331
4658.00 -391.19660630 175.86309715
4660.00 -391.47980590 176.06471756
4662.00 -391.76304659 176.26646453
4664.00 -392.04632831 176.46833805
4666.00 -392.32965098 176.67033810
4668.00 -392.61301454 176.87246469
4670.00 -392.89641891 177.07471781
4672.00 -393.17986403 177.27709745
4674.00 -393.46334984 177.47960360
4676.00 -393.74687625 177.68223625
4678.00 -394.03044320 177.88499540
4680.00 -394.31405062 178.08788104
4682.00 -394.59769844 178.29089316
4684.00 -394.88138660 178.49403175
4686.00 -395.16511502 178.69729681
4688.00 -395.44888363 178.90068833
4690.00 -395.73269237 179.10420630
4692.00 -396.01654117 179.30785071
4694.00 -396.30042996 179.51162155
4696.00 -396.58435866 179.71551882
4698.00 -396.86832722 179.91954250
4700.00 -397.15233555 180.12369260
4702.00 -397.43638360 180.32796910
4704.00 -397.72047130 180.53237199
4706.00 -398.00459856 180.73690127
4708.00 -398.28876534 180.94155693
4710.00 -398.57297155 181.14633895
4712.00 -398.85721713 181.35124734
4714.00 -399.14150201 181.55628207
4716.00 -399.42582612 181.76144316
4718.00 -399.71018939 181.96673057
4720.00 -399.99459176 182.17214432
4722.00 -400.27903316 182.37768438
4724.00 -400.56351351 182.58335075
4726.00 -400.84803275 182.78914342
4728.00 -401.13259081 182.99506239
4730.00 -401.41718762 183.20110764
4732.00 -401.70182311 183.40727916
4734.00 -401.98649722 183.61357696
4736.00 -402.27120988 183.82000100
4738.00 -402.55596101 184.02655130
4740.00 -402.84075055 184.23322784
4742.00 -403.12557843 184.44003061
4744.00 -403.41044459 184.64695960
4746.00 -403.69534895 184.85401480
4748.00 -403.98029145 185.06119621
4750.00 -404.26527201 185.26850381
4752.00 -404.55029058 185.47593760
4754.00 -404.83534708 185.68349756
4756.00 -405.12044144 185.89118369
4758.00 -405.40557359 186.09899598
4760.00 -405.69074348 186.30693441
4762.00 -405.97595102 186.51499899
4764.00 -406.26119615 186.72318970
4766.00 -406.54647881 186.93150652
4768.00 -406.83179892 187.13994946
4770.00 -407.11715642 187.34851850
4772.00 -407.40255124 187.55721363
4774.00 -407.68798331 187.76603484
4776.00 -407.97345256 187.97498213
4778.00 -408.25895893 188.18405548
4780.00 -408.54450235 188.39325488
4782.00 -408.83008275 188.60258032
4784.00 -409.11570005 188.81203180
4786.00 -409.40135421 189.02160931
4788.00 -409.68704514 189.23131282
4790.00 -409.97277278 189.44114234
4792.00 -410.25853706 189.65109786
4794.00 -410.54433791 189.86117936
4796.00 -410.83017527 190.07138683
4798.00 -411.11604907 190.28172027
4800.00 -411.40195924 190.49217966
4802.00 -411.68790571 190.70276500
4804.00 -411.97388842 190.91347627
4806.00 -412.25990729 191.12431346
4808.00 -412.54596227 191.33527657
4810.00 -412.83205328 191.54636557
4812.00 -413.11818025 191.75758048
4814.00 -413.40434312 191.96892126
4816.00 -413.69054183 192.18038791
4818.00 -413.97677630 192.39198043
4820.00 -414.26304646 192.60369880
4822.00 -414.54935226 192.81554301
4824.00 -414.83569361 193.02751304
4826.00 -415.12207046 193.23960890
4828.00 -415.40848274 193.45183056
4830.00 -415.69493037 193.66417802
4832.00 -415.98141330 193.87665127
4834.00 -416.26793146 194.08925030
4836.00 -416.55448477 194.30197509
4838.00 -416.84107318 194.51482563
4840.00 -417.12769661 194.72780192
4842.00 -417.41435500 194.94090394
4844.00 -417.70104828 195.15413168
4846.00 -417.98777638 195.36748514
4848.00 -418.27453924 195.58096429
4850.00 -418.56133678 195.79456913
4852.00 -418.84816895 196.00829965
4854.00 -419.13503568 196.22215583
4856.00 -419.42193690 196.43613767
4858.00 -419.70887253 196.65024515
4860.00 -419.99584253 196.86447827
4862.00 -420.28284681 197.07883701
4864.00 -420.56988531 197.29332135
4866.00 -420.85695797 197.50793130
4868.00 -421.14406471 197.72266683
4870.00 -421.43120548 197.93752794
4872.00 -421.71838021 198.15251461
4874.00 -422.00558882 198.36762683
4876.00 -422.29283125 198.58286459
4878.00 -422.58010744 198.79822789
4880.00 -422.86741732 199.01371670
4882.00 -423.15476082 199.22933101
4884.00 -423.44213788 199.44507082
4886.00 -423.72954842 199.66093612
4888.00 -424.01699239 199.87692688
4890.00 -424.30446972 200.09304310
4892.00 -424.59198033 200.30928477
4894.00 -424.87952417 200.52565187
4896.00 -425.16710117 200.74214440
4898.00 -425.45471126 200.95876233
4900.00 -425.74235437 201.17550567
4902.00 -426.03003044 201.39237439
4904.00 -426.31773940 201.60936848
4906.00 -426.60548120 201.82648794
4908.00 -426.89325575 202.04373275
4910.00 -427.18106299 202.26110289
4912.00 -427.46890286 202.47859837
4914.00 -427.75677530 202.69621915
4916.00 -428.04468023 202.91396523
4918.00 -428.33261759 203.13183661
4920.00 -428.62058732 203.34983326
4922.00 -428.90858934 203.56795517
4924.00 -429.19662359 203.78620233
4926.00 -429.48469001 204.00457474
4928.00 -429.77278854 204.22307237
4930.00 -430.06091909 204.44169521
4932.00 -430.34908161 204.66044325
4934.00 -430.63727604 204.87931648
4936.00 -430.92550230 205.09831489
4938.00 -431.21376034 205.31743845
4940.00 -431.50205008 205.53668717
4942.00 -431.79037146 205.75606103
4944.00 -432.07872441 205.97556000
4946.00 -432.36710888 206.19518409
4948.00 -432.65552478 206.41493328
4950.00 -432.94397206 206.63480755
4952.00 -433.23245066 206.85480690
4954.00 -433.52096050 207.07493130
4956.00 -433.80950152 207.29518075
4958.00 -434.09807366 207.51555523
4960.00 -434.38667685 207.73605473
4962.00 -434.67531102 207.95667924
4964.00 -434.96397611 208.17742874
4966.00 -435.25267205 208.39830322
4968.00 -435.54139878 208.61930267
4970.00 -435.83015624 208.84042707
4972.00 -436.11894435 209.06167641
4974.00 -436.40776306 209.28305068
4976.00 -436.69661229 209.50454986
4978.00 -436.98549198 209.72617393
4980.00 -437.27440207 209.94792290
4982.00 -437.56334250 210.16979673
4984.00 -437.85231319 210.39179543
4986.00 -438.14131408 210.61391897
4988.00 -438.43034511 210.83616734
4990.00 -438.71940621 211.05854053
4992.00 -439.00849731 211.28103852
4994.00 -439.29761836 211.50366130
4996.00 -439.58676929 211.72640886
4998.00 -439.87595002 211.94928118
5000.00 -440.16516050 212.17227824
