wavelength(nm)         real         imag
100.00   3.75265192   0.00140804
102.00   3.74669963   0.00149422
104.00   3.74062951   0.00158385
106.00   3.73444157   0.00167698
108.00   3.72813581   0.00177370
110.00   3.72171224   0.00187407
112.00   3.71517086   0.00197816
114.00   3.70851168   0.00208602
116.00   3.70173468   0.00219774
118.00   3.69483989   0.00231338
120.00   3.68782729   0.00243300
122.00   3.68069690   0.00255668
124.00   3.67344872   0.00268448
126.00   3.66608274   0.00281647
128.00   3.65859898   0.00295271
130.00   3.65099744   0.00309328
132.00   3.64327811   0.00323824
134.00   3.63544101   0.00338766
136.00   3.62748614   0.00354160
138.00   3.61941349   0.00370014
140.00   3.61122308   0.00386334
142.00   3.60291491   0.00403126
144.00   3.59448897   0.00420399
146.00   3.58594529   0.00438157
148.00   3.57728385   0.00456409
150.00   3.56850466   0.00475161
152.00   3.55960773   0.00494419
154.00   3.55059306   0.00514191
156.00   3.54146065   0.00534482
158.00   3.53221051   0.00555301
160.00   3.52284264   0.00576653
162.00   3.51335705   0.00598545
164.00   3.50375374   0.00620985
166.00   3.49403271   0.00643978
168.00   3.48419397   0.00667532
170.00   3.47423753   0.00691653
172.00   3.46416338   0.00716348
174.00   3.45397153   0.00741624
176.00   3.44366199   0.00767487
178.00   3.43323476   0.00793945
180.00   3.42268985   0.00821004
182.00   3.41202726   0.00848670
184.00   3.40124699   0.00876951
186.00   3.39034905   0.00905853
188.00   3.37933344   0.00935383
190.00   3.36820017   0.00965548
192.00   3.35694925   0.00996354
194.00   3.34558067   0.01027808
196.00   3.33409445   0.01059917
198.00   3.32249059   0.01092688
200.00   3.31076909   0.01126127
202.00   3.29892996   0.01160241
204.00   3.28697321   0.01195038
206.00   3.27489883   0.01230522
208.00   3.26270684   0.01266702
210.00   3.25039723   0.01303584
212.00   3.23797003   0.01341175
214.00   3.22542522   0.01379481
216.00   3.21276282   0.01418510
218.00   3.19998283   0.01458267
220.00   3.18708526   0.01498760
222.00   3.17407012   0.01539996
224.00   3.16093740   0.01581981
226.00   3.14768711   0.01624721
228.00   3.13431927   0.01668225
230.00   3.12083387   0.01712497
232.00   3.10723093   0.01757546
234.00   3.09351044   0.01803377
236.00   3.07967242   0.01849998
238.00   3.06571686   0.01897415
240.00   3.05164379   0.01945635
242.00   3.03745319   0.01994665
244.00   3.02314508   0.02044511
246.00   3.00871947   0.02095181
248.00   2.99417636   0.02146680
250.00   2.97951576   0.02199016
252.00   2.96473767   0.02252195
254.00   2.94984210   0.02306224
256.00   2.93482906   0.02361110
258.00   2.91969855   0.02416859
260.00   2.90445058   0.02473478
262.00   2.88908516   0.02530975
264.00   2.87360229   0.02589355
266.00   2.85800198   0.02648625
268.00   2.84228424   0.02708792
270.00   2.82644908   0.02769863
272.00   2.81049649   0.02831845
274.00   2.79442649   0.02894744
276.00   2.77823909   0.02958566
278.00   2.76193429   0.03023320
280.00   2.74551209   0.03089010
282.00   2.72897252   0.03155645
284.00   2.71231556   0.03223230
286.00   2.69554124   0.03291773
288.00   2.67864956   0.03361280
290.00   2.66164052   0.03431758
292.00   2.64451414   0.03503214
294.00   2.62727041   0.03575653
296.00   2.60990935   0.03649084
298.00   2.59243097   0.03723513
300.00   2.57483527   0.03798945
302.00   2.55712227   0.03875389
304.00   2.53929196   0.03952851
306.00   2.52134436   0.04031338
308.00   2.50327947   0.04110855
310.00   2.48509730   0.04191411
312.00   2.46679787   0.04273011
314.00   2.44838117   0.04355662
316.00   2.42984722   0.04439371
318.00   2.41119602   0.04524146
320.00   2.39242759   0.04609991
322.00   2.37354192   0.04696915
324.00   2.35453904   0.04784923
326.00   2.33541894   0.04874023
328.00   2.31618164   0.04964222
330.00   2.29682714   0.05055525
332.00   2.27735545   0.05147939
334.00   2.25776659   0.05241472
336.00   2.23806055   0.05336130
338.00   2.21823736   0.05431920
340.00   2.19829701   0.05528848
342.00   2.17823951   0.05626920
344.00   2.15806488   0.05726145
346.00   2.13777312   0.05826528
348.00   2.11736425   0.05928076
350.00   2.09683826   0.06030796
352.00   2.07619518   0.06134695
354.00   2.05543500   0.06239778
356.00   2.03455774   0.06346054
358.00   2.01356341   0.06453528
360.00   1.99245201   0.06562207
362.00   1.97122356   0.06672098
364.00   1.94987807   0.06783207
366.00   1.92841554   0.06895542
368.00   1.90683598   0.07009109
370.00   1.88513940   0.07123914
372.00   1.86332582   0.07239964
374.00   1.84139524   0.07357267
376.00   1.81934767   0.07475828
378.00   1.79718312   0.07595654
380.00   1.77490160   0.07716753
382.00   1.75250313   0.07839129
384.00   1.72998770   0.07962792
386.00   1.70735533   0.08087746
388.00   1.68460603   0.08213999
390.00   1.66173982   0.08341557
392.00   1.63875669   0.08470427
394.00   1.61565666   0.08600616
396.00   1.59243974   0.08732130
398.00   1.56910594   0.08864976
400.00   1.54565528   0.08999160
402.00   1.52208775   0.09134690
404.00   1.49840337   0.09271572
406.00   1.47460216   0.09409812
408.00   1.45068411   0.09549418
410.00   1.42664925   0.09690395
412.00   1.40249758   0.09832752
414.00   1.37822911   0.09976493
416.00   1.35384386   0.10121626
418.00   1.32934183   0.10268158
420.00   1.30472304   0.10416095
422.00   1.27998749   0.10565444
424.00   1.25513520   0.10716211
426.00   1.23016617   0.10868404
428.00   1.20508042   0.11022028
430.00   1.17987797   0.11177091
432.00   1.15455881   0.11333599
434.00   1.12912296   0.11491558
436.00   1.10357044   0.11650976
438.00   1.07790124   0.11811859
440.00   1.05211540   0.11974214
442.00   1.02621291   0.12138046
444.00   1.00019378   0.12303364
446.00   0.97405804   0.12470174
448.00   0.94780568   0.12638481
450.00   0.92143672   0.12808294
452.00   0.89495118   0.12979618
454.00   0.86834906   0.13152460
456.00   0.84163038   0.13326827
458.00   0.81479515   0.13502725
460.00   0.78784337   0.13680161
462.00   0.76077507   0.13859142
464.00   0.73359025   0.14039674
466.00   0.70628892   0.14221764
468.00   0.67887110   0.14405419
470.00   0.65133680   0.14590645
472.00   0.62368603   0.14777448
474.00   0.59591880   0.14965836
476.00   0.56803512   0.15155815
478.00   0.54003501   0.15347392
480.00   0.51191848   0.15540573
482.00   0.48368555   0.15735365
484.00   0.45533621   0.15931774
486.00   0.42687049   0.16129807
488.00   0.39828840   0.16329472
490.00   0.36958995   0.16530773
492.00   0.34077516   0.16733719
494.00   0.31184402   0.16938315
496.00   0.28279657   0.17144568
498.00   0.25363281   0.17352485
500.00   0.22435275   0.17562072
502.00   0.19495641   0.17773337
504.00   0.16544380   0.17986285
506.00   0.13581493   0.18200923
508.00   0.10606981   0.18417258
510.00   0.07620846   0.18635297
512.00   0.04623089   0.18855046
514.00   0.01613712   0.19076511
516.00  -0.01407285   0.19299699
518.00  -0.04439899   0.19524617
520.00  -0.07484130   0.19751272
522.00  -0.10539977   0.19979670
524.00  -0.13607438   0.20209817
526.00  -0.16686511   0.20441721
528.00  -0.19777196   0.20675387
530.00  -0.22879490   0.20910822
532.00  -0.25993394   0.21148034
534.00  -0.29118904   0.21387028
536.00  -0.32256021   0.21627811
538.00  -0.35404742   0.21870390
540.00  -0.38565066   0.22114772
542.00  -0.41736992   0.22360962
544.00  -0.44920519   0.22608968
546.00  -0.48115644   0.22858795
548.00  -0.51322368   0.23110452
550.00  -0.54540687   0.23363943
552.00  -0.57770602   0.23619276
554.00  -0.61012110   0.23876458
556.00  -0.64265210   0.24135495
558.00  -0.67529900   0.24396393
560.00  -0.70806180   0.24659159
562.00  -0.74094048   0.24923799
564.00  -0.77393502   0.25190321
566.00  -0.80704541   0.25458731
568.00  -0.84027163   0.25729035
570.00  -0.87361368   0.26001240
572.00  -0.90707153   0.26275352
574.00  -0.94064517   0.26551379
576.00  -0.97433459   0.26829326
578.00  -1.00813978   0.27109200
580.00  -1.04206071   0.27391007
582.00  -1.07609737   0.27674755
584.00  -1.11024975   0.27960450
586.00  -1.14451784   0.28248098
588.00  -1.17890161   0.28537706
590.00  -1.21340106   0.28829280
592.00  -1.24801616   0.29122828
594.00  -1.28274691   0.29418355
596.00  -1.31759329   0.29715868
598.00  -1.35255528   0.30015373
600.00  -1.38763287   0.30316878
602.00  -1.42282605   0.30620389
604.00  -1.45813479   0.30925911
606.00  -1.49355908   0.31233453
608.00  -1.52909891   0.31543020
610.00  -1.56475426   0.31854618
612.00  -1.60052511   0.32168255
614.00  -1.63641146   0.32483937
616.00  -1.67241329   0.32801671
618.00  -1.70853057   0.33121462
620.00  -1.74476329   0.33443318
622.00  -1.78111145   0.33767245
624.00  -1.81757501   0.34093249
626.00  -1.85415397   0.34421338
628.00  -1.89084832   0.34751517
630.00  -1.92765803   0.35083793
632.00  -1.96458308   0.35418173
634.00  -2.00162347   0.35754663
636.00  -2.03877918   0.36093270
638.00  -2.07605018   0.36434000
640.00  -2.11343647   0.36776859
642.00  -2.15093803   0.37121855
644.00  -2.18855484   0.37468993
646.00  -2.22628689   0.37818281
648.00  -2.26413415   0.38169724
650.00  -2.30209662   0.38523330
652.00  -2.34017428   0.38879104
654.00  -2.37836710   0.39237054
656.00  -2.41667508   0.39597185
658.00  -2.45509819   0.39959504
660.00  -2.49363643   0.40324019
662.00  -2.53228977   0.40690734
664.00  -2.57105819   0.41059657
666.00  -2.60994169   0.41430794
668.00  -2.64894023   0.41804153
670.00  -2.68805382   0.42179738
672.00  -2.72728242   0.42557557
674.00  -2.76662603   0.42937616
676.00  -2.80608462   0.43319921
678.00  -2.84565818   0.43704480
680.00  -2.88534669   0.44091298
682.00  -2.92515013   0.44480383
684.00  -2.96506849   0.44871740
686.00  -3.00510175   0.45265376
688.00  -3.04524989   0.45661298
690.00  -3.08551290   0.46059511
692.00  -3.12589075   0.46460023
694.00  -3.16638344   0.46862840
696.00  -3.20699093   0.47267968
698.00  -3.24771322   0.47675414
700.00  -3.28855029   0.48085185
702.00  -3.32950212   0.48497286
704.00  -3.37056868   0.48911724
706.00  -3.41174998   0.49328507
708.00  -3.45304597   0.49747639
710.00  -3.49445666   0.50169128
712.00  -3.53598202   0.50592980
714.00  -3.57762203   0.51019201
716.00  -3.61937667   0.51447799
718.00  -3.66124593   0.51878778
720.00  -3.70322979   0.52312147
722.00  -3.74532823   0.52747911
724.00  -3.78754123   0.53186077
726.00  -3.82986877   0.53626651
728.00  -3.87231084   0.54069640
730.00  -3.91486742   0.54515049
732.00  -3.95753849   0.54962886
734.00  -4.00032402   0.55413157
736.00  -4.04322401   0.55865869
738.00  -4.08623843   0.56321027
740.00  -4.12936726   0.56778639
742.00  -4.17261050   0.57238710
744.00  -4.21596810   0.57701247
746.00  -4.25944007   0.58166257
748.00  -4.30302638   0.58633746
750.00  -4.34672701   0.59103720
752.00  -4.39054194   0.59576186
754.00  -4.43447115   0.60051150
756.00  -4.47851463   0.60528618
758.00  -4.52267235   0.61008598
760.00  -4.56694430   0.61491095
762.00  -4.61133046   0.61976116
764.00  -4.65583081   0.62463668
766.00  -4.70044532   0.62953755
768.00  -4.74517398   0.63446386
770.00  -4.79001678   0.63941567
772.00  -4.83497368   0.64439303
774.00  -4.88004468   0.64939602
776.00  -4.92522975   0.65442469
778.00  -4.97052887   0.65947911
780.00  -5.01594202   0.66455935
782.00  -5.06146919   0.66966547
784.00  -5.10711035   0.67479752
786.00  -5.15286549   0.67995559
788.00  -5.19873458   0.68513972
790.00  -5.24471760   0.69034999
792.00  -5.29081454   0.69558646
794.00  -5.33702538   0.70084919
796.00  -5.38335009   0.70613824
798.00  -5.42978866   0.71145368
800.00  -5.47634106   0.71679558
802.00  -5.52300727   0.72216399
804.00  -5.56978728   0.72755898
806.00  -5.61668107   0.73298062
808.00  -5.66368861   0.73842896
810.00  -5.71080989   0.74390408
812.00  -5.75804488   0.74940603
814.00  -5.80539356   0.75493488
816.00  -5.85285592   0.76049069
818.00  -5.90043193   0.76607353
820.00  -5.94812157   0.77168345
822.00  -5.99592482   0.77732053
824.00  -6.04384167   0.78298483
826.00  -6.09187209   0.78867640
828.00  -6.14001605   0.79439532
830.00  -6.18827355   0.80014165
832.00  -6.23664456   0.80591544
834.00  -6.28512905   0.81171677
836.00  -6.33372701   0.81754570
838.00  -6.38243842   0.82340229
840.00  -6.43126325   0.82928660
842.00  -6.48020149   0.83519870
844.00  -6.52925310   0.84113865
846.00  -6.57841809   0.84710651
848.00  -6.62769641   0.85310235
850.00  -6.67708805   0.85912623
852.00  -6.72659299   0.86517822
854.00  -6.77621121   0.87125837
856.00  -6.82594268   0.87736675
858.00  -6.87578739   0.88350342
860.00  -6.92574532   0.88966845
862.00  -6.97581643   0.89586190
864.00  -7.02600071   0.90208384
866.00  -7.07629815   0.90833431
868.00  -7.12670871   0.91461340
870.00  -7.17723237   0.92092116
872.00  -7.22786912   0.92725766
874.00  -7.27861893   0.93362295
876.00  -7.32948178   0.94001710
878.00  -7.38045765   0.94644018
880.00  -7.43154652   0.95289224
882.00  -7.48274836   0.95937336
884.00  -7.53406315   0.96588359
886.00  -7.58549088   0.97242299
888.00  -7.63703151   0.97899163
890.00  -7.68868503   0.98558957
892.00  -7.74045141   0.99221688
894.00  -7.79233064   0.99887361
896.00  -7.84432268   1.00555984
898.00  -7.89642753   1.01227561
900.00  -7.94864514   1.01902101
902.00  -8.00097551   1.02579608
904.00  -8.05341862   1.03260089
906.00  -8.10597442   1.03943550
908.00  -8.15864292   1.04629998
910.00  -8.21142408   1.05319439
912.00  -8.26431787   1.06011879
914.00  -8.31732429   1.06707325
916.00  -8.37044330   1.07405782
918.00  -8.42367488   1.08107257
920.00  -8.47701901   1.08811756
922.00  -8.53047567   1.09519286
924.00  -8.58404483   1.10229852
926.00  -8.63772647   1.10943461
928.00  -8.69152057   1.11660120
930.00  -8.74542710   1.12379834
932.00  -8.79944605   1.13102609
934.00  -8.85357738   1.13828452
936.00  -8.90782108   1.14557370
938.00  -8.96217712   1.15289368
940.00  -9.01664548   1.16024452
942.00  -9.07122614   1.16762630
944.00  -9.12591906   1.17503906
946.00  -9.18072424   1.18248288
948.00  -9.23564164   1.18995781
950.00  -9.29067124   1.19746392
952.00  -9.34581302   1.20500126
954.00  -9.40106696   1.21256991
956.00  -9.45643302   1.22016993
958.00  -9.51191120   1.22780137
960.00  -9.56750145   1.23546429
962.00  -9.62320377   1.24315877
964.00  -9.67901812   1.25088486
966.00  -9.73494449   1.25864262
968.00  -9.79098284   1.26643212
970.00  -9.84713316   1.27425342
972.00  -9.90339542   1.28210658
974.00  -9.95976959   1.28999166
976.00 -10.01625566   1.29790872
978.00 -10.07285360   1.30585783
980.00 -10.12956338   1.31383905
982.00 -10.18638497   1.32185243
984.00 -10.24331837   1.32989805
986.00 -10.30036353   1.33797596
988.00 -10.35752045   1.34608623
990.00 -10.41478908   1.35422891
992.00 -10.47216941   1.36240407
994.00 -10.52966142   1.37061178
996.00 -10.58726508   1.37885208
998.00 -10.64498036   1.38712505
1000.00 -10.70280723   1.39543074
1002.00 -10.76074569   1.40376922
1004.00 -10.81879569   1.41214055
1006.00 -10.87695723   1.42054479
1008.00 -10.93523026   1.42898200
1010.00 -10.99361476   1.43745224
1012.00 -11.05211072   1.44595558
1014.00 -11.11071811   1.45449207
1016.00 -11.16943689   1.46306178
1018.00 -11.22826706   1.47166477
1020.00 -11.28720857   1.48030110
1022.00 -11.34626141   1.48897084
1024.00 -11.40542555   1.49767403
1026.00 -11.46470097   1.50641075
1028.00 -11.52408763   1.51518106
1030.00 -11.58358553   1.52398501
1032.00 -11.64319462   1.53282267
1034.00 -11.70291488   1.54169411
1036.00 -11.76274630   1.55059937
1038.00 -11.82268884   1.55953852
1040.00 -11.88274247   1.56851163
1042.00 -11.94290718   1.57751875
1044.00 -12.00318294   1.58655995
1046.00 -12.06356972   1.59563529
1048.00 -12.12406749   1.60474482
1050.00 -12.18467623   1.61388861
1052.00 -12.24539592   1.62306672
1054.00 -12.30622652   1.63227921
1056.00 -12.36716802   1.64152615
1058.00 -12.42822038   1.65080758
1060.00 -12.48938359   1.66012358
1062.00 -12.55065761   1.66947421
1064.00 -12.61204241   1.67885952
1066.00 -12.67353798   1.68827958
1068.00 -12.73514429   1.69773444
1070.00 -12.79686130   1.70722417
1072.00 -12.85868900   1.71674883
1074.00 -12.92062736   1.72630848
1076.00 -12.98267635   1.73590318
1078.00 -13.04483594   1.74553300
1080.00 -13.10710611   1.75519798
1082.00 -13.16948684   1.76489820
1084.00 -13.23197809   1.77463371
1086.00 -13.29457983   1.78440457
1088.00 -13.35729205   1.79421085
1090.00 -13.42011472   1.80405260
1092.00 -13.48304781   1.81392989
1094.00 -13.54609129   1.82384277
1096.00 -13.60924513   1.83379131
1098.00 -13.67250931   1.84377557
1100.00 -13.73588381   1.85379560
1102.00 -13.79936859   1.86385148
1104.00 -13.86296363   1.87394325
1106.00 -13.92666890   1.88407097
1108.00 -13.99048437   1.89423472
1110.00 -14.05441002   1.90443455
1112.00 -14.11844583   1.91467052
1114.00 -14.18259175   1.92494268
1116.00 -14.24684777   1.93525111
1118.00 -14.31121386   1.94559585
1120.00 -14.37568999   1.95597698
1122.00 -14.44027614   1.96639455
1124.00 -14.50497227   1.97684861
1126.00 -14.56977836   1.98733924
1128.00 -14.63469439   1.99786649
1130.00 -14.69972031   2.00843042
1132.00 -14.76485612   2.01903109
1134.00 -14.83010177   2.02966857
1136.00 -14.89545725   2.04034290
1138.00 -14.96092252   2.05105415
1140.00 -15.02649756   2.06180239
1142.00 -15.09218233   2.07258766
1144.00 -15.15797682   2.08341004
1146.00 -15.22388099   2.09426958
1148.00 -15.28989481   2.10516633
1150.00 -15.35601826   2.11610037
1152.00 -15.42225131   2.12707175
1154.00 -15.48859394   2.13808053
1156.00 -15.55504610   2.14912676
1158.00 -15.62160778   2.16021052
1160.00 -15.68827895   2.17133185
1162.00 -15.75505958   2.18249082
1164.00 -15.82194964   2.19368749
1166.00 -15.88894909   2.20492192
1168.00 -15.95605793   2.21619417
1170.00 -16.02327611   2.22750429
1172.00 -16.09060361   2.23885235
1174.00 -16.15804039   2.25023840
1176.00 -16.22558644   2.26166251
1178.00 -16.29324172   2.27312474
1180.00 -16.36100620   2.28462514
1182.00 -16.42887986   2.29616377
1184.00 -16.49686266   2.30774069
1186.00 -16.56495458   2.31935597
1188.00 -16.63315559   2.33100966
1190.00 -16.70146566   2.34270181
1192.00 -16.76988476   2.35443250
1194.00 -16.83841286   2.36620178
1196.00 -16.90704994   2.37800971
1198.00 -16.97579596   2.38985634
1200.00 -17.04465090   2.40174174
1202.00 -17.11361472   2.41366597
1204.00 -17.18268740   2.42562908
1206.00 -17.25186891   2.43763113
1208.00 -17.32115922   2.44967219
1210.00 -17.39055830   2.46175231
1212.00 -17.46006612   2.47387155
1214.00 -17.52968265   2.48602997
1216.00 -17.59940786   2.49822763
1218.00 -17.66924173   2.51046459
1220.00 -17.73918422   2.52274090
1222.00 -17.80923530   2.53505663
1224.00 -17.87939495   2.54741184
1226.00 -17.94966314   2.55980657
1228.00 -18.02003983   2.57224090
1230.00 -18.09052499   2.58471488
1232.00 -18.16111860   2.59722857
1234.00 -18.23182063   2.60978202
1236.00 -18.30263105   2.62237531
1238.00 -18.37354982   2.63500847
1240.00 -18.44457692   2.64768159
1242.00 -18.51571232   2.66039470
1244.00 -18.58695598   2.67314787
1246.00 -18.65830788   2.68594117
1248.00 -18.72976799   2.69877464
1250.00 -18.80133628   2.71164835
1252.00 -18.87301272   2.72456235
1254.00 -18.94479727   2.73751671
1256.00 -19.01668991   2.75051148
1258.00 -19.08869061   2.76354671
1260.00 -19.16079933   2.77662248
1262.00 -19.23301605   2.78973883
1264.00 -19.30534074   2.80289583
1266.00 -19.37777336   2.81609353
1268.00 -19.45031389   2.82933199
1270.00 -19.52296229   2.84261127
1272.00 -19.59571854   2.85593143
1274.00 -19.66858260   2.86929253
1276.00 -19.74155445   2.88269461
1278.00 -19.81463405   2.89613775
1280.00 -19.88782137   2.90962200
1282.00 -19.96111638   2.92314742
1284.00 -20.03451906   2.93671406
1286.00 -20.10802936   2.95032199
1288.00 -20.18164727   2.96397126
1290.00 -20.25537274   2.97766192
1292.00 -20.32920575   2.99139405
1294.00 -20.40314627   3.00516769
1296.00 -20.47719426   3.01898290
1298.00 -20.55134970   3.03283975
1300.00 -20.62561255   3.04673828
1302.00 -20.69998278   3.06067856
1304.00 -20.77446037   3.07466064
1306.00 -20.84904527   3.08868459
1308.00 -20.92373747   3.10275045
1310.00 -20.99853692   3.11685829
1312.00 -21.07344360   3.13100817
1314.00 -21.14845748   3.14520013
1316.00 -21.22357852   3.15943425
1318.00 -21.29880669   3.17371058
1320.00 -21.37414197   3.18802916
1322.00 -21.44958431   3.20239007
1324.00 -21.52513369   3.21679336
1326.00 -21.60079008   3.23123909
1328.00 -21.67655344   3.24572731
1330.00 -21.75242375   3.26025808
1332.00 -21.82840096   3.27483146
1334.00 -21.90448506   3.28944751
1336.00 -21.98067601   3.30410628
1338.00 -22.05697377   3.31880783
1340.00 -22.13337831   3.33355221
1342.00 -22.20988961   3.34833949
1344.00 -22.28650763   3.36316973
1346.00 -22.36323234   3.37804297
1348.00 -22.44006371   3.39295928
1350.00 -22.51700170   3.40791871
1352.00 -22.59404628   3.42292132
1354.00 -22.67119742   3.43796716
1356.00 -22.74845509   3.45305630
1358.00 -22.82581926   3.46818880
1360.00 -22.90328989   3.48336469
1362.00 -22.98086695   3.49858406
1364.00 -23.05855041   3.51384694
1366.00 -23.13634024   3.52915340
1368.00 -23.21423640   3.54450350
1370.00 -23.29223887   3.55989729
1372.00 -23.37034760   3.57533482
1374.00 -23.44856257   3.59081616
1376.00 -23.52688375   3.60634137
1378.00 -23.60531109   3.62191049
1380.00 -23.68384458   3.63752358
1382.00 -23.76248417   3.65318071
1384.00 -23.84122984   3.66888192
1386.00 -23.92008155   3.68462728
1388.00 -23.99903926   3.70041683
1390.00 -24.07810295   3.71625065
1392.00 -24.15727259   3.73212878
1394.00 -24.23654813   3.74805127
1396.00 -24.31592955   3.76401820
1398.00 -24.39541681   3.78002960
1400.00 -24.47500989   3.79608555
1402.00 -24.55470874   3.81218609
1404.00 -24.63451334   3.82833128
1406.00 -24.71442364   3.84452117
1408.00 -24.79443963   3.86075583
1410.00 -24.87456126   3.87703531
1412.00 -24.95478850   3.89335967
1414.00 -25.03512132   3.90972896
1416.00 -25.11555968   3.92614323
1418.00 -25.19610356   3.94260255
1420.00 -25.27675292   3.95910697
1422.00 -25.35750772   3.97565654
1424.00 -25.43836793   3.99225133
1426.00 -25.51933351   4.00889138
1428.00 -25.60040445   4.02557675
1430.00 -25.68158069   4.04230751
1432.00 -25.76286221   4.05908369
1434.00 -25.84424897   4.07590537
1436.00 -25.92574094   4.09277260
1438.00 -26.00733809   4.10968542
1440.00 -26.08904038   4.12664391
1442.00 -26.17084778   4.14364811
1444.00 -26.25276025   4.16069807
1446.00 -26.33477776   4.17779386
1448.00 -26.41690028   4.19493553
1450.00 -26.49912777   4.21212314
1452.00 -26.58146020   4.22935673
1454.00 -26.66389753   4.24663637
1456.00 -26.74643973   4.26396212
1458.00 -26.82908677   4.28133402
1460.00 -26.91183861   4.29875213
1462.00 -26.99469522   4.31621651
1464.00 -27.07765656   4.33372721
1466.00 -27.16072260   4.35128429
1468.00 -27.24389331   4.36888781
1470.00 -27.32716864   4.38653781
1472.00 -27.41054857   4.40423436
1474.00 -27.49403306   4.42197750
1476.00 -27.57762208   4.43976730
1478.00 -27.66131559   4.45760381
1480.00 -27.74511356   4.47548708
1482.00 -27.82901595   4.49341717
1484.00 -27.91302274   4.51139413
1486.00 -27.99713387   4.52941803
1488.00 -28.08134932   4.54748890
1490.00 -28.16566906   4.56560682
1492.00 -28.25009305   4.58377183
1494.00 -28.33462125   4.60198399
1496.00 -28.41925363   4.62024335
1498.00 -28.50399016   4.63854996
1500.00 -28.58883080   4.65690389
1502.00 -28.67377551   4.67530519
1504.00 -28.75882426   4.69375391
1506.00 -28.84397702   4.71225010
1508.00 -28.92923375   4.73079383
1510.00 -29.01459441   4.74938514
1512.00 -29.10005897   4.76802409
1514.00 -29.18562740   4.78671074
1516.00 -29.27129965   4.80544513
1518.00 -29.35707570   4.82422733
1520.00 -29.44295551   4.84305738
1522.00 -29.52893904   4.86193535
1524.00 -29.61502626   4.88086128
1526.00 -29.70121714   4.89983524
1528.00 -29.78751163   4.91885727
1530.00 -29.87390970   4.93792742
1532.00 -29.96041131   4.95704576
1534.00 -30.04701644   4.97621234
1536.00 -30.13372504   4.99542721
1538.00 -30.22053709   5.01469043
1540.00 -30.30745253   5.03400204
1542.00 -30.39447134   5.05336211
1544.00 -30.48159349   5.07277069
1546.00 -30.56881893   5.09222783
1548.00 -30.65614763   5.11173358
1550.00 -30.74357956   5.13128801
1552.00 -30.83111468   5.15089115
1554.00 -30.91875294   5.17054308
1556.00 -31.00649433   5.19024383
1558.00 -31.09433880   5.20999347
1560.00 -31.18228631   5.22979205
1562.00 -31.27033683   5.24963962
1564.00 -31.35849032   5.26953624
1566.00 -31.44674675   5.28948195
1568.00 -31.53510608   5.30947682
1570.00 -31.62356827   5.32952090
1572.00 -31.71213329   5.34961423
1574.00 -31.80080110   5.36975688
1576.00 -31.88957167   5.38994890
1578.00 -31.97844496   5.41019034
1580.00 -32.06742093   5.43048125
1582.00 -32.15649954   5.45082168
1584.00 -32.24568077   5.47121170
1586.00 -32.33496457   5.49165136
1588.00 -32.42435090   5.51214070
1590.00 -32.51383973   5.53267978
1592.00 -32.60343103   5.55326865
1594.00 -32.69312476   5.57390737
1596.00 -32.78292087   5.59459599
1598.00 -32.87281934   5.61533457
1600.00 -32.96282012   5.63612314
1602.00 -33.05292319   5.65696178
1604.00 -33.14312849   5.67785053
1606.00 -33.23343601   5.69878945
1608.00 -33.32384569   5.71977859
1610.00 -33.41435750   5.74081799
1612.00 -33.50497141   5.76190772
1614.00 -33.59568738   5.78304782
1616.00 -33.68650537   5.80423836
1618.00 -33.77742534   5.82547938
1620.00 -33.86844726   5.84677093
1622.00 -33.95957109   5.86811307
1624.00 -34.05079680   5.88950585
1626.00 -34.14212434   5.91094932
1628.00 -34.23355367   5.93244354
1630.00 -34.32508477   5.95398855
1632.00 -34.41671759   5.97558442
1634.00 -34.50845210   5.99723119
1636.00 -34.60028826   6.01892892
1638.00 -34.69222602   6.04067765
1640.00 -34.78426537   6.06247744
1642.00 -34.87640625   6.08432835
1644.00 -34.96864862   6.10623042
1646.00 -35.06099246   6.12818371
1648.00 -35.15343773   6.15018827
1650.00 -35.24598438   6.17224415
1652.00 -35.33863237   6.19435140
1654.00 -35.43138168   6.21651008
1656.00 -35.52423227   6.23872024
1658.00 -35.61718408   6.26098193
1660.00 -35.71023710   6.28329520
1662.00 -35.80339127   6.30566010
1664.00 -35.89664657   6.32807669
1666.00 -35.99000295   6.35054502
1668.00 -36.08346038   6.37306514
1670.00 -36.17701881   6.39563710
1672.00 -36.27067822   6.41826096
1674.00 -36.36443855   6.44093676
1676.00 -36.45829979   6.46366456
1678.00 -36.55226187   6.48644441
1680.00 -36.64632478   6.50927636
1682.00 -36.74048846   6.53216046
1684.00 -36.83475289   6.55509676
1686.00 -36.92911801   6.57808533
1688.00 -37.02358381   6.60112620
1690.00 -37.11815023   6.62421942
1692.00 -37.21281723   6.64736506
1694.00 -37.30758479   6.67056316
1696.00 -37.40245286   6.69381378
1698.00 -37.49742140   6.71711695
1700.00 -37.59249038   6.74047275
1702.00 -37.68765975   6.76388121
1704.00 -37.78292948   6.78734239
1706.00 -37.87829953   6.81085634
1708.00 -37.97376986   6.83442311
1710.00 -38.06934043   6.85804275
1712.00 -38.16501120   6.88171532
1714.00 -38.26078214   6.90544086
1716.00 -38.35665320   6.92921943
1718.00 -38.45262435   6.95305107
1720.00 -38.54869554   6.97693585
1722.00 -38.64486675   7.00087380
1724.00 -38.74113792   7.02486498
1726.00 -38.83750903   7.04890944
1728.00 -38.93398003   7.07300723
1730.00 -39.03055088   7.09715840
1732.00 -39.12722155   7.12136301
1734.00 -39.22399199   7.14562110
1736.00 -39.32086217   7.16993272
1738.00 -39.41783204   7.19429793
1740.00 -39.51490157   7.21871678
1742.00 -39.61207072   7.24318931
1744.00 -39.70933945   7.26771558
1746.00 -39.80670772   7.29229564
1748.00 -39.90417549   7.31692953
1750.00 -40.00174273   7.34161731
1752.00 -40.09940938   7.36635904
1754.00 -40.19717542   7.39115475
1756.00 -40.29504080   7.41600450
1758.00 -40.39300548   7.44090834
1760.00 -40.49106943   7.46586632
1762.00 -40.58923261   7.49087849
1764.00 -40.68749497   7.51594491
1766.00 -40.78585647   7.54106561
1768.00 -40.88431709   7.56624066
1770.00 -40.98287677   7.59147009
1772.00 -41.08153547   7.61675397
1774.00 -41.18029317   7.64209234
1776.00 -41.27914981   7.66748525
1778.00 -41.37810535   7.69293275
1780.00 -41.47715977   7.71843490
1782.00 -41.57631302   7.74399173
1784.00 -41.67556505   7.76960331
1786.00 -41.77491583   7.79526968
1788.00 -41.87436532   7.82099088
1790.00 -41.97391348   7.84676698
1792.00 -42.07356027   7.87259802
1794.00 -42.17330564   7.89848405
1796.00 -42.27314957   7.92442512
1798.00 -42.37309200   7.95042128
1800.00 -42.47313290   7.97647257
1802.00 -42.57327223   8.00257906
1804.00 -42.67350995   8.02874078
1806.00 -42.77384602   8.05495779
1808.00 -42.87428039   8.08123014
1810.00 -42.97481303   8.10755787
1812.00 -43.07544390   8.13394104
1814.00 -43.17617295   8.16037969
1816.00 -43.27700015   8.18687388
1818.00 -43.37792546   8.21342365
1820.00 -43.47894883   8.24002905
1822.00 -43.58007023   8.26669014
1824.00 -43.68128961   8.29340695
1826.00 -43.78260693   8.32017955
1828.00 -43.88402216   8.34700797
1830.00 -43.98553525   8.37389228
1832.00 -44.08714616   8.40083251
1834.00 -44.18885486   8.42782871
1836.00 -44.29066130   8.45488095
1838.00 -44.39256543   8.48198925
1840.00 -44.49456723   8.50915368
1842.00 -44.59666664   8.53637428
1844.00 -44.69886363   8.56365110
1846.00 -44.80115816   8.59098419
1848.00 -44.90355019   8.61837360
1850.00 -45.00603967   8.64581937
1852.00 -45.10862656   8.67332156
1854.00 -45.21131083   8.70088021
1856.00 -45.31409243   8.72849538
1858.00 -45.41697132   8.75616710
1860.00 -45.51994747   8.78389544
1862.00 -45.62302082   8.81168043
1864.00 -45.72619134   8.83952213
1866.00 -45.82945899   8.86742059
1868.00 -45.93282372   8.89537584
1870.00 -46.03628550   8.92338795
1872.00 -46.13984428   8.95145696
1874.00 -46.24350002   8.97958291
1876.00 -46.34725269   9.00776586
1878.00 -46.45110223   9.03600586
1880.00 -46.55504861   9.06430295
1882.00 -46.65909179   9.09265717
1884.00 -46.76323172   9.12106859
1886.00 -46.86746837   9.14953724
1888.00 -46.97180169   9.17806318
1890.00 -47.07623164   9.20664644
1892.00 -47.18075818   9.23528709
1894.00 -47.28538127   9.26398517
1896.00 -47.39010087   9.29274072
1898.00 -47.49491693   9.32155380
1900.00 -47.59982941   9.35042444
1902.00 -47.70483828   9.37935271
1904.00 -47.80994348   9.40833864
1906.00 -47.91514498   9.43738229
1908.00 -48.02044274   9.46648370
1910.00 -48.12583671   9.49564292
1912.00 -48.23132686   9.52485999
1914.00 -48.33691313   9.55413497
1916.00 -48.44259550   9.58346790
1918.00 -48.54837391   9.61285883
1920.00 -48.65424833   9.64230781
1922.00 -48.76021871   9.67181488
1924.00 -48.86628501   9.70138010
1926.00 -48.97244718   9.73100350
1928.00 -49.07870520   9.76068514
1930.00 -49.18505901   9.79042506
1932.00 -49.29150857   9.82022331
1934.00 -49.39805385   9.85007993
1936.00 -49.50469479   9.87999499
1938.00 -49.61143136   9.90996851
1940.00 -49.71826351   9.94000055
1942.00 -49.82519120   9.97009116
1944.00 -49.93221440  10.00024038
1946.00 -50.03933305  10.03044826
1948.00 -50.14654711  10.06071484
1950.00 -50.25385655  10.09104018
1952.00 -50.36126131  10.12142432
1954.00 -50.46876137  10.15186730
1956.00 -50.57635667  10.18236917
1958.00 -50.68404717  10.21292999
1960.00 -50.79183283  10.24354979
1962.00 -50.89971361  10.27422863
1964.00 -51.00768946  10.30496654
1966.00 -51.11576035  10.33576358
1968.00 -51.22392622  10.36661980
1970.00 -51.33218704  10.39753523
1972.00 -51.44054277  10.42850992
1974.00 -51.54899336  10.45954393
1976.00 -51.65753876  10.49063730
1978.00 -51.76617894  10.52179007
1980.00 -51.87491386  10.55300229
1982.00 -51.98374346  10.58427400
1984.00 -52.09266772  10.61560526
1986.00 -52.20168657  10.64699611
1988.00 -52.31079999  10.67844660
1990.00 -52.42000793  10.70995676
1992.00 -52.52931034  10.74152665
1994.00 -52.63870719  10.77315632
1996.00 -52.74819842  10.80484580
1998.00 -52.85778400  10.83659515
2000.00 -52.96746389  10.86840441
2002.00 -53.07723804  10.90027363
2004.00 -53.18710640  10.93220284
2006.00 -53.29706893  10.96419211
2008.00 -53.40712560  10.99624147
2010.00 -53.51727636  11.02835097
2012.00 -53.62752116  11.06052065
2014.00 -53.73785996  11.09275057
2016.00 -53.84829272  11.12504076
2018.00 -53.95881939  11.15739127
2020.00 -54.06943993  11.18980215
2022.00 -54.18015430  11.22227344
2024.00 -54.29096246  11.25480519
2026.00 -54.40186436  11.28739745
2028.00 -54.51285995  11.32005025
2030.00 -54.62394920  11.35276365
2032.00 -54.73513205  11.38553768
2034.00 -54.84640848  11.41837240
2036.00 -54.95777843  11.45126785
2038.00 -55.06924185  11.48422408
2040.00 -55.18079872  11.51724112
2042.00 -55.29244897  11.55031903
2044.00 -55.40419258  11.58345785
2046.00 -55.51602949  11.61665762
2048.00 -55.62795966  11.64991840
2050.00 -55.73998304  11.68324022
2052.00 -55.85209960  11.71662312
2054.00 -55.96430929  11.75006717
2056.00 -56.07661207  11.78357239
2058.00 -56.18900789  11.81713883
2060.00 -56.30149671  11.85076655
2062.00 -56.41407848  11.88445557
2064.00 -56.52675316  11.91820596
2066.00 -56.63952070  11.95201775
2068.00 -56.75238107  11.98589098
2070.00 -56.86533422  12.01982571
2072.00 -56.97838010  12.05382197
2074.00 -57.09151867  12.08787981
2076.00 -57.20474989  12.12199928
2078.00 -57.31807371  12.15618041
2080.00 -57.43149009  12.19042326
2082.00 -57.54499898  12.22472787
2084.00 -57.65860034  12.25909428
2086.00 -57.77229412  12.29352254
2088.00 -57.88608029  12.32801268
2090.00 -57.99995879  12.36256477
2092.00 -58.11392958  12.39717882
2094.00 -58.22799262  12.43185491
2096.00 -58.34214787  12.46659306
2098.00 -58.45639527  12.50139331
2100.00 -58.57073479  12.53625573
2102.00 -58.68516638  12.57118034
2104.00 -58.79968999  12.60616719
2106.00 -58.91430559  12.64121633
2108.00 -59.02901312  12.67632780
2110.00 -59.14381254  12.71150165
2112.00 -59.25870381  12.74673791
2114.00 -59.37368688  12.78203663
2116.00 -59.48876172  12.81739786
2118.00 -59.60392826  12.85282163
2120.00 -59.71918648  12.88830800
2122.00 -59.83453631  12.92385700
2124.00 -59.94997773  12.95946868
2126.00 -60.06551068  12.99514308
2128.00 -60.18113513  13.03088025
2130.00 -60.29685101  13.06668022
2132.00 -60.41265830  13.10254305
2134.00 -60.52855694  13.13846877
2136.00 -60.64454690  13.17445743
2138.00 -60.76062812  13.21050908
2140.00 -60.87680056  13.24662374
2142.00 -60.99306417  13.28280148
2144.00 -61.10941892  13.31904232
2146.00 -61.22586475  13.35534632
2148.00 -61.34240162  13.39171352
2150.00 -61.45902949  13.42814396
2152.00 -61.57574831  13.46463768
2154.00 -61.69255803  13.50119472
2156.00 -61.80945861  13.53781514
2158.00 -61.92645001  13.57449896
2160.00 -62.04353218  13.61124624
2162.00 -62.16070508  13.64805702
2164.00 -62.27796865  13.68493133
2166.00 -62.39532286  13.72186923
2168.00 -62.51276765  13.75887075
2170.00 -62.63030299  13.79593594
2172.00 -62.74792883  13.83306483
2174.00 -62.86564513  13.87025748
2176.00 -62.98345182  13.90751393
2178.00 -63.10134889  13.94483421
2180.00 -63.21933627  13.98221837
2182.00 -63.33741391  14.01966645
2184.00 -63.45558179  14.05717850
2186.00 -63.57383985  14.09475455
2188.00 -63.69218804  14.13239465
2190.00 -63.81062632  14.17009884
2192.00 -63.92915464  14.20786717
2194.00 -64.04777296  14.24569966
2196.00 -64.16648124  14.28359638
2198.00 -64.28527942  14.32155735
2200.00 -64.40416746  14.35958262
2202.00 -64.52314532  14.39767224
2204.00 -64.64221295  14.43582624
2206.00 -64.76137030  14.47404467
2208.00 -64.88061734  14.51232756
2210.00 -64.99995400  14.55067496
2212.00 -65.11938025  14.58908692
2214.00 -65.23889604  14.62756347
2216.00 -65.35850133  14.66610465
2218.00 -65.47819606  14.70471051
2220.00 -65.59798020  14.74338109
2222.00 -65.71785370  14.78211642
2224.00 -65.83781651  14.82091656
2226.00 -65.95786858  14.85978154
2228.00 -66.07800988  14.89871140
2230.00 -66.19824034  14.93770619
2232.00 -66.31855994  14.97676594
2234.00 -66.43896861  15.01589070
2236.00 -66.55946632  15.05508051
2238.00 -66.68005302  15.09433541
2240.00 -66.80072867  15.13365545
2242.00 -66.92149321  15.17304065
2244.00 -67.04234660  15.21249107
2246.00 -67.16328879  15.25200674
2248.00 -67.28431975  15.29158770
2250.00 -67.40543941  15.33123401
2252.00 -67.52664775  15.37094568
2254.00 -67.64794470  15.41072278
2256.00 -67.76933022  15.45056534
2258.00 -67.89080428  15.49047340
2260.00 -68.01236681  15.53044699
2262.00 -68.13401777  15.57048617
2264.00 -68.25575713  15.61059097
2266.00 -68.37758482  15.65076143
2268.00 -68.49950082  15.69099760
2270.00 -68.62150506  15.73129950
2272.00 -68.74359750  15.77166720
2274.00 -68.86577809  15.81210071
2276.00 -68.98804680  15.85260009
2278.00 -69.11040357  15.89316538
2280.00 -69.23284835  15.93379661
2282.00 -69.35538110  15.97449383
2284.00 -69.47800178  16.01525708
2286.00 -69.60071033  16.05608639
2288.00 -69.72350671  16.09698180
2290.00 -69.84639088  16.13794337
2292.00 -69.96936278  16.17897112
2294.00 -70.09242237  16.22006510
2296.00 -70.21556960  16.26122534
2298.00 -70.33880442  16.30245189
2300.00 -70.46212680  16.34374479
2302.00 -70.58553668  16.38510408
2304.00 -70.70903401  16.42652979
2306.00 -70.83261875  16.46802197
2308.00 -70.95629085  16.50958065
2310.00 -71.08005027  16.55120588
2312.00 -71.20389696  16.59289770
2314.00 -71.32783086  16.63465614
2316.00 -71.45185194  16.67648125
2318.00 -71.57596015  16.71837306
2320.00 -71.70015543  16.76033161
2322.00 -71.82443775  16.80235695
2324.00 -71.94880705  16.84444911
2326.00 -72.07326330  16.88660813
2328.00 -72.19780643  16.92883406
2330.00 -72.32243641  16.97112692
2332.00 -72.44715319  17.01348677
2334.00 -72.57195671  17.05591364
2336.00 -72.69684694  17.09840756
2338.00 -72.82182382  17.14096858
2340.00 -72.94688732  17.18359674
2342.00 -73.07203737  17.22629208
2344.00 -73.19727394  17.26905463
2346.00 -73.32259697  17.31188444
2348.00 -73.44800643  17.35478153
2350.00 -73.57350225  17.39774596
2352.00 -73.69908440  17.44077777
2354.00 -73.82475283  17.48387698
2356.00 -73.95050749  17.52704364
2358.00 -74.07634833  17.57027778
2360.00 -74.20227531  17.61357946
2362.00 -74.32828837  17.65694869
2364.00 -74.45438747  17.70038554
2366.00 -74.58057257  17.74389002
2368.00 -74.70684361  17.78746218
2370.00 -74.83320055  17.83110207
2372.00 -74.95964334  17.87480971
2374.00 -75.08617193  17.91858514
2376.00 -75.21278628  17.96242841
2378.00 -75.33948633  18.00633956
2380.00 -75.46627204  18.05031861
2382.00 -75.59314337  18.09436562
2384.00 -75.72010026  18.13848061
2386.00 -75.84714267  18.18266362
2388.00 -75.97427054  18.22691470
2390.00 -76.10148384  18.27123389
2392.00 -76.22878251  18.31562121
2394.00 -76.35616651  18.36007671
2396.00 -76.48363579  18.40460043
2398.00 -76.61119029  18.44919240
2400.00 -76.73882998  18.49385266
2402.00 -76.86655480  18.53858125
2404.00 -76.99436471  18.58337821
2406.00 -77.12225966  18.62824358
2408.00 -77.25023960  18.67317739
2410.00 -77.37830448  18.71817968
2412.00 -77.50645425  18.76325048
2414.00 -77.63468888  18.80838985
2416.00 -77.76300830  18.85359780
2418.00 -77.89141247  18.89887439
2420.00 -78.01990135  18.94421965
2422.00 -78.14847488  18.98963361
2424.00 -78.27713302  19.03511631
2426.00 -78.40587572  19.08066780
2428.00 -78.53470293  19.12628811
2430.00 -78.66361460  19.17197727
2432.00 -78.79261068  19.21773532
2434.00 -78.92169114  19.26356230
2436.00 -79.05085591  19.30945825
2438.00 -79.18010495  19.35542320
2440.00 -79.30943821  19.40145720
2442.00 -79.43885564  19.44756027
2444.00 -79.56835720  19.49373246
2446.00 -79.69794284  19.53997380
2448.00 -79.82761251  19.58628433
2450.00 -79.95736616  19.63266409
2452.00 -80.08720374  19.67911310
2454.00 -80.21712520  19.72563142
2456.00 -80.34713050  19.77221908
2458.00 -80.47721959  19.81887610
2460.00 -80.60739241  19.86560254
2462.00 -80.73764893  19.91239842
2464.00 -80.86798908  19.95926379
2466.00 -80.99841283  20.00619867
2468.00 -81.12892013  20.05320312
2470.00 -81.25951092  20.10027715
2472.00 -81.39018516  20.14742081
2474.00 -81.52094280  20.19463414
2476.00 -81.65178379  20.24191717
2478.00 -81.78270808  20.28926994
2480.00 -81.91371563  20.33669248
2482.00 -82.04480638  20.38418483
2484.00 -82.17598029  20.43174702
2486.00 -82.30723730  20.47937910
2488.00 -82.43857738  20.52708110
2490.00 -82.57000046  20.57485306
2492.00 -82.70150651  20.62269500
2494.00 -82.83309547  20.67060697
2496.00 -82.96476730  20.71858901
2498.00 -83.09652194  20.76664114
2500.00 -83.22835935  20.81476340
2502.00 -83.36027948  20.86295584
2504.00 -83.49228227  20.91121848
2506.00 -83.62436769  20.95955136
2508.00 -83.75653568  21.00795452
2510.00 -83.88878619  21.05642800
2512.00 -84.02111918  21.10497182
2514.00 -84.15353459  21.15358603
2516.00 -84.28603237  21.20227065
2518.00 -84.41861249  21.25102573
2520.00 -84.55127488  21.29985130
2522.00 -84.68401951  21.34874740
2524.00 -84.81684631  21.39771405
2526.00 -84.94975525  21.44675131
2528.00 -85.08274626  21.49585919
2530.00 -85.21581932  21.54503775
2532.00 -85.34897435  21.59428700
2534.00 -85.48221133  21.64360699
2536.00 -85.61553018  21.69299775
2538.00 -85.74893088  21.74245932
2540.00 -85.88241337  21.79199174
2542.00 -86.01597759  21.84159503
2544.00 -86.14962350  21.89126923
2546.00 -86.28335106  21.94101438
2548.00 -86.41716021  21.99083051
2550.00 -86.55105090  22.04071766
2552.00 -86.68502308  22.09067586
2554.00 -86.81907671  22.14070514
2556.00 -86.95321173  22.19080555
2558.00 -87.08742810  22.24097711
2560.00 -87.22172576  22.29121986
2562.00 -87.35610467  22.34153384
2564.00 -87.49056478  22.39191907
2566.00 -87.62510604  22.44237560
2568.00 -87.75972840  22.49290346
2570.00 -87.89443181  22.54350268
2572.00 -88.02921622  22.59417330
2574.00 -88.16408158  22.64491534
2576.00 -88.29902784  22.69572885
2578.00 -88.43405495  22.74661387
2580.00 -88.56916287  22.79757041
2582.00 -88.70435154  22.84859852
2584.00 -88.83962091  22.89969824
2586.00 -88.97497094  22.95086959
2588.00 -89.11040158  23.00211261
2590.00 -89.24591277  23.05342734
2592.00 -89.38150447  23.10481380
2594.00 -89.51717662  23.15627203
2596.00 -89.65292918  23.20780207
2598.00 -89.78876210  23.25940395
2600.00 -89.92467532  23.31107770
2602.00 -90.06066881  23.36282336
2604.00 -90.19674250  23.41464096
2606.00 -90.33289635  23.46653054
2608.00 -90.46913032  23.51849212
2610.00 -90.60544434  23.57052574
2612.00 -90.74183837  23.62263144
2614.00 -90.87831236  23.67480924
2616.00 -91.01486627  23.72705919
2618.00 -91.15150003  23.77938131
2620.00 -91.28821361  23.83177564
2622.00 -91.42500695  23.88424221
2624.00 -91.56187999  23.93678106
2626.00 -91.69883271  23.98939221
2628.00 -91.83586503  24.04207571
2630.00 -91.97297692  24.09483158
2632.00 -92.11016832  24.14765986
2634.00 -92.24743918  24.20056058
2636.00 -92.38478945  24.25353377
2638.00 -92.52221909  24.30657947
2640.00 -92.65972804  24.35969771
2642.00 -92.79731626  24.41288852
2644.00 -92.93498369  24.46615193
2646.00 -93.07273028  24.51948799
2648.00 -93.21055598  24.57289671
2650.00 -93.34846075  24.62637814
2652.00 -93.48644454  24.67993230
2654.00 -93.62450728  24.73355924
2656.00 -93.76264894  24.78725897
2658.00 -93.90086947  24.84103154
2660.00 -94.03916880  24.89487697
2662.00 -94.17754691  24.94879530
2664.00 -94.31600372  25.00278657
2666.00 -94.45453920  25.05685079
2668.00 -94.59315329  25.11098802
2670.00 -94.73184595  25.16519827
2672.00 -94.87061712  25.21948158
2674.00 -95.00946675  25.27383799
2676.00 -95.14839479  25.32826752
2678.00 -95.28740120  25.38277020
2680.00 -95.42648592  25.43734608
2682.00 -95.56564891  25.49199518
2684.00 -95.70489010  25.54671753
2686.00 -95.84420946  25.60151316
2688.00 -95.98360693  25.65638211
2690.00 -96.12308246  25.71132441
2692.00 -96.26263600  25.76634009
2694.00 -96.40226751  25.82142919
2696.00 -96.54197692  25.87659173
2698.00 -96.68176420  25.93182774
2700.00 -96.82162929  25.98713726
2702.00 -96.96157213  26.04252032
2704.00 -97.10159269  26.09797695
2706.00 -97.24169090  26.15350719
2708.00 -97.38186673  26.20911106
2710.00 -97.52212011  26.26478859
2712.00 -97.66245100  26.32053982
2714.00 -97.80285935  26.37636478
2716.00 -97.94334511  26.43226349
2718.00 -98.08390822  26.48823600
2720.00 -98.22454864  26.54428233
2722.00 -98.36526632  26.60040251
2724.00 -98.50606120  26.65659658
2726.00 -98.64693324  26.71286456
2728.00 -98.78788238  26.76920649
2730.00 -98.92890858  26.82562240
2732.00 -99.07001178  26.88211231
2734.00 -99.21119193  26.93867627
2736.00 -99.35244899  26.99531429
2738.00 -99.49378290  27.05202642
2740.00 -99.63519361  27.10881268
2742.00 -99.77668107  27.16567310
2744.00 -99.91824523  27.22260771
2746.00 -100.05988604  27.27961655
2748.00 -100.20160346  27.33669965
2750.00 -100.34339742  27.39385703
2752.00 -100.48526787  27.45108872
2754.00 -100.62721478  27.50839476
2756.00 -100.76923808  27.56577518
2758.00 -100.91133773  27.62323001
2760.00 -101.05351367  27.68075928
2762.00 -101.19576586  27.73836301
2764.00 -101.33809425  27.79604124
2766.00 -101.48049877  27.85379400
2768.00 -101.62297939  27.91162132
2770.00 -101.76553605  27.96952323
2772.00 -101.90816870  28.02749976
2774.00 -102.05087729  28.08555094
2776.00 -102.19366177  28.14367680
2778.00 -102.33652209  28.20187737
2780.00 -102.47945820  28.26015268
2782.00 -102.62247004  28.31850276
2784.00 -102.76555758  28.37692763
2786.00 -102.90872074  28.43542734
2788.00 -103.05195949  28.49400191
2790.00 -103.19527378  28.55265136
2792.00 -103.33866355  28.61137574
2794.00 -103.48212874  28.67017506
2796.00 -103.62566933  28.72904936
2798.00 -103.76928524  28.78799867
2800.00 -103.91297643  28.84702302
2802.00 -104.05674284  28.90612243
2804.00 -104.20058444  28.96529694
2806.00 -104.34450116  29.02454658
2808.00 -104.48849296  29.08387137
2810.00 -104.63255978  29.14327134
2812.00 -104.77670158  29.20274653
2814.00 -104.92091830  29.26229696
2816.00 -105.06520989  29.32192267
2818.00 -105.20957630  29.38162367
2820.00 -105.35401748  29.44140001
2822.00 -105.49853337  29.50125171
2824.00 -105.64312394  29.56117879
2826.00 -105.78778912  29.62118129
2828.00 -105.93252887  29.68125924
2830.00 -106.07734313  29.74141267
2832.00 -106.22223186  29.80164160
2834.00 -106.36719499  29.86194607
2836.00 -106.51223249  29.92232609
2838.00 -106.65734430  29.98278171
2840.00 -106.80253036  30.04331295
2842.00 -106.94779063  30.10391983
2844.00 -107.09312506  30.16460240
2846.00 -107.23853360  30.22536067
2848.00 -107.38401619  30.28619467
2850.00 -107.52957278  30.34710444
2852.00 -107.67520332  30.40808999
2854.00 -107.82090776  30.46915137
2856.00 -107.96668606  30.53028860
2858.00 -108.11253815  30.59150170
2860.00 -108.25846398  30.65279071
2862.00 -108.40446351  30.71415565
2864.00 -108.55053669  30.77559655
2866.00 -108.69668346  30.83711344
2868.00 -108.84290377  30.89870635
2870.00 -108.98919757  30.96037530
2872.00 -109.13556481  31.02212033
2874.00 -109.28200544  31.08394146
2876.00 -109.42851940  31.14583872
2878.00 -109.57510665  31.20781214
2880.00 -109.72176713  31.26986174
2882.00 -109.86850080  31.33198756
2884.00 -110.01530759  31.39418962
2886.00 -110.16218747  31.45646794
2888.00 -110.30914037  31.51882257
2890.00 -110.45616625  31.58125352
2892.00 -110.60326506  31.64376082
2894.00 -110.75043674  31.70634450
2896.00 -110.89768124  31.76900458
2898.00 -111.04499852  31.83174111
2900.00 -111.19238851  31.89455409
2902.00 -111.33985117  31.95744356
2904.00 -111.48738645  32.02040956
2906.00 -111.63499429  32.08345209
2908.00 -111.78267465  32.14657120
2910.00 -111.93042747  32.20976690
2912.00 -112.07825270  32.27303923
2914.00 -112.22615029  32.33638822
2916.00 -112.37412019  32.39981389
2918.00 -112.52216235  32.46331626
2920.00 -112.67027671  32.52689537
2922.00 -112.81846322  32.59055124
2924.00 -112.96672184  32.65428389
2926.00 -113.11505250  32.71809337
2928.00 -113.26345516  32.78197968
2930.00 -113.41192978  32.84594287
2932.00 -113.56047628  32.90998295
2934.00 -113.70909463  32.97409995
2936.00 -113.85778478  33.03829391
2938.00 -114.00654666  33.10256484
2940.00 -114.15538023  33.16691277
2942.00 -114.30428544  33.23133773
2944.00 -114.45326224  33.29583975
2946.00 -114.60231057  33.36041885
2948.00 -114.75143038  33.42507506
2950.00 -114.90062162  33.48980840
2952.00 -115.04988425  33.55461891
2954.00 -115.19921820  33.61950660
2956.00 -115.34862342  33.68447151
2958.00 -115.49809987  33.74951366
2960.00 -115.64764750  33.81463307
2962.00 -115.79726624  33.87982978
2964.00 -115.94695605  33.94510381
2966.00 -116.09671688  34.01045518
2968.00 -116.24654868  34.07588393
2970.00 -116.39645139  34.14139007
2972.00 -116.54642496  34.20697363
2974.00 -116.69646934  34.27263465
2976.00 -116.84658448  34.33837313
2978.00 -116.99677033  34.40418912
2980.00 -117.14702683  34.47008264
2982.00 -117.29735393  34.53605371
2984.00 -117.44775159  34.60210236
2986.00 -117.59821975  34.66822861
2988.00 -117.74875835  34.73443249
2990.00 -117.89936735  34.80071402
2992.00 -118.05004670  34.86707324
2994.00 -118.20079633  34.93351016
2996.00 -118.35161621  35.00002481
2998.00 -118.50250628  35.06661722
3000.00 -118.65346648  35.13328741
3002.00 -118.80449677  35.20003541
3004.00 -118.95559709  35.26686124
3006.00 -119.10676739  35.33376493
3008.00 -119.25800762  35.40074651
3010.00 -119.40931773  35.46780599
3012.00 -119.56069766  35.53494341
3014.00 -119.71214737  35.60215878
3016.00 -119.86366680  35.66945214
3018.00 -120.01525590  35.73682351
3020.00 -120.16691461  35.80427291
3022.00 -120.31864290  35.87180037
3024.00 -120.47044069  35.93940591
3026.00 -120.62230795  36.00708957
3028.00 -120.77424462  36.07485135
3030.00 -120.92625065  36.14269129
3032.00 -121.07832598  36.21060942
3034.00 -121.23047057  36.27860575
3036.00 -121.38268435  36.34668032
3038.00 -121.53496729  36.41483314
3040.00 -121.68731933  36.48306424
3042.00 -121.83974041  36.55137365
3044.00 -121.99223049  36.61976139
3046.00 -122.14478951  36.68822748
3048.00 -122.29741742  36.75677195
3050.00 -122.45011417  36.82539482
3052.00 -122.60287970  36.89409613
3054.00 -122.75571397  36.96287588
3056.00 -122.90861692  37.03173411
3058.00 -123.06158850  37.10067084
3060.00 -123.21462865  37.16968609
3062.00 -123.36773734  37.23877989
3064.00 -123.52091449  37.30795227
3066.00 -123.67416007  37.37720324
3068.00 -123.82747402  37.44653283
3070.00 -123.98085628  37.51594106
3072.00 -124.13430681  37.58542797
3074.00 -124.28782556  37.65499356
3076.00 -124.44141246  37.72463787
3078.00 -124.59506748  37.79436092
3080.00 -124.74879055  37.86416273
3082.00 -124.90258162  37.93404333
3084.00 -125.05644065  38.00400274
3086.00 -125.21036758  38.07404099
3088.00 -125.36436235  38.14415809
3090.00 -125.51842492  38.21435407
3092.00 -125.67255524  38.28462896
3094.00 -125.82675325  38.35498278
3096.00 -125.98101890  38.42541554
3098.00 -126.13535213  38.49592728
3100.00 -126.28975290  38.56651802
3102.00 -126.44422115  38.63718778
3104.00 -126.59875684  38.70793659
3106.00 -126.75335990  38.77876446
3108.00 -126.90803029  38.84967142
3110.00 -127.06276796  38.92065750
3112.00 -127.21757284  38.99172271
3114.00 -127.37244490  39.06286709
3116.00 -127.52738407  39.13409064
3118.00 -127.68239031  39.20539341
3120.00 -127.83746356  39.27677540
3122.00 -127.99260377  39.34823664
3124.00 -128.14781090  39.41977716
3126.00 -128.30308487  39.49139697
3128.00 -128.45842566  39.56309610
3130.00 -128.61383319  39.63487458
3132.00 -128.76930742  39.70673242
3134.00 -128.92484830  39.77866965
3136.00 -129.08045578  39.85068628
3138.00 -129.23612980  39.92278236
3140.00 -129.39187031  39.99495788
3142.00 -129.54767726  40.06721289
3144.00 -129.70355059  40.13954739
3146.00 -129.85949026  40.21196141
3148.00 -130.01549621  40.28445499
3150.00 -130.17156839  40.35702812
3152.00 -130.32770674  40.42968085
3154.00 -130.48391122  40.50241319
3156.00 -130.64018177  40.57522516
3158.00 -130.79651834  40.64811678
3160.00 -130.95292088  40.72108809
3162.00 -131.10938933  40.79413909
3164.00 -131.26592365  40.86726981
3166.00 -131.42252378  40.94048028
3168.00 -131.57918966  41.01377052
3170.00 -131.73592125  41.08714054
3172.00 -131.89271850  41.16059036
3174.00 -132.04958134  41.23412002
3176.00 -132.20650973  41.30772954
3178.00 -132.36350362  41.38141892
3180.00 -132.52056296  41.45518821
3182.00 -132.67768768  41.52903741
3184.00 -132.83487775  41.60296654
3186.00 -132.99213310  41.67697564
3188.00 -133.14945369  41.75106472
3190.00 -133.30683945  41.82523381
3192.00 -133.46429035  41.89948292
3194.00 -133.62180633  41.97381207
3196.00 -133.77938733  42.04822129
3198.00 -133.93703330  42.12271060
3200.00 -134.09474419  42.19728002
3202.00 -134.25251995  42.27192958
3204.00 -134.41036052  42.34665928
3206.00 -134.56826586  42.42146916
3208.00 -134.72623591  42.49635923
3210.00 -134.88427061  42.57132951
3212.00 -135.04236992  42.64638004
3214.00 -135.20053379  42.72151082
3216.00 -135.35876215  42.79672188
3218.00 -135.51705497  42.87201323
3220.00 -135.67541218  42.94738491
3222.00 -135.83383373  43.02283693
3224.00 -135.99231957  43.09836931
3226.00 -136.15086965  43.17398207
3228.00 -136.30948392  43.24967523
3230.00 -136.46816232  43.32544882
3232.00 -136.62690480  43.40130285
3234.00 -136.78571131  43.47723735
3236.00 -136.94458179  43.55325233
3238.00 -137.10351620  43.62934781
3240.00 -137.26251448  43.70552382
3242.00 -137.42157658  43.78178038
3244.00 -137.58070245  43.85811750
3246.00 -137.73989203  43.93453521
3248.00 -137.89914527  44.01103353
3250.00 -138.05846212  44.08761248
3252.00 -138.21784252  44.16427207
3254.00 -138.37728643  44.24101233
3256.00 -138.53679379  44.31783327
3258.00 -138.69636455  44.39473493
3260.00 -138.85599865  44.47171731
3262.00 -139.01569605  44.54878044
3264.00 -139.17545669  44.62592433
3266.00 -139.33528052  44.70314902
3268.00 -139.49516748  44.78045451
3270.00 -139.65511753  44.85784083
3272.00 -139.81513061  44.93530799
3274.00 -139.97520667  45.01285602
3276.00 -140.13534565  45.09048494
3278.00 -140.29554751  45.16819476
3280.00 -140.45581219  45.24598551
3282.00 -140.61613963  45.32385720
3284.00 -140.77652980  45.40180986
3286.00 -140.93698262  45.47984350
3288.00 -141.09749806  45.55795814
3290.00 -141.25807606  45.63615380
3292.00 -141.41871656  45.71443051
3294.00 -141.57941951  45.79278828
3296.00 -141.74018487  45.87122713
3298.00 -141.90101257  45.94974708
3300.00 -142.06190257  46.02834815
3302.00 -142.22285481  46.10703035
3304.00 -142.38386924  46.18579371
3306.00 -142.54494581  46.26463825
3308.00 -142.70608447  46.34356399
3310.00 -142.86728516  46.42257093
3312.00 -143.02854783  46.50165911
3314.00 -143.18987243  46.58082855
3316.00 -143.35125890  46.66007925
3318.00 -143.51270719  46.73941124
3320.00 -143.67421726  46.81882455
3322.00 -143.83578904  46.89831917
3324.00 -143.99742249  46.97789515
3326.00 -144.15911755  47.05755249
3328.00 -144.32087417  47.13729121
3330.00 -144.48269230  47.21711133
3332.00 -144.64457188  47.29701287
3334.00 -144.80651286  47.37699586
3336.00 -144.96851520  47.45706030
3338.00 -145.13057883  47.53720621
3340.00 -145.29270370  47.61743362
3342.00 -145.45488977  47.69774254
3344.00 -145.61713697  47.77813299
3346.00 -145.77944527  47.85860499
3348.00 -145.94181459  47.93915855
3350.00 -146.10424490  48.01979371
3352.00 -146.26673614  48.10051046
3354.00 -146.42928825  48.18130884
3356.00 -146.59190119  48.26218885
3358.00 -146.75457490  48.34315052
3360.00 -146.91730932  48.42419387
3362.00 -147.08010442  48.50531891
3364.00 -147.24296012  48.58652566
3366.00 -147.40587639  48.66781414
3368.00 -147.56885316  48.74918437
3370.00 -147.73189040  48.83063636
3372.00 -147.89498803  48.91217013
3374.00 -148.05814601  48.99378571
3376.00 -148.22136430  49.07548310
3378.00 -148.38464282  49.15726232
3380.00 -148.54798154  49.23912340
3382.00 -148.71138040  49.32106635
3384.00 -148.87483935  49.40309119
3386.00 -149.03835833  49.48519793
3388.00 -149.20193730  49.56738659
3390.00 -149.36557619  49.64965720
3392.00 -149.52927497  49.73200976
3394.00 -149.69303356  49.81444429
3396.00 -149.85685193  49.89696082
3398.00 -150.02073002  49.97955935
3400.00 -150.18466777  50.06223991
3402.00 -150.34866514  50.14500252
3404.00 -150.51272207  50.22784718
3406.00 -150.67683851  50.31077392
3408.00 -150.84101441  50.39378276
3410.00 -151.00524971  50.47687371
3412.00 -151.16954436  50.56004678
3414.00 -151.33389831  50.64330200
3416.00 -151.49831150  50.72663938
3418.00 -151.66278389  50.81005894
3420.00 -151.82731542  50.89356070
3422.00 -151.99190604  50.97714467
3424.00 -152.15655569  51.06081086
3426.00 -152.32126433  51.14455930
3428.00 -152.48603190  51.22839000
3430.00 -152.65085834  51.31230299
3432.00 -152.81574361  51.39629826
3434.00 -152.98068766  51.48037585
3436.00 -153.14569042  51.56453577
3438.00 -153.31075185  51.64877802
3440.00 -153.47587190  51.73310264
3442.00 -153.64105051  51.81750964
3444.00 -153.80628762  51.90199903
3446.00 -153.97158320  51.98657083
3448.00 -154.13693718  52.07122506
3450.00 -154.30234951  52.15596172
3452.00 -154.46782014  52.24078085
3454.00 -154.63334902  52.32568245
3456.00 -154.79893609  52.41066654
3458.00 -154.96458131  52.49573313
3460.00 -155.13028461  52.58088225
3462.00 -155.29604595  52.66611390
3464.00 -155.46186527  52.75142811
3466.00 -155.62774253  52.83682489
3468.00 -155.79367766  52.92230425
3470.00 -155.95967062  53.00786621
3472.00 -156.12572135  53.09351079
3474.00 -156.29182981  53.17923800
3476.00 -156.45799593  53.26504787
3478.00 -156.62421967  53.35094039
3480.00 -156.79050097  53.43691559
3482.00 -156.95683979  53.52297349
3484.00 -157.12323606  53.60911410
3486.00 -157.28968974  53.69533743
3488.00 -157.45620077  53.78164351
3490.00 -157.62276910  53.86803234
3492.00 -157.78939468  53.95450394
3494.00 -157.95607745  54.04105833
3496.00 -158.12281737  54.12769553
3498.00 -158.28961438  54.21441554
3500.00 -158.45646842  54.30121838
3502.00 -158.62337945  54.38810407
3504.00 -158.79034742  54.47507262
3506.00 -158.95737226  54.56212405
3508.00 -159.12445393  54.64925837
3510.00 -159.29159238  54.73647561
3512.00 -159.45878755  54.82377576
3514.00 -159.62603938  54.91115885
3516.00 -159.79334784  54.99862489
3518.00 -159.96071286  55.08617390
3520.00 -160.12813440  55.17380590
3522.00 -160.29561239  55.26152089
3524.00 -160.46314679  55.34931889
3526.00 -160.63073754  55.43719991
3528.00 -160.79838460  55.52516398
3530.00 -160.96608791  55.61321110
3532.00 -161.13384741  55.70134130
3534.00 -161.30166306  55.78955457
3536.00 -161.46953480  55.87785095
3538.00 -161.63746258  55.96623043
3540.00 -161.80544635  56.05469305
3542.00 -161.97348606  56.14323881
3544.00 -162.14158164  56.23186772
3546.00 -162.30973305  56.32057980
3548.00 -162.47794025  56.40937507
3550.00 -162.64620316  56.49825353
3552.00 -162.81452175  56.58721521
3554.00 -162.98289596  56.67626012
3556.00 -163.15132573  56.76538827
3558.00 -163.31981102  56.85459967
3560.00 -163.48835177  56.94389434
3562.00 -163.65694793  57.03327229
3564.00 -163.82559945  57.12273354
3566.00 -163.99430628  57.21227810
3568.00 -164.16306835  57.30190598
3570.00 -164.33188563  57.39161721
3572.00 -164.50075805  57.48141178
3574.00 -164.66968557  57.57128972
3576.00 -164.83866813  57.66125104
3578.00 -165.00770567  57.75129575
3580.00 -165.17679816  57.84142387
3582.00 -165.34594553  57.93163541
3584.00 -165.51514774  58.02193038
3586.00 -165.68440472  58.11230880
3588.00 -165.85371643  58.20277068
3590.00 -166.02308282  58.29331604
3592.00 -166.19250383  58.38394488
3594.00 -166.36197941  58.47465722
3596.00 -166.53150951  58.56545307
3598.00 -166.70109407  58.65633246
3600.00 -166.87073304  58.74729538
3602.00 -167.04042638  58.83834185
3604.00 -167.21017403  58.92947189
3606.00 -167.37997593  59.02068552
3608.00 -167.54983203  59.11198273
3610.00 -167.71974228  59.20336355
3612.00 -167.88970664  59.29482798
3614.00 -168.05972504  59.38637605
3616.00 -168.22979743  59.47800777
3618.00 -168.39992376  59.56972314
3620.00 -168.57010399  59.66152218
3622.00 -168.74033804  59.75340490
3624.00 -168.91062589  59.84537132
3626.00 -169.08096746  59.93742144
3628.00 -169.25136272  60.02955529
3630.00 -169.42181160  60.12177287
3632.00 -169.59231405  60.21407420
3634.00 -169.76287003  60.30645928
3636.00 -169.93347948  60.39892814
3638.00 -170.10414235  60.49148078
3640.00 -170.27485858  60.58411721
3642.00 -170.44562812  60.67683745
3644.00 -170.61645092  60.76964152
3646.00 -170.78732694  60.86252941
3648.00 -170.95825610  60.95550116
3650.00 -171.12923837  61.04855675
3652.00 -171.30027370  61.14169622
3654.00 -171.47136202  61.23491957
3656.00 -171.64250329  61.32822682
3658.00 -171.81369745  61.42161797
3660.00 -171.98494445  61.51509303
3662.00 -172.15624424  61.60865203
3664.00 -172.32759677  61.70229497
3666.00 -172.49900199  61.79602186
3668.00 -172.67045983  61.88983272
3670.00 -172.84197026  61.98372755
3672.00 -173.01353322  62.07770638
3674.00 -173.18514865  62.17176920
3676.00 -173.35681650  62.26591604
3678.00 -173.52853673  62.36014691
3680.00 -173.70030927  62.45446180
3682.00 -173.87213409  62.54886075
3684.00 -174.04401111  62.64334376
3686.00 -174.21594030  62.73791083
3688.00 -174.38792160  62.83256199
3690.00 -174.55995495  62.92729724
3692.00 -174.73204031  63.02211660
3694.00 -174.90417763  63.11702007
3696.00 -175.07636684  63.21200768
3698.00 -175.24860790  63.30707942
3700.00 -175.42090076  63.40223531
3702.00 -175.59324537  63.49747536
3704.00 -175.76564166  63.59279959
3706.00 -175.93808960  63.68820800
3708.00 -176.11058912  63.78370060
3710.00 -176.28314018  63.87927741
3712.00 -176.45574272  63.97493844
3714.00 -176.62839670  64.07068369
3716.00 -176.80110205  64.16651319
3718.00 -176.97385873  64.26242693
3720.00 -177.14666668  64.35842494
3722.00 -177.31952585  64.45450722
3724.00 -177.49243620  64.55067378
3726.00 -177.66539766  64.64692463
3728.00 -177.83841019  64.74325979
3730.00 -178.01147373  64.83967926
3732.00 -178.18458824  64.93618306
3734.00 -178.35775365  65.03277119
3736.00 -178.53096992  65.12944367
3738.00 -178.70423700  65.22620051
3740.00 -178.87755483  65.32304172
3742.00 -179.05092336  65.41996730
3744.00 -179.22434254  65.51697727
3746.00 -179.39781231  65.61407164
3748.00 -179.57133263  65.71125042
3750.00 -179.74490344  65.80851362
3752.00 -179.91852470  65.90586125
3754.00 -180.09219634  66.00329332
3756.00 -180.26591832  66.10080984
3758.00 -180.43969058  66.19841082
3760.00 -180.61351307  66.29609627
3762.00 -180.78738575  66.39386620
3764.00 -180.96130855  66.49172062
3766.00 -181.13528143  66.58965955
3768.00 -181.30930433  66.68768298
3770.00 -181.48337720  66.78579094
3772.00 -181.65750000  66.88398342
3774.00 -181.83167266  66.98226045
3776.00 -182.00589513  67.08062202
3778.00 -182.18016738  67.17906816
3780.00 -182.35448933  67.27759886
3782.00 -182.52886094  67.37621415
3784.00 -182.70328216  67.47491402
3786.00 -182.87775294  67.57369849
3788.00 -183.05227322  67.67256757
3790.00 -183.22684295  67.77152127
3792.00 -183.40146208  67.87055960
3794.00 -183.57613056  67.96968256
3796.00 -183.75084834  68.06889017
3798.00 -183.92561536  68.16818244
3800.00 -184.10043157  68.26755937
3802.00 -184.27529692  68.36702097
3804.00 -184.45021137  68.46656726
3806.00 -184.62517484  68.56619824
3808.00 -184.80018730  68.66591393
3810.00 -184.97524870  68.76571432
3812.00 -185.15035897  68.86559944
3814.00 -185.32551808  68.96556928
3816.00 -185.50072596  69.06562387
3818.00 -185.67598256  69.16576320
3820.00 -185.85128784  69.26598729
3822.00 -186.02664174  69.36629614
3824.00 -186.20204421  69.46668977
3826.00 -186.37749520  69.56716819
3828.00 -186.55299465  69.66773139
3830.00 -186.72854251  69.76837940
3832.00 -186.90413874  69.86911222
3834.00 -187.07978328  69.96992986
3836.00 -187.25547607  70.07083232
3838.00 -187.43121708  70.17181962
3840.00 -187.60700623  70.27289176
3842.00 -187.78284349  70.37404876
3844.00 -187.95872881  70.47529062
3846.00 -188.13466212  70.57661735
3848.00 -188.31064337  70.67802896
3850.00 -188.48667253  70.77952546
3852.00 -188.66274953  70.88110685
3854.00 -188.83887432  70.98277315
3856.00 -189.01504685  71.08452436
3858.00 -189.19126707  71.18636049
3860.00 -189.36753492  71.28828155
3862.00 -189.54385036  71.39028754
3864.00 -189.72021334  71.49237848
3866.00 -189.89662380  71.59455438
3868.00 -190.07308168  71.69681524
3870.00 -190.24958695  71.79916106
3872.00 -190.42613954  71.90159187
3874.00 -190.60273941  72.00410766
3876.00 -190.77938650  72.10670844
3878.00 -190.95608076  72.20939423
3880.00 -191.13282214  72.31216502
3882.00 -191.30961059  72.41502084
3884.00 -191.48644606  72.51796168
3886.00 -191.66332849  72.62098755
3888.00 -191.84025784  72.72409846
3890.00 -192.01723405  72.82729442
3892.00 -192.19425707  72.93057544
3894.00 -192.37132684  73.03394152
3896.00 -192.54844333  73.13739267
3898.00 -192.72560647  73.24092890
3900.00 -192.90281621  73.34455022
3902.00 -193.08007250  73.44825663
3904.00 -193.25737530  73.55204815
3906.00 -193.43472455  73.65592477
3908.00 -193.61212019  73.75988651
3910.00 -193.78956218  73.86393337
3912.00 -193.96705046  73.96806536
3914.00 -194.14458499  74.07228249
3916.00 -194.32216570  74.17658477
3918.00 -194.49979256  74.28097220
3920.00 -194.67746551  74.38544479
3922.00 -194.85518449  74.49000255
3924.00 -195.03294946  74.59464548
3926.00 -195.21076036  74.69937359
3928.00 -195.38861715  74.80418689
3930.00 -195.56651976  74.90908538
3932.00 -195.74446816  75.01406908
3934.00 -195.92246228  75.11913798
3936.00 -196.10050208  75.22429210
3938.00 -196.27858751  75.32953144
3940.00 -196.45671851  75.43485602
3942.00 -196.63489503  75.54026583
3944.00 -196.81311702  75.64576088
3946.00 -196.99138443  75.75134118
3948.00 -197.16969721  75.85700674
3950.00 -197.34805531  75.96275756
3952.00 -197.52645868  76.06859365
3954.00 -197.70490725  76.17451501
3956.00 -197.88340099  76.28052166
3958.00 -198.06193984  76.38661360
3960.00 -198.24052375  76.49279083
3962.00 -198.41915267  76.59905336
3964.00 -198.59782655  76.70540121
3966.00 -198.77654534  76.81183436
3968.00 -198.95530897  76.91835284
3970.00 -199.13411742  77.02495664
3972.00 -199.31297061  77.13164578
3974.00 -199.49186851  77.23842026
3976.00 -199.67081105  77.34528008
3978.00 -199.84979819  77.45222526
3980.00 -200.02882988  77.55925579
3982.00 -200.20790607  77.66637169
3984.00 -200.38702670  77.77357295
3986.00 -200.56619173  77.88085960
3988.00 -200.74540109  77.98823162
3990.00 -200.92465475  78.09568903
3992.00 -201.10395265  78.20323184
3994.00 -201.28329474  78.31086004
3996.00 -201.46268096  78.41857365
3998.00 -201.64211127  78.52637267
4000.00 -201.82158562  78.63425711
4002.00 -202.00110394  78.74222697
4004.00 -202.18066621  78.85028225
4006.00 -202.36027235  78.95842297
4008.00 -202.53992233  79.06664913
4010.00 -202.71961608  79.17496074
4012.00 -202.89935356  79.28335779
4014.00 -203.07913472  79.39184030
4016.00 -203.25895951  79.50040828
4018.00 -203.43882787  79.60906171
4020.00 -203.61873976  79.71780062
4022.00 -203.79869512  79.82662501
4024.00 -203.97869390  79.93553488
4026.00 -204.15873605  80.04453024
4028.00 -204.33882152  80.15361109
4030.00 -204.51895026  80.26277744
4032.00 -204.69912222  80.37202929
4034.00 -204.87933735  80.48136665
4036.00 -205.05959559  80.59078953
4038.00 -205.23989690  80.70029792
4040.00 -205.42024122  80.80989184
4042.00 -205.60062850  80.91957128
4044.00 -205.78105870  81.02933626
4046.00 -205.96153175  81.13918678
4048.00 -206.14204762  81.24912284
4050.00 -206.32260625  81.35914445
4052.00 -206.50320758  81.46925161
4054.00 -206.68385157  81.57944433
4056.00 -206.86453817  81.68972261
4058.00 -207.04526733  81.80008646
4060.00 -207.22603899  81.91053588
4062.00 -207.40685310  82.02107088
4064.00 -207.58770962  82.13169146
4066.00 -207.76860849  82.24239762
4068.00 -207.94954966  82.35318938
4070.00 -208.13053308  82.46406673
4072.00 -208.31155870  82.57502967
4074.00 -208.49262647  82.68607822
4076.00 -208.67373634  82.79721238
4078.00 -208.85488825  82.90843216
4080.00 -209.03608217  83.01973754
4082.00 -209.21731803  83.13112855
4084.00 -209.39859578  83.24260519
4086.00 -209.57991538  83.35416745
4088.00 -209.76127677  83.46581535
4090.00 -209.94267990  83.57754888
4092.00 -210.12412473  83.68936806
4094.00 -210.30561120  83.80127288
4096.00 -210.48713926  83.91326335
4098.00 -210.66870886  84.02533948
4100.00 -210.85031995  84.13750126
4102.00 -211.03197248  84.24974871
4104.00 -211.21366640  84.36208182
4106.00 -211.39540165  84.47450060
4108.00 -211.57717819  84.58700505
4110.00 -211.75899597  84.69959518
4112.00 -211.94085494  84.81227100
4114.00 -212.12275503  84.92503249
4116.00 -212.30469622  85.03787968
4118.00 -212.48667844  85.15081255
4120.00 -212.66870164  85.26383113
4122.00 -212.85076577  85.37693540
4124.00 -213.03287079  85.49012537
4126.00 -213.21501664  85.60340105
4128.00 -213.39720327  85.71676244
4130.00 -213.57943063  85.83020954
4132.00 -213.76169867  85.94374236
4134.00 -213.94400734  86.05736090
4136.00 -214.12635660  86.17106517
4138.00 -214.30874638  86.28485516
4140.00 -214.49117664  86.39873088
4142.00 -214.67364732  86.51269233
4144.00 -214.85615839  86.62673952
4146.00 -215.03870978  86.74087245
4148.00 -215.22130145  86.85509112
4150.00 -215.40393334  86.96939553
4152.00 -215.58660541  87.08378570
4154.00 -215.76931761  87.19826162
4156.00 -215.95206988  87.31282329
4158.00 -216.13486218  87.42747072
4160.00 -216.31769445  87.54220391
4162.00 -216.50056665  87.65702287
4164.00 -216.68347872  87.77192759
4166.00 -216.86643062  87.88691808
4168.00 -217.04942228  88.00199434
4170.00 -217.23245367  88.11715638
4172.00 -217.41552474  88.23240420
4174.00 -217.59863542  88.34773780
4176.00 -217.78178568  88.46315718
4178.00 -217.96497546  88.57866234
4180.00 -218.14820472  88.69425329
4182.00 -218.33147339  88.80993004
4184.00 -218.51478144  88.92569258
4186.00 -218.69812881  89.04154091
4188.00 -218.88151544  89.15747504
4190.00 -219.06494130  89.27349498
4192.00 -219.24840633  89.38960071
4194.00 -219.43191049  89.50579225
4196.00 -219.61545371  89.62206960
4198.00 -219.79903595  89.73843276
4200.00 -219.98265716  89.85488174
4202.00 -220.16631729  89.97141652
4204.00 -220.35001630  90.08803713
4206.00 -220.53375412  90.20474355
4208.00 -220.71753071  90.32153580
4210.00 -220.90134603  90.43841386
4212.00 -221.08520001  90.55537776
4214.00 -221.26909261  90.67242748
4216.00 -221.45302379  90.78956303
4218.00 -221.63699348  90.90678441
4220.00 -221.82100164  91.02409162
4222.00 -222.00504822  91.14148467
4224.00 -222.18913318  91.25896356
4226.00 -222.37325645  91.37652828
4228.00 -222.55741799  91.49417885
4230.00 -222.74161775  91.61191526
4232.00 -222.92585569  91.72973751
4234.00 -223.11013174  91.84764561
4236.00 -223.29444586  91.96563955
4238.00 -223.47879801  92.08371935
4240.00 -223.66318812  92.20188499
4242.00 -223.84761616  92.32013649
4244.00 -224.03208206  92.43847384
4246.00 -224.21658579  92.55689705
4248.00 -224.40112729  92.67540611
4250.00 -224.58570651  92.79400103
4252.00 -224.77032340  92.91268181
4254.00 -224.95497792  93.03144846
4256.00 -225.13967001  93.15030096
4258.00 -225.32439961  93.26923933
4260.00 -225.50916670  93.38826356
4262.00 -225.69397120  93.50737366
4264.00 -225.87881308  93.62656962
4266.00 -226.06369228  93.74585146
4268.00 -226.24860875  93.86521916
4270.00 -226.43356245  93.98467274
4272.00 -226.61855333  94.10421218
4274.00 -226.80358133  94.22383750
4276.00 -226.98864640  94.34354869
4278.00 -227.17374850  94.46334576
4280.00 -227.35888757  94.58322870
4282.00 -227.54406358  94.70319752
4284.00 -227.72927645  94.82325222
4286.00 -227.91452616  94.94339279
4288.00 -228.09981264  95.06361925
4290.00 -228.28513585  95.18393158
4292.00 -228.47049574  95.30432980
4294.00 -228.65589226  95.42481389
4296.00 -228.84132536  95.54538387
4298.00 -229.02679499  95.66603973
4300.00 -229.21230110  95.78678147
4302.00 -229.39784363  95.90760910
4304.00 -229.58342256  96.02852261
4306.00 -229.76903781  96.14952201
4308.00 -229.95468934  96.27060729
4310.00 -230.14037711  96.39177846
4312.00 -230.32610106  96.51303551
4314.00 -230.51186115  96.63437845
4316.00 -230.69765732  96.75580728
4318.00 -230.88348953  96.87732199
4320.00 -231.06935772  96.99892259
4322.00 -231.25526185  97.12060908
4324.00 -231.44120187  97.24238146
4326.00 -231.62717773  97.36423972
4328.00 -231.81318937  97.48618388
4330.00 -231.99923676  97.60821392
4332.00 -232.18531983  97.73032985
4334.00 -232.37143855  97.85253167
4336.00 -232.55759286  97.97481937
4338.00 -232.74378271  98.09719297
4340.00 -232.93000805  98.21965246
4342.00 -233.11626884  98.34219783
4344.00 -233.30256502  98.46482909
4346.00 -233.48889655  98.58754624
4348.00 -233.67526337  98.71034928
4350.00 -233.86166545  98.83323820
4352.00 -234.04810272  98.95621302
4354.00 -234.23457514  99.07927372
4356.00 -234.42108266  99.20242031
4358.00 -234.60762523  99.32565278
4360.00 -234.79420280  99.44897114
4362.00 -234.98081533  99.57237539
4364.00 -235.16746276  99.69586552
4366.00 -235.35414504  99.81944154
4368.00 -235.54086213  99.94310344
4370.00 -235.72761397 100.06685123
4372.00 -235.91440053 100.19068490
4374.00 -236.10122174 100.31460445
4376.00 -236.28807756 100.43860989
4378.00 -236.47496794 100.56270120
4380.00 -236.66189284 100.68687840
4382.00 -236.84885219 100.81114148
4384.00 -237.03584596 100.93549044
4386.00 -237.22287410 101.05992528
4388.00 -237.40993655 101.18444599
4390.00 -237.59703326 101.30905259
4392.00 -237.78416420 101.43374505
4394.00 -237.97132930 101.55852340
4396.00 -238.15852853 101.68338762
4398.00 -238.34576183 101.80833771
4400.00 -238.53302915 101.93337368
4402.00 -238.72033044 102.05849551
4404.00 -238.90766566 102.18370322
4406.00 -239.09503476 102.30899680
4408.00 -239.28243768 102.43437624
4410.00 -239.46987438 102.55984155
4412.00 -239.65734481 102.68539273
4414.00 -239.84484893 102.81102977
4416.00 -240.03238667 102.93675268
4418.00 -240.21995800 103.06256145
4420.00 -240.40756287 103.18845608
4422.00 -240.59520122 103.31443657
4424.00 -240.78287301 103.44050291
4426.00 -240.97057819 103.56665512
4428.00 -241.15831671 103.69289318
4430.00 -241.34608852 103.81921709
4432.00 -241.53389358 103.94562686
4434.00 -241.72173183 104.07212247
4436.00 -241.90960323 104.19870394
4438.00 -242.09750773 104.32537125
4440.00 -242.28544527 104.45212441
4442.00 -242.47341582 104.57896342
4444.00 -242.66141932 104.70588827
4446.00 -242.84945572 104.83289896
4448.00 -243.03752498 104.95999548
4450.00 -243.22562704 105.08717785
4452.00 -243.41376186 105.21444605
4454.00 -243.60192940 105.34180009
4456.00 -243.79012959 105.46923995
4458.00 -243.97836240 105.59676565
4460.00 -244.16662777 105.72437718
4462.00 -244.35492566 105.85207453
4464.00 -244.54325602 105.97985771
4466.00 -244.73161879 106.10772671
4468.00 -244.92001394 106.23568153
4470.00 -245.10844141 106.36372217
4472.00 -245.29690116 106.49184862
4474.00 -245.48539313 106.62006089
4476.00 -245.67391728 106.74835897
4478.00 -245.86247356 106.87674286
4480.00 -246.05106193 107.00521255
4482.00 -246.23968232 107.13376806
4484.00 -246.42833470 107.26240936
4486.00 -246.61701902 107.39113647
4488.00 -246.80573523 107.51994937
4490.00 -246.99448328 107.64884807
4492.00 -247.18326312 107.77783256
4494.00 -247.37207470 107.90690285
4496.00 -247.56091798 108.03605892
4498.00 -247.74979291 108.16530078
4500.00 -247.93869944 108.29462842
4502.00 -248.12763752 108.42404184
4504.00 -248.31660711 108.55354104
4506.00 -248.50560815 108.68312601
4508.00 -248.69464060 108.81279676
4510.00 -248.88370441 108.94255328
4512.00 -249.07279953 109.07239557
4514.00 -249.26192591 109.20232362
4516.00 -249.45108351 109.33233743
4518.00 -249.64027228 109.46243701
4520.00 -249.82949217 109.59262234
4522.00 -250.01874313 109.72289342
4524.00 -250.20802511 109.85325025
4526.00 -250.39733807 109.98369283
4528.00 -250.58668196 110.11422116
4530.00 -250.77605673 110.24483523
4532.00 -250.96546233 110.37553503
4534.00 -251.15489872 110.50632057
4536.00 -251.34436584 110.63719185
4538.00 -251.53386366 110.76814885
4540.00 -251.72339211 110.89919158
4542.00 -251.91295116 111.03032003
4544.00 -252.10254075 111.16153421
4546.00 -252.29216084 111.29283410
4548.00 -252.48181139 111.42421970
4550.00 -252.67149233 111.55569101
4552.00 -252.86120363 111.68724803
4554.00 -253.05094524 111.81889076
4556.00 -253.24071710 111.95061918
4558.00 -253.43051918 112.08243330
4560.00 -253.62035142 112.21433312
4562.00 -253.81021378 112.34631862
4564.00 -254.00010621 112.47838981
4566.00 -254.19002866 112.61054668
4568.00 -254.37998108 112.74278924
4570.00 -254.56996343 112.87511746
4572.00 -254.75997566 113.00753136
4574.00 -254.95001772 113.14003093
4576.00 -255.14008957 113.27261617
4578.00 -255.33019115 113.40528706
4580.00 -255.52032242 113.53804361
4582.00 -255.71048333 113.67088582
4584.00 -255.90067383 113.80381367
4586.00 -256.09089388 113.93682717
4588.00 -256.28114343 114.06992632
4590.00 -256.47142243 114.20311110
4592.00 -256.66173083 114.33638151
4594.00 -256.85206860 114.46973756
4596.00 -257.04243567 114.60317923
4598.00 -257.23283200 114.73670653
4600.00 -257.42325755 114.87031944
4602.00 -257.61371227 115.00401797
4604.00 -257.80419610 115.13780211
4606.00 -257.99470901 115.27167185
4608.00 -258.18525094 115.40562720
4610.00 -258.37582186 115.53966814
4612.00 -258.56642170 115.67379468
4614.00 -258.75705043 115.80800680
4616.00 -258.94770800 115.94230452
4618.00 -259.13839435 116.07668781
4620.00 -259.32910945 116.21115668
4622.00 -259.51985324 116.34571112
4624.00 -259.71062568 116.48035113
4626.00 -259.90142672 116.61507670
4628.00 -260.09225632 116.74988783
4630.00 -260.28311442 116.88478452
4632.00 -260.47400098 117.01976676
4634.00 -260.66491596 117.15483454
4636.00 -260.85585930 117.28998786
4638.00 -261.04683096 117.42522672
4640.00 -261.23783089 117.56055111
4642.00 -261.42885905 117.69596103
4644.00 -261.61991538 117.83145647
4646.00 -261.81099985 117.96703743
4648.00 -262.00211239 118.10270390
4650.00 -262.19325298 118.23845589
4652.00 -262.38442156 118.37429337
4654.00 -262.57561807 118.51021635
4656.00 -262.76684249 118.64622483
4658.00 -262.95809475 118.78231879
4660.00 -263.14937482 118.91849824
4662.00 -263.34068264 119.05476317
4664.00 -263.53201818 119.19111358
4666.00 -263.72338137 119.32754945
4668.00 -263.91477218 119.46407079
4670.00 -264.10619056 119.60067758
4672.00 -264.29763646 119.73736984
4674.00 -264.48910983 119.87414754
4676.00 -264.68061064 120.01101068
4678.00 -264.87213882 120.14795926
4680.00 -265.06369434 120.28499328
4682.00 -265.25527715 120.42211273
4684.00 -265.44688720 120.55931759
4686.00 -265.63852445 120.69660788
4688.00 -265.83018885 120.83398358
4690.00 -266.02188034 120.97144469
4692.00 -266.21359890 121.10899120
4694.00 -266.40534446 121.24662310
4696.00 -266.59711698 121.38434040
4698.00 -266.78891642 121.52214308
4700.00 -266.98074273 121.66003115
4702.00 -267.17259586 121.79800458
4704.00 -267.36447577 121.93606339
4706.00 -267.55638241 122.07420756
4708.00 -267.74831573 122.21243710
4710.00 -267.94027568 122.35075198
4712.00 -268.13226223 122.48915221
4714.00 -268.32427533 122.62763778
4716.00 -268.51631492 122.76620869
4718.00 -268.70838096 122.90486493
4720.00 -268.90047341 123.04360649
4722.00 -269.09259221 123.18243337
4724.00 -269.28473733 123.32134556
4726.00 -269.47690872 123.46034306
4728.00 -269.66910632 123.59942586
4730.00 -269.86133010 123.73859396
4732.00 -270.05358001 123.87784735
4734.00 -270.24585600 124.01718602
4736.00 -270.43815802 124.15660996
4738.00 -270.63048603 124.29611918
4740.00 -270.82283999 124.43571367
4742.00 -271.01521984 124.57539341
4744.00 -271.20762554 124.71515841
4746.00 -271.40005705 124.85500865
4748.00 -271.59251431 124.99494414
4750.00 -271.78499729 125.13496486
4752.00 -271.97750593 125.27507081
4754.00 -272.17004019 125.41526198
4756.00 -272.36260003 125.55553837
4758.00 -272.55518539 125.69589997
4760.00 -272.74779624 125.83634677
4762.00 -272.94043252 125.97687877
4764.00 -273.13309419 126.11749596
4766.00 -273.32578121 126.25819834
4768.00 -273.51849352 126.39898589
4770.00 -273.71123109 126.53985862
4772.00 -273.90399386 126.68081651
4774.00 -274.09678180 126.82185956
4776.00 -274.28959485 126.96298777
4778.00 -274.48243296 127.10420112
4780.00 -274.67529610 127.24549961
4782.00 -274.86818422 127.38688323
4784.00 -275.06109727 127.52835198
4786.00 -275.25403520 127.66990585
4788.00 -275.44699798 127.81154483
4790.00 -275.63998555 127.95326892
4792.00 -275.83299786 128.09507811
4794.00 -276.02603488 128.23697239
4796.00 -276.21909656 128.37895175
4798.00 -276.41218285 128.52101620
4800.00 -276.60529370 128.66316572
4802.00 -276.79842907 128.80540030
4804.00 -276.99158892 128.94771994
4806.00 -277.18477320 129.09012464
4808.00 -277.37798186 129.23261438
4810.00 -277.57121486 129.37518916
4812.00 -277.76447215 129.51784896
4814.00 -277.95775368 129.66059380
4816.00 -278.15105942 129.80342365
4818.00 -278.34438932 129.94633850
4820.00 -278.53774332 130.08933837
4822.00 -278.73112139 130.23242322
4824.00 -278.92452348 130.37559307
4826.00 -279.11794954 130.51884790
4828.00 -279.31139953 130.66218770
4830.00 -279.50487340 130.80561247
4832.00 -279.69837111 130.94912219
4834.00 -279.89189261 131.09271687
4836.00 -280.08543786 131.23639650
4838.00 -280.27900682 131.38016106
4840.00 -280.47259942 131.52401055
4842.00 -280.66621564 131.66794497
4844.00 -280.85985543 131.81196430
4846.00 -281.05351873 131.95606854
4848.00 -281.24720552 132.10025768
4850.00 -281.44091573 132.24453171
4852.00 -281.63464932 132.38889063
4854.00 -281.82840626 132.53333443
4856.00 -282.02218649 132.67786310
4858.00 -282.21598997 132.82247663
4860.00 -282.40981666 132.96717501
4862.00 -282.60366650 133.11195824
4864.00 -282.79753946 133.25682632
4866.00 -282.99143549 133.40177922
4868.00 -283.18535454 133.54681695
4870.00 -283.37929657 133.69193950
4872.00 -283.57326154 133.83714685
4874.00 -283.76724939 133.98243901
4876.00 -283.96126009 134.12781596
4878.00 -284.15529359 134.27327770
4880.00 -284.34934984 134.41882421
4882.00 -284.54342880 134.56445549
4884.00 -284.73753043 134.71017154
4886.00 -284.93165467 134.85597234
4888.00 -285.12580149 135.00185788
4890.00 -285.31997084 135.14782816
4892.00 -285.51416268 135.29388317
4894.00 -285.70837695 135.44002291
4896.00 -285.90261363 135.58624735
4898.00 -286.09687265 135.73255651
4900.00 -286.29115397 135.87895036
4902.00 -286.48545756 136.02542890
4904.00 -286.67978337 136.17199212
4906.00 -286.87413134 136.31864001
4908.00 -287.06850145 136.46537257
4910.00 -287.26289363 136.61218978
4912.00 -287.45730786 136.75909164
4914.00 -287.65174408 136.90607814
4916.00 -287.84620224 137.05314928
4918.00 -288.04068231 137.20030503
4920.00 -288.23518424 137.34754540
4922.00 -288.42970798 137.49487038
4924.00 -288.62425350 137.64227995
4926.00 -288.81882074 137.78977412
4928.00 -289.01340966 137.93735286
4930.00 -289.20802022 138.08501618
4932.00 -289.40265237 138.23276406
4934.00 -289.59730607 138.38059649
4936.00 -289.79198127 138.52851347
4938.00 -289.98667793 138.67651499
4940.00 -290.18139600 138.82460104
4942.00 -290.37613545 138.97277161
4944.00 -290.57089622 139.12102669
4946.00 -290.76567828 139.26936627
4948.00 -290.96048157 139.41779035
4950.00 -291.15530605 139.56629891
4952.00 -291.35015168 139.71489195
4954.00 -291.54501842 139.86356946
4956.00 -291.73990622 140.01233143
4958.00 -291.93481503 140.16117785
4960.00 -292.12974481 140.31010870
4962.00 -292.32469553 140.45912400
4964.00 -292.51966712 140.60822371
4966.00 -292.71465956 140.75740784
4968.00 -292.90967279 140.90667637
4970.00 -293.10470677 141.05602930
4972.00 -293.29976146 141.20546662
4974.00 -293.49483681 141.35498832
4976.00 -293.68993278 141.50459438
4978.00 -293.88504933 141.65428481
4980.00 -294.08018640 141.80405959
4982.00 -294.27534397 141.95391871
4984.00 -294.47052197 142.10386216
4986.00 -294.66572038 142.25388993
4988.00 -294.86093914 142.40400202
4990.00 -295.05617821 142.55419841
4992.00 -295.25143755 142.70447910
4994.00 -295.44671711 142.85484408
4996.00 -295.64201685 143.00529333
4998.00 -295.83733673 143.15582685
5000.00 -296.03267669 143.30644463
