wavelength(nm)         real         imag
100.00   3.71370750   0.00178019
102.00   3.70618200   0.00188915
104.00   3.69850753   0.00200246
106.00   3.69068411   0.00212022
108.00   3.68271173   0.00224250
110.00   3.67459040   0.00236939
112.00   3.66632012   0.00250099
114.00   3.65790089   0.00263736
116.00   3.64933272   0.00277861
118.00   3.64061562   0.00292481
120.00   3.63174958   0.00307605
122.00   3.62273461   0.00323242
124.00   3.61357071   0.00339399
126.00   3.60425790   0.00356087
128.00   3.59479616   0.00373312
130.00   3.58518551   0.00391084
132.00   3.57542595   0.00409411
134.00   3.56551749   0.00428302
136.00   3.55546012   0.00447765
138.00   3.54525386   0.00467809
140.00   3.53489870   0.00488442
142.00   3.52439466   0.00509673
144.00   3.51374174   0.00531511
146.00   3.50293993   0.00553963
148.00   3.49198926   0.00577039
150.00   3.48088971   0.00600747
152.00   3.46964130   0.00625095
154.00   3.45824403   0.00650092
156.00   3.44669791   0.00675747
158.00   3.43500294   0.00702068
160.00   3.42315912   0.00729064
162.00   3.41116647   0.00756742
164.00   3.39902498   0.00785112
166.00   3.38673467   0.00814183
168.00   3.37429553   0.00843962
170.00   3.36170757   0.00874458
172.00   3.34897080   0.00905680
174.00   3.33608523   0.00937637
176.00   3.32305086   0.00970336
178.00   3.30986769   0.01003786
180.00   3.29653573   0.01037997
182.00   3.28305499   0.01072975
184.00   3.26942547   0.01108731
186.00   3.25564718   0.01145272
188.00   3.24172012   0.01182607
190.00   3.22764431   0.01220744
192.00   3.21341974   0.01259692
194.00   3.19904643   0.01299460
196.00   3.18452437   0.01340056
198.00   3.16985358   0.01381488
200.00   3.15503407   0.01423765
202.00   3.14006583   0.01466896
204.00   3.12494888   0.01510889
206.00   3.10968321   0.01555752
208.00   3.09426885   0.01601494
210.00   3.07870580   0.01648124
212.00   3.06299405   0.01695650
214.00   3.04713362   0.01744081
216.00   3.03112453   0.01793425
218.00   3.01496676   0.01843690
220.00   2.99866033   0.01894886
222.00   2.98220525   0.01947020
224.00   2.96560153   0.02000102
226.00   2.94884916   0.02054139
228.00   2.93194817   0.02109140
230.00   2.91489855   0.02165114
232.00   2.89770032   0.02222069
234.00   2.88035348   0.02280014
236.00   2.86285803   0.02338957
238.00   2.84521399   0.02398906
240.00   2.82742137   0.02459871
242.00   2.80948017   0.02521859
244.00   2.79139040   0.02584880
246.00   2.77315207   0.02648941
248.00   2.75476518   0.02714052
250.00   2.73622975   0.02780220
252.00   2.71754578   0.02847455
254.00   2.69871328   0.02915764
256.00   2.67973226   0.02985156
258.00   2.66060272   0.03055640
260.00   2.64132468   0.03127224
262.00   2.62189814   0.03199917
264.00   2.60232312   0.03273727
266.00   2.58259962   0.03348662
268.00   2.56272764   0.03424732
270.00   2.54270720   0.03501944
272.00   2.52253831   0.03580308
274.00   2.50222098   0.03659831
276.00   2.48175521   0.03740522
278.00   2.46114101   0.03822390
280.00   2.44037840   0.03905442
282.00   2.41946738   0.03989689
284.00   2.39840796   0.04075137
286.00   2.37720014   0.04161796
288.00   2.35584395   0.04249674
290.00   2.33433939   0.04338779
292.00   2.31268646   0.04429121
294.00   2.29088518   0.04520706
296.00   2.26893556   0.04613545
298.00   2.24683760   0.04707645
300.00   2.22459132   0.04803015
302.00   2.20219673   0.04899663
304.00   2.17965383   0.04997598
306.00   2.15696264   0.05096829
308.00   2.13412316   0.05197363
310.00   2.11113541   0.05299210
312.00   2.08799939   0.05402377
314.00   2.06471512   0.05506873
316.00   2.04128260   0.05612707
318.00   2.01770185   0.05719887
320.00   1.99397288   0.05828422
322.00   1.97009570   0.05938320
324.00   1.94607031   0.06049589
326.00   1.92189672   0.06162238
328.00   1.89757496   0.06276276
330.00   1.87310503   0.06391711
332.00   1.84848693   0.06508551
334.00   1.82372069   0.06626805
336.00   1.79880630   0.06746481
338.00   1.77374379   0.06867588
340.00   1.74853316   0.06990134
342.00   1.72317443   0.07114128
344.00   1.69766760   0.07239578
346.00   1.67201268   0.07366492
348.00   1.64620970   0.07494880
350.00   1.62025865   0.07624749
352.00   1.59415955   0.07756108
354.00   1.56791241   0.07888965
356.00   1.54151725   0.08023330
358.00   1.51497407   0.08159209
360.00   1.48828289   0.08296612
362.00   1.46144371   0.08435548
364.00   1.43445655   0.08576024
366.00   1.40732143   0.08718049
368.00   1.38003835   0.08861631
370.00   1.35260732   0.09006780
372.00   1.32502836   0.09153503
374.00   1.29730148   0.09301809
376.00   1.26942668   0.09451706
378.00   1.24140400   0.09603202
380.00   1.21323342   0.09756307
382.00   1.18491498   0.09911029
384.00   1.15644868   0.10067375
386.00   1.12783452   0.10225355
388.00   1.09907254   0.10384977
390.00   1.07016273   0.10546249
392.00   1.04110511   0.10709179
394.00   1.01189969   0.10873777
396.00   0.98254649   0.11040051
398.00   0.95304552   0.11208008
400.00   0.92339679   0.11377658
402.00   0.89360031   0.11549009
404.00   0.86365610   0.11722069
406.00   0.83356417   0.11896846
408.00   0.80332454   0.12073350
410.00   0.77293721   0.12251588
412.00   0.74240220   0.12431569
414.00   0.71171952   0.12613302
416.00   0.68088919   0.12796794
418.00   0.64991122   0.12982055
420.00   0.61878563   0.13169092
422.00   0.58751242   0.13357914
424.00   0.55609161   0.13548529
426.00   0.52452322   0.13740947
428.00   0.49280725   0.13935174
430.00   0.46094373   0.14131220
432.00   0.42893266   0.14329094
434.00   0.39677406   0.14528802
436.00   0.36446795   0.14730355
438.00   0.33201434   0.14933759
440.00   0.29941323   0.15139024
442.00   0.26666466   0.15346159
444.00   0.23376862   0.15555170
446.00   0.20072514   0.15766068
448.00   0.16753423   0.15978860
450.00   0.13419590   0.16193554
452.00   0.10071017   0.16410159
454.00   0.06707706   0.16628684
456.00   0.03329657   0.16849136
458.00  -0.00063128   0.17071525
460.00  -0.03470647   0.17295858
462.00  -0.06892898   0.17522144
464.00  -0.10329881   0.17750391
466.00  -0.13781594   0.17980608
468.00  -0.17248035   0.18212803
470.00  -0.20729203   0.18446984
472.00  -0.24225096   0.18683160
474.00  -0.27735713   0.18921340
476.00  -0.31261052   0.19161531
478.00  -0.34801112   0.19403741
480.00  -0.38355891   0.19647980
482.00  -0.41925388   0.19894256
484.00  -0.45509600   0.20142577
486.00  -0.49108527   0.20392951
488.00  -0.52722167   0.20645387
490.00  -0.56350519   0.20899893
492.00  -0.59993580   0.21156477
494.00  -0.63651349   0.21415148
496.00  -0.67323825   0.21675915
498.00  -0.71011006   0.21938785
500.00  -0.74712890   0.22203767
502.00  -0.78429476   0.22470869
504.00  -0.82160762   0.22740100
506.00  -0.85906747   0.23011467
508.00  -0.89667428   0.23284980
510.00  -0.93442805   0.23560647
512.00  -0.97232876   0.23838476
514.00  -1.01037638   0.24118474
516.00  -1.04857091   0.24400652
518.00  -1.08691232   0.24685017
520.00  -1.12540060   0.24971577
522.00  -1.16403574   0.25260340
524.00  -1.20281771   0.25551316
526.00  -1.24174650   0.25844512
528.00  -1.28082210   0.26139937
530.00  -1.32004448   0.26437599
532.00  -1.35941362   0.26737506
534.00  -1.39892952   0.27039667
536.00  -1.43859216   0.27344090
538.00  -1.47840151   0.27650783
540.00  -1.51835756   0.27959755
542.00  -1.55846029   0.28271013
544.00  -1.59870968   0.28584567
546.00  -1.63910573   0.28900425
548.00  -1.67964840   0.29218595
550.00  -1.72033769   0.29539085
552.00  -1.76117356   0.29861903
554.00  -1.80215602   0.30187058
556.00  -1.84328504   0.30514559
558.00  -1.88456059   0.30844413
560.00  -1.92598267   0.31176629
562.00  -1.96755125   0.31511214
564.00  -2.00926632   0.31848179
566.00  -2.05112786   0.32187530
568.00  -2.09313585   0.32529276
570.00  -2.13529027   0.32873425
572.00  -2.17759111   0.33219986
574.00  -2.22003834   0.33568966
576.00  -2.26263195   0.33920375
578.00  -2.30537191   0.34274221
580.00  -2.34825822   0.34630511
582.00  -2.39129085   0.34989254
584.00  -2.43446978   0.35350458
586.00  -2.47779500   0.35714132
588.00  -2.52126648   0.36080284
590.00  -2.56488421   0.36448923
592.00  -2.60864816   0.36820055
594.00  -2.65255832   0.37193691
596.00  -2.69661467   0.37569837
598.00  -2.74081720   0.37948503
600.00  -2.78516587   0.38329696
602.00  -2.82966068   0.38713425
604.00  -2.87430159   0.39099698
606.00  -2.91908860   0.39488523
608.00  -2.96402169   0.39879909
610.00  -3.00910083   0.40273864
612.00  -3.05432600   0.40670396
614.00  -3.09969719   0.41069513
616.00  -3.14521437   0.41471224
618.00  -3.19087753   0.41875537
620.00  -3.23668665   0.42282460
622.00  -3.28264170   0.42692002
624.00  -3.32874266   0.43104170
626.00  -3.37498953   0.43518973
628.00  -3.42138226   0.43936419
630.00  -3.46792086   0.44356517
632.00  -3.51460529   0.44779274
634.00  -3.56143553   0.45204699
636.00  -3.60841157   0.45632800
638.00  -3.65553339   0.46063586
640.00  -3.70280096   0.46497064
642.00  -3.75021426   0.46933243
644.00  -3.79777328   0.47372130
646.00  -3.84547799   0.47813736
648.00  -3.89332837   0.48258066
650.00  -3.94132440   0.48705131
652.00  -3.98946606   0.49154937
654.00  -4.03775333   0.49607493
656.00  -4.08618619   0.50062808
658.00  -4.13476462   0.50520889
660.00  -4.18348860   0.50981745
662.00  -4.23235810   0.51445384
664.00  -4.28137310   0.51911815
666.00  -4.33053359   0.52381045
668.00  -4.37983954   0.52853082
670.00  -4.42929093   0.53327935
672.00  -4.47888774   0.53805612
674.00  -4.52862995   0.54286122
676.00  -4.57851753   0.54769472
678.00  -4.62855047   0.55255670
680.00  -4.67872874   0.55744726
682.00  -4.72905232   0.56236646
684.00  -4.77952119   0.56731439
686.00  -4.83013533   0.57229114
688.00  -4.88089471   0.57729679
690.00  -4.93179932   0.58233141
692.00  -4.98284913   0.58739509
694.00  -5.03404412   0.59248792
696.00  -5.08538427   0.59760996
698.00  -5.13686955   0.60276131
700.00  -5.18849994   0.60794205
702.00  -5.24027542   0.61315225
704.00  -5.29219598   0.61839201
706.00  -5.34426158   0.62366139
708.00  -5.39647220   0.62896049
710.00  -5.44882782   0.63428939
712.00  -5.50132842   0.63964816
714.00  -5.55397398   0.64503688
716.00  -5.60676446   0.65045565
718.00  -5.65969986   0.65590454
720.00  -5.71278015   0.66138363
722.00  -5.76600529   0.66689300
724.00  -5.81937528   0.67243274
726.00  -5.87289009   0.67800293
728.00  -5.92654969   0.68360364
730.00  -5.98035407   0.68923497
732.00  -6.03430319   0.69489698
734.00  -6.08839704   0.70058977
736.00  -6.14263558   0.70631341
738.00  -6.19701881   0.71206799
740.00  -6.25154669   0.71785358
742.00  -6.30621920   0.72367027
744.00  -6.36103632   0.72951814
746.00  -6.41599803   0.73539727
748.00  -6.47110429   0.74130774
750.00  -6.52635509   0.74724963
752.00  -6.58175041   0.75322303
754.00  -6.63729021   0.75922801
756.00  -6.69297447   0.76526465
758.00  -6.74880318   0.77133305
760.00  -6.80477631   0.77743327
762.00  -6.86089382   0.78356540
764.00  -6.91715571   0.78972952
766.00  -6.97356193   0.79592571
768.00  -7.03011248   0.80215406
770.00  -7.08680732   0.80841464
772.00  -7.14364644   0.81470753
774.00  -7.20062980   0.82103281
776.00  -7.25775738   0.82739057
778.00  -7.31502916   0.83378089
780.00  -7.37244511   0.84020385
782.00  -7.43000521   0.84665952
784.00  -7.48770943   0.85314799
786.00  -7.54555775   0.85966935
788.00  -7.60355014   0.86622366
790.00  -7.66168658   0.87281101
792.00  -7.71996704   0.87943149
794.00  -7.77839150   0.88608517
796.00  -7.83695994   0.89277213
798.00  -7.89567232   0.89949245
800.00  -7.95452862   0.90624622
802.00  -8.01352882   0.91303352
804.00  -8.07267289   0.91985442
806.00  -8.13196081   0.92670901
808.00  -8.19139255   0.93359736
810.00  -8.25096808   0.94051956
812.00  -8.31068738   0.94747569
814.00  -8.37055042   0.95446583
816.00  -8.43055719   0.96149005
818.00  -8.49070764   0.96854844
820.00  -8.55100176   0.97564109
822.00  -8.61143952   0.98276806
824.00  -8.67202089   0.98992944
826.00  -8.73274586   0.99712531
828.00  -8.79361438   1.00435575
830.00  -8.85462644   1.01162084
832.00  -8.91578201   1.01892067
834.00  -8.97708106   1.02625530
836.00  -9.03852357   1.03362483
838.00  -9.10010951   1.04102932
840.00  -9.16183885   1.04846887
842.00  -9.22371157   1.05594355
844.00  -9.28572764   1.06345344
846.00  -9.34788703   1.07099862
848.00  -9.41018972   1.07857918
850.00  -9.47263569   1.08619518
852.00  -9.53522489   1.09384672
854.00  -9.59795731   1.10153387
856.00  -9.66083293   1.10925671
858.00  -9.72385170   1.11701532
860.00  -9.78701361   1.12480978
862.00  -9.85031863   1.13264017
864.00  -9.91376673   1.14050658
866.00  -9.97735789   1.14840907
868.00 -10.04109207   1.15634774
870.00 -10.10496925   1.16432265
872.00 -10.16898940   1.17233389
874.00 -10.23315250   1.18038155
876.00 -10.29745851   1.18846569
878.00 -10.36190742   1.19658640
880.00 -10.42649918   1.20474376
882.00 -10.49123378   1.21293785
884.00 -10.55611119   1.22116874
886.00 -10.62113138   1.22943652
888.00 -10.68629431   1.23774127
890.00 -10.75159997   1.24608306
892.00 -10.81704832   1.25446198
894.00 -10.88263934   1.26287811
896.00 -10.94837300   1.27133151
898.00 -11.01424926   1.27982228
900.00 -11.08026811   1.28835050
902.00 -11.14642952   1.29691623
904.00 -11.21273344   1.30551957
906.00 -11.27917987   1.31416059
908.00 -11.34576876   1.32283937
910.00 -11.41250010   1.33155598
912.00 -11.47937384   1.34031052
914.00 -11.54638997   1.34910305
916.00 -11.61354845   1.35793366
918.00 -11.68084925   1.36680243
920.00 -11.74829236   1.37570942
922.00 -11.81587773   1.38465474
924.00 -11.88360533   1.39363844
926.00 -11.95147515   1.40266062
928.00 -12.01948715   1.41172135
930.00 -12.08764130   1.42082071
932.00 -12.15593757   1.42995877
934.00 -12.22437593   1.43913563
936.00 -12.29295636   1.44835135
938.00 -12.36167882   1.45760601
940.00 -12.43054329   1.46689970
942.00 -12.49954973   1.47623249
944.00 -12.56869812   1.48560447
946.00 -12.63798842   1.49501570
948.00 -12.70742061   1.50446627
950.00 -12.77699466   1.51395626
952.00 -12.84671054   1.52348575
954.00 -12.91656821   1.53305481
956.00 -12.98656765   1.54266352
958.00 -13.05670882   1.55231197
960.00 -13.12699171   1.56200022
962.00 -13.19741627   1.57172837
964.00 -13.26798248   1.58149648
966.00 -13.33869031   1.59130464
968.00 -13.40953972   1.60115292
970.00 -13.48053069   1.61104140
972.00 -13.55166319   1.62097016
974.00 -13.62293718   1.63093929
976.00 -13.69435264   1.64094885
978.00 -13.76590953   1.65099893
980.00 -13.83760783   1.66108960
982.00 -13.90944750   1.67122094
984.00 -13.98142852   1.68139303
986.00 -14.05355085   1.69160595
988.00 -14.12581446   1.70185978
990.00 -14.19821932   1.71215459
992.00 -14.27076540   1.72249047
994.00 -14.34345267   1.73286748
996.00 -14.41628110   1.74328572
998.00 -14.48925065   1.75374525
1000.00 -14.56236130   1.76424615
1002.00 -14.63561302   1.77478851
1004.00 -14.70900577   1.78537240
1006.00 -14.78253952   1.79599790
1008.00 -14.85621424   1.80666508
1010.00 -14.93002990   1.81737403
1012.00 -15.00398647   1.82812482
1014.00 -15.07808392   1.83891752
1016.00 -15.15232221   1.84975223
1018.00 -15.22670131   1.86062901
1020.00 -15.30122120   1.87154794
1022.00 -15.37588183   1.88250910
1024.00 -15.45068319   1.89351257
1026.00 -15.52562522   1.90455843
1028.00 -15.60070792   1.91564674
1030.00 -15.67593123   1.92677760
1032.00 -15.75129514   1.93795108
1034.00 -15.82679960   1.94916725
1036.00 -15.90244459   1.96042619
1038.00 -15.97823008   1.97172798
1040.00 -16.05415602   1.98307270
1042.00 -16.13022240   1.99446043
1044.00 -16.20642917   2.00589124
1046.00 -16.28277630   2.01736520
1048.00 -16.35926377   2.02888240
1050.00 -16.43589154   2.04044292
1052.00 -16.51265957   2.05204682
1054.00 -16.58956784   2.06369420
1056.00 -16.66661630   2.07538512
1058.00 -16.74380494   2.08711966
1060.00 -16.82113372   2.09889790
1062.00 -16.89860259   2.11071991
1064.00 -16.97621154   2.12258578
1066.00 -17.05396052   2.13449558
1068.00 -17.13184951   2.14644939
1070.00 -17.20987847   2.15844728
1072.00 -17.28804736   2.17048933
1074.00 -17.36635616   2.18257561
1076.00 -17.44480484   2.19470621
1078.00 -17.52339335   2.20688121
1080.00 -17.60212166   2.21910067
1082.00 -17.68098975   2.23136467
1084.00 -17.75999757   2.24367330
1086.00 -17.83914510   2.25602662
1088.00 -17.91843230   2.26842472
1090.00 -17.99785913   2.28086767
1092.00 -18.07742557   2.29335555
1094.00 -18.15713158   2.30588843
1096.00 -18.23697713   2.31846639
1098.00 -18.31696217   2.33108951
1100.00 -18.39708668   2.34375786
1102.00 -18.47735063   2.35647152
1104.00 -18.55775398   2.36923057
1106.00 -18.63829669   2.38203508
1108.00 -18.71897874   2.39488513
1110.00 -18.79980008   2.40778079
1112.00 -18.88076069   2.42072214
1114.00 -18.96186052   2.43370927
1116.00 -19.04309955   2.44674223
1118.00 -19.12447774   2.45982112
1120.00 -19.20599505   2.47294600
1122.00 -19.28765146   2.48611695
1124.00 -19.36944692   2.49933405
1126.00 -19.45138141   2.51259737
1128.00 -19.53345488   2.52590700
1130.00 -19.61566730   2.53926300
1132.00 -19.69801864   2.55266545
1134.00 -19.78050887   2.56611443
1136.00 -19.86313794   2.57961001
1138.00 -19.94590582   2.59315228
1140.00 -20.02881249   2.60674129
1142.00 -20.11185789   2.62037714
1144.00 -20.19504201   2.63405990
1146.00 -20.27836479   2.64778963
1148.00 -20.36182622   2.66156643
1150.00 -20.44542624   2.67539035
1152.00 -20.52916483   2.68926149
1154.00 -20.61304196   2.70317991
1156.00 -20.69705758   2.71714569
1158.00 -20.78121165   2.73115891
1160.00 -20.86550416   2.74521964
1162.00 -20.94993505   2.75932795
1164.00 -21.03450430   2.77348392
1166.00 -21.11921186   2.78768764
1168.00 -21.20405771   2.80193916
1170.00 -21.28904180   2.81623857
1172.00 -21.37416410   2.83058595
1174.00 -21.45942458   2.84498136
1176.00 -21.54482320   2.85942489
1178.00 -21.63035991   2.87391660
1180.00 -21.71603470   2.88845658
1182.00 -21.80184751   2.90304490
1184.00 -21.88779832   2.91768163
1186.00 -21.97388708   2.93236685
1188.00 -22.06011377   2.94710063
1190.00 -22.14647834   2.96188306
1192.00 -22.23298076   2.97671419
1194.00 -22.31962099   2.99159412
1196.00 -22.40639900   3.00652290
1198.00 -22.49331475   3.02150063
1200.00 -22.58036819   3.03652736
1202.00 -22.66755931   3.05160319
1204.00 -22.75488805   3.06672818
1206.00 -22.84235438   3.08190240
1208.00 -22.92995827   3.09712594
1210.00 -23.01769968   3.11239886
1212.00 -23.10557857   3.12772124
1214.00 -23.19359491   3.14309316
1216.00 -23.28174865   3.15851469
1218.00 -23.37003976   3.17398590
1220.00 -23.45846820   3.18950687
1222.00 -23.54703394   3.20507767
1224.00 -23.63573694   3.22069839
1226.00 -23.72457716   3.23636908
1228.00 -23.81355456   3.25208983
1230.00 -23.90266911   3.26786071
1232.00 -23.99192077   3.28368179
1234.00 -24.08130950   3.29955315
1236.00 -24.17083526   3.31547487
1238.00 -24.26049802   3.33144701
1240.00 -24.35029774   3.34746965
1242.00 -24.44023438   3.36354287
1244.00 -24.53030790   3.37966674
1246.00 -24.62051827   3.39584133
1248.00 -24.71086544   3.41206671
1250.00 -24.80134939   3.42834297
1252.00 -24.89197006   3.44467017
1254.00 -24.98272743   3.46104840
1256.00 -25.07362145   3.47747771
1258.00 -25.16465209   3.49395819
1260.00 -25.25581931   3.51048991
1262.00 -25.34712307   3.52707294
1264.00 -25.43856333   3.54370736
1266.00 -25.53014005   3.56039324
1268.00 -25.62185320   3.57713066
1270.00 -25.71370274   3.59391968
1272.00 -25.80568862   3.61076039
1274.00 -25.89781082   3.62765285
1276.00 -25.99006928   3.64459714
1278.00 -26.08246398   3.66159333
1280.00 -26.17499487   3.67864150
1282.00 -26.26766192   3.69574171
1284.00 -26.36046508   3.71289405
1286.00 -26.45340432   3.73009858
1288.00 -26.54647960   3.74735538
1290.00 -26.63969088   3.76466452
1292.00 -26.73303812   3.78202608
1294.00 -26.82652127   3.79944012
1296.00 -26.92014031   3.81690672
1298.00 -27.01389520   3.83442596
1300.00 -27.10778588   3.85199791
1302.00 -27.20181234   3.86962263
1304.00 -27.29597451   3.88730021
1306.00 -27.39027237   3.90503072
1308.00 -27.48470588   3.92281422
1310.00 -27.57927499   3.94065079
1312.00 -27.67397967   3.95854051
1314.00 -27.76881988   3.97648345
1316.00 -27.86379558   3.99447967
1318.00 -27.95890672   4.01252926
1320.00 -28.05415327   4.03063228
1322.00 -28.14953519   4.04878881
1324.00 -28.24505244   4.06699892
1326.00 -28.34070498   4.08526269
1328.00 -28.43649276   4.10358018
1330.00 -28.53241576   4.12195146
1332.00 -28.62847392   4.14037662
1334.00 -28.72466721   4.15885572
1336.00 -28.82099559   4.17738883
1338.00 -28.91745902   4.19597603
1340.00 -29.01405746   4.21461739
1342.00 -29.11079086   4.23331299
1344.00 -29.20765919   4.25206288
1346.00 -29.30466241   4.27086715
1348.00 -29.40180047   4.28972587
1350.00 -29.49907334   4.30863912
1352.00 -29.59648098   4.32760695
1354.00 -29.69402334   4.34662945
1356.00 -29.79170038   4.36570668
1358.00 -29.88951207   4.38483872
1360.00 -29.98745836   4.40402564
1362.00 -30.08553921   4.42326752
1364.00 -30.18375458   4.44256442
1366.00 -30.28210443   4.46191641
1368.00 -30.38058872   4.48132357
1370.00 -30.47920740   4.50078597
1372.00 -30.57796045   4.52030368
1374.00 -30.67684781   4.53987677
1376.00 -30.77586944   4.55950532
1378.00 -30.87502531   4.57918939
1380.00 -30.97431537   4.59892906
1382.00 -31.07373958   4.61872440
1384.00 -31.17329790   4.63857548
1386.00 -31.27299029   4.65848237
1388.00 -31.37281670   4.67844514
1390.00 -31.47277710   4.69846387
1392.00 -31.57287144   4.71853862
1394.00 -31.67309968   4.73866947
1396.00 -31.77346179   4.75885649
1398.00 -31.87395771   4.77909974
1400.00 -31.97458741   4.79939931
1402.00 -32.07535084   4.81975525
1404.00 -32.17624797   4.84016765
1406.00 -32.27727874   4.86063658
1408.00 -32.37844313   4.88116209
1410.00 -32.47974108   4.90174428
1412.00 -32.58117256   4.92238319
1414.00 -32.68273752   4.94307892
1416.00 -32.78443592   4.96383152
1418.00 -32.88626772   4.98464108
1420.00 -32.98823288   5.00550765
1422.00 -33.09033135   5.02643131
1424.00 -33.19256309   5.04741213
1426.00 -33.29492806   5.06845019
1428.00 -33.39742622   5.08954554
1430.00 -33.50005752   5.11069827
1432.00 -33.60282193   5.13190844
1434.00 -33.70571939   5.15317613
1436.00 -33.80874987   5.17450140
1438.00 -33.91191332   5.19588432
1440.00 -34.01520971   5.21732497
1442.00 -34.11863898   5.23882341
1444.00 -34.22220110   5.26037972
1446.00 -34.32589602   5.28199397
1448.00 -34.42972370   5.30366622
1450.00 -34.53368410   5.32539655
1452.00 -34.63777717   5.34718502
1454.00 -34.74200287   5.36903171
1456.00 -34.84636116   5.39093668
1458.00 -34.95085199   5.41290001
1460.00 -35.05547532   5.43492177
1462.00 -35.16023112   5.45700203
1464.00 -35.26511932   5.47914085
1466.00 -35.37013990   5.50133830
1468.00 -35.47529280   5.52359446
1470.00 -35.58057799   5.54590940
1472.00 -35.68599542   5.56828318
1474.00 -35.79154505   5.59071588
1476.00 -35.89722683   5.61320756
1478.00 -36.00304072   5.63575830
1480.00 -36.10898668   5.65836816
1482.00 -36.21506465   5.68103721
1484.00 -36.32127461   5.70376553
1486.00 -36.42761650   5.72655317
1488.00 -36.53409029   5.74940022
1490.00 -36.64069592   5.77230674
1492.00 -36.74743335   5.79527280
1494.00 -36.85430254   5.81829847
1496.00 -36.96130345   5.84138382
1498.00 -37.06843603   5.86452892
1500.00 -37.17570023   5.88773383
1502.00 -37.28309602   5.91099863
1504.00 -37.39062334   5.93432339
1506.00 -37.49828216   5.95770817
1508.00 -37.60607243   5.98115304
1510.00 -37.71399410   6.00465808
1512.00 -37.82204714   6.02822334
1514.00 -37.93023149   6.05184891
1516.00 -38.03854711   6.07553485
1518.00 -38.14699396   6.09928122
1520.00 -38.25557199   6.12308810
1522.00 -38.36428116   6.14695555
1524.00 -38.47312142   6.17088365
1526.00 -38.58209273   6.19487247
1528.00 -38.69119504   6.21892206
1530.00 -38.80042831   6.24303250
1532.00 -38.90979249   6.26720386
1534.00 -39.01928755   6.29143621
1536.00 -39.12891342   6.31572961
1538.00 -39.23867008   6.34008414
1540.00 -39.34855747   6.36449986
1542.00 -39.45857554   6.38897683
1544.00 -39.56872426   6.41351514
1546.00 -39.67900358   6.43811484
1548.00 -39.78941345   6.46277601
1550.00 -39.89995383   6.48749871
1552.00 -40.01062467   6.51228301
1554.00 -40.12142592   6.53712899
1556.00 -40.23235755   6.56203669
1558.00 -40.34341950   6.58700621
1560.00 -40.45461173   6.61203759
1562.00 -40.56593420   6.63713092
1564.00 -40.67738685   6.66228626
1566.00 -40.78896965   6.68750367
1568.00 -40.90068255   6.71278322
1570.00 -41.01252549   6.73812499
1572.00 -41.12449844   6.76352904
1574.00 -41.23660135   6.78899544
1576.00 -41.34883418   6.81452425
1578.00 -41.46119687   6.84011554
1580.00 -41.57368938   6.86576938
1582.00 -41.68631167   6.89148584
1584.00 -41.79906369   6.91726499
1586.00 -41.91194539   6.94310689
1588.00 -42.02495673   6.96901160
1590.00 -42.13809766   6.99497921
1592.00 -42.25136814   7.02100977
1594.00 -42.36476811   7.04710335
1596.00 -42.47829753   7.07326002
1598.00 -42.59195637   7.09947984
1600.00 -42.70574455   7.12576289
1602.00 -42.81966206   7.15210922
1604.00 -42.93370882   7.17851892
1606.00 -43.04788481   7.20499204
1608.00 -43.16218997   7.23152864
1610.00 -43.27662426   7.25812881
1612.00 -43.39118762   7.28479260
1614.00 -43.50588002   7.31152008
1616.00 -43.62070140   7.33831132
1618.00 -43.73565173   7.36516639
1620.00 -43.85073094   7.39208534
1622.00 -43.96593900   7.41906826
1624.00 -44.08127586   7.44611520
1626.00 -44.19674146   7.47322623
1628.00 -44.31233578   7.50040141
1630.00 -44.42805874   7.52764082
1632.00 -44.54391032   7.55494453
1634.00 -44.65989046   7.58231258
1636.00 -44.77599912   7.60974507
1638.00 -44.89223624   7.63724204
1640.00 -45.00860178   7.66480356
1642.00 -45.12509570   7.69242971
1644.00 -45.24171794   7.72012055
1646.00 -45.35846846   7.74787614
1648.00 -45.47534721   7.77569655
1650.00 -45.59235414   7.80358185
1652.00 -45.70948921   7.83153210
1654.00 -45.82675236   7.85954737
1656.00 -45.94414356   7.88762772
1658.00 -46.06166275   7.91577322
1660.00 -46.17930988   7.94398394
1662.00 -46.29708491   7.97225993
1664.00 -46.41498778   8.00060128
1666.00 -46.53301846   8.02900804
1668.00 -46.65117689   8.05748028
1670.00 -46.76946303   8.08601806
1672.00 -46.88787682   8.11462145
1674.00 -47.00641822   8.14329051
1676.00 -47.12508718   8.17202532
1678.00 -47.24388365   8.20082593
1680.00 -47.36280759   8.22969241
1682.00 -47.48185894   8.25862483
1684.00 -47.60103766   8.28762326
1686.00 -47.72034370   8.31668775
1688.00 -47.83977701   8.34581837
1690.00 -47.95933754   8.37501519
1692.00 -48.07902525   8.40427827
1694.00 -48.19884008   8.43360768
1696.00 -48.31878199   8.46300348
1698.00 -48.43885093   8.49246574
1700.00 -48.55904684   8.52199452
1702.00 -48.67936969   8.55158989
1704.00 -48.79981942   8.58125191
1706.00 -48.92039598   8.61098065
1708.00 -49.04109932   8.64077617
1710.00 -49.16192941   8.67063854
1712.00 -49.28288617   8.70056782
1714.00 -49.40396958   8.73056407
1716.00 -49.52517957   8.76062737
1718.00 -49.64651611   8.79075776
1720.00 -49.76797913   8.82095533
1722.00 -49.88956860   8.85122014
1724.00 -50.01128446   8.88155224
1726.00 -50.13312666   8.91195170
1728.00 -50.25509516   8.94241859
1730.00 -50.37718990   8.97295297
1732.00 -50.49941083   9.00355491
1734.00 -50.62175791   9.03422447
1736.00 -50.74423109   9.06496171
1738.00 -50.86683032   9.09576670
1740.00 -50.98955554   9.12663950
1742.00 -51.11240671   9.15758017
1744.00 -51.23538378   9.18858879
1746.00 -51.35848670   9.21966541
1748.00 -51.48171541   9.25081010
1750.00 -51.60506988   9.28202292
1752.00 -51.72855005   9.31330393
1754.00 -51.85215586   9.34465320
1756.00 -51.97588728   9.37607080
1758.00 -52.09974425   9.40755678
1760.00 -52.22372671   9.43911121
1762.00 -52.34783463   9.47073415
1764.00 -52.47206795   9.50242567
1766.00 -52.59642662   9.53418584
1768.00 -52.72091059   9.56601470
1770.00 -52.84551981   9.59791233
1772.00 -52.97025423   9.62987880
1774.00 -53.09511379   9.66191415
1776.00 -53.22009846   9.69401847
1778.00 -53.34520818   9.72619180
1780.00 -53.47044290   9.75843422
1782.00 -53.59580256   9.79074578
1784.00 -53.72128713   9.82312655
1786.00 -53.84689654   9.85557659
1788.00 -53.97263075   9.88809597
1790.00 -54.09848971   9.92068475
1792.00 -54.22447336   9.95334299
1794.00 -54.35058166   9.98607075
1796.00 -54.47681455  10.01886810
1798.00 -54.60317199  10.05173510
1800.00 -54.72965392  10.08467181
1802.00 -54.85626029  10.11767830
1804.00 -54.98299106  10.15075462
1806.00 -55.10984617  10.18390085
1808.00 -55.23682557  10.21711703
1810.00 -55.36392921  10.25040324
1812.00 -55.49115703  10.28375954
1814.00 -55.61850900  10.31718599
1816.00 -55.74598505  10.35068265
1818.00 -55.87358513  10.38424958
1820.00 -56.00130921  10.41788685
1822.00 -56.12915721  10.45159452
1824.00 -56.25712910  10.48537265
1826.00 -56.38522481  10.51922130
1828.00 -56.51344431  10.55314054
1830.00 -56.64178753  10.58713042
1832.00 -56.77025443  10.62119102
1834.00 -56.89884496  10.65532238
1836.00 -57.02755906  10.68952457
1838.00 -57.15639669  10.72379767
1840.00 -57.28535778  10.75814171
1842.00 -57.41444229  10.79255678
1844.00 -57.54365018  10.82704292
1846.00 -57.67298137  10.86160021
1848.00 -57.80243584  10.89622869
1850.00 -57.93201351  10.93092845
1852.00 -58.06171435  10.96569952
1854.00 -58.19153830  11.00054199
1856.00 -58.32148530  11.03545590
1858.00 -58.45155531  11.07044133
1860.00 -58.58174827  11.10549832
1862.00 -58.71206414  11.14062695
1864.00 -58.84250285  11.17582727
1866.00 -58.97306437  11.21109935
1868.00 -59.10374863  11.24644324
1870.00 -59.23455558  11.28185901
1872.00 -59.36548517  11.31734672
1874.00 -59.49653736  11.35290643
1876.00 -59.62771208  11.38853819
1878.00 -59.75900929  11.42424208
1880.00 -59.89042892  11.46001815
1882.00 -60.02197094  11.49586646
1884.00 -60.15363529  11.53178708
1886.00 -60.28542192  11.56778006
1888.00 -60.41733076  11.60384546
1890.00 -60.54936178  11.63998335
1892.00 -60.68151492  11.67619378
1894.00 -60.81379012  11.71247682
1896.00 -60.94618733  11.74883253
1898.00 -61.07870651  11.78526097
1900.00 -61.21134759  11.82176219
1902.00 -61.34411053  11.85833626
1904.00 -61.47699527  11.89498324
1906.00 -61.61000176  11.93170318
1908.00 -61.74312995  11.96849616
1910.00 -61.87637978  12.00536222
1912.00 -62.00975120  12.04230144
1914.00 -62.14324416  12.07931386
1916.00 -62.27685861  12.11639955
1918.00 -62.41059448  12.15355857
1920.00 -62.54445174  12.19079097
1922.00 -62.67843033  12.22809683
1924.00 -62.81253018  12.26547619
1926.00 -62.94675126  12.30292912
1928.00 -63.08109350  12.34045568
1930.00 -63.21555686  12.37805593
1932.00 -63.35014128  12.41572992
1934.00 -63.48484670  12.45347772
1936.00 -63.61967308  12.49129939
1938.00 -63.75462035  12.52919498
1940.00 -63.88968848  12.56716456
1942.00 -64.02487740  12.60520818
1944.00 -64.16018706  12.64332590
1946.00 -64.29561740  12.68151779
1948.00 -64.43116838  12.71978390
1950.00 -64.56683993  12.75812429
1952.00 -64.70263202  12.79653902
1954.00 -64.83854457  12.83502815
1956.00 -64.97457754  12.87359174
1958.00 -65.11073088  12.91222985
1960.00 -65.24700453  12.95094253
1962.00 -65.38339844  12.98972985
1964.00 -65.51991254  13.02859186
1966.00 -65.65654680  13.06752863
1968.00 -65.79330116  13.10654021
1970.00 -65.93017555  13.14562665
1972.00 -66.06716993  13.18478803
1974.00 -66.20428425  13.22402440
1976.00 -66.34151845  13.26333581
1978.00 -66.47887247  13.30272232
1980.00 -66.61634626  13.34218400
1982.00 -66.75393977  13.38172090
1984.00 -66.89165294  13.42133308
1986.00 -67.02948572  13.46102060
1988.00 -67.16743806  13.50078352
1990.00 -67.30550989  13.54062189
1992.00 -67.44370117  13.58053577
1994.00 -67.58201184  13.62052523
1996.00 -67.72044185  13.66059031
1998.00 -67.85899115  13.70073108
2000.00 -67.99765967  13.74094760
2002.00 -68.13644736  13.78123992
2004.00 -68.27535417  13.82160810
2006.00 -68.41438005  13.86205220
2008.00 -68.55352494  13.90257227
2010.00 -68.69278878  13.94316838
2012.00 -68.83217152  13.98384059
2014.00 -68.97167311  14.02458894
2016.00 -69.11129349  14.06541350
2018.00 -69.25103260  14.10631432
2020.00 -69.39089040  14.14729147
2022.00 -69.53086682  14.18834500
2024.00 -69.67096182  14.22947496
2026.00 -69.81117533  14.27068142
2028.00 -69.95150730  14.31196443
2030.00 -70.09195768  14.35332405
2032.00 -70.23252641  14.39476033
2034.00 -70.37321344  14.43627334
2036.00 -70.51401871  14.47786313
2038.00 -70.65494217  14.51952976
2040.00 -70.79598376  14.56127328
2042.00 -70.93714342  14.60309375
2044.00 -71.07842110  14.64499123
2046.00 -71.21981675  14.68696578
2048.00 -71.36133031  14.72901745
2050.00 -71.50296173  14.77114630
2052.00 -71.64471094  14.81335238
2054.00 -71.78657790  14.85563576
2056.00 -71.92856255  14.89799648
2058.00 -72.07066483  14.94043462
2060.00 -72.21288469  14.98295021
2062.00 -72.35522207  15.02554332
2064.00 -72.49767691  15.06821400
2066.00 -72.64024917  15.11096232
2068.00 -72.78293878  15.15378833
2070.00 -72.92574570  15.19669208
2072.00 -73.06866985  15.23967362
2074.00 -73.21171120  15.28273303
2076.00 -73.35486968  15.32587035
2078.00 -73.49814523  15.36908563
2080.00 -73.64153780  15.41237894
2082.00 -73.78504734  15.45575034
2084.00 -73.92867379  15.49919986
2086.00 -74.07241709  15.54272758
2088.00 -74.21627719  15.58633355
2090.00 -74.36025403  15.63001782
2092.00 -74.50434756  15.67378045
2094.00 -74.64855771  15.71762150
2096.00 -74.79288444  15.76154102
2098.00 -74.93732768  15.80553906
2100.00 -75.08188739  15.84961569
2102.00 -75.22656350  15.89377095
2104.00 -75.37135595  15.93800491
2106.00 -75.51626470  15.98231761
2108.00 -75.66128968  16.02670912
2110.00 -75.80643085  16.07117949
2112.00 -75.95168813  16.11572877
2114.00 -76.09706149  16.16035702
2116.00 -76.24255085  16.20506430
2118.00 -76.38815617  16.24985066
2120.00 -76.53387738  16.29471615
2122.00 -76.67971443  16.33966083
2124.00 -76.82566727  16.38468475
2126.00 -76.97173584  16.42978798
2128.00 -77.11792007  16.47497055
2130.00 -77.26421993  16.52023254
2132.00 -77.41063533  16.56557399
2134.00 -77.55716624  16.61099496
2136.00 -77.70381260  16.65649551
2138.00 -77.85057434  16.70207568
2140.00 -77.99745141  16.74773553
2142.00 -78.14444375  16.79347512
2144.00 -78.29155131  16.83929450
2146.00 -78.43877403  16.88519373
2148.00 -78.58611186  16.93117286
2150.00 -78.73356473  16.97723194
2152.00 -78.88113259  17.02337103
2154.00 -79.02881538  17.06959018
2156.00 -79.17661304  17.11588945
2158.00 -79.32452553  17.16226889
2160.00 -79.47255277  17.20872856
2162.00 -79.62069472  17.25526850
2164.00 -79.76895131  17.30188878
2166.00 -79.91732249  17.34858944
2168.00 -80.06580821  17.39537055
2170.00 -80.21440840  17.44223215
2172.00 -80.36312300  17.48917429
2174.00 -80.51195197  17.53619704
2176.00 -80.66089524  17.58330045
2178.00 -80.80995275  17.63048456
2180.00 -80.95912446  17.67774944
2182.00 -81.10841029  17.72509513
2184.00 -81.25781019  17.77252169
2186.00 -81.40732411  17.82002918
2188.00 -81.55695199  17.86761764
2190.00 -81.70669377  17.91528713
2192.00 -81.85654939  17.96303771
2194.00 -82.00651880  18.01086942
2196.00 -82.15660193  18.05878231
2198.00 -82.30679873  18.10677646
2200.00 -82.45710915  18.15485189
2202.00 -82.60753312  18.20300868
2204.00 -82.75807058  18.25124686
2206.00 -82.90872148  18.29956650
2208.00 -83.05948577  18.34796765
2210.00 -83.21036337  18.39645036
2212.00 -83.36135425  18.44501468
2214.00 -83.51245832  18.49366066
2216.00 -83.66367555  18.54238836
2218.00 -83.81500587  18.59119784
2220.00 -83.96644922  18.64008913
2222.00 -84.11800554  18.68906230
2224.00 -84.26967479  18.73811740
2226.00 -84.42145689  18.78725448
2228.00 -84.57335179  18.83647359
2230.00 -84.72535943  18.88577479
2232.00 -84.87747976  18.93515812
2234.00 -85.02971271  18.98462364
2236.00 -85.18205823  19.03417140
2238.00 -85.33451626  19.08380146
2240.00 -85.48708675  19.13351386
2242.00 -85.63976962  19.18330866
2244.00 -85.79256483  19.23318591
2246.00 -85.94547231  19.28314566
2248.00 -86.09849201  19.33318796
2250.00 -86.25162387  19.38331287
2252.00 -86.40486784  19.43352044
2254.00 -86.55822384  19.48381071
2256.00 -86.71169182  19.53418374
2258.00 -86.86527174  19.58463958
2260.00 -87.01896351  19.63517829
2262.00 -87.17276710  19.68579991
2264.00 -87.32668243  19.73650449
2266.00 -87.48070946  19.78729210
2268.00 -87.63484811  19.83816277
2270.00 -87.78909834  19.88911656
2272.00 -87.94346008  19.94015352
2274.00 -88.09793328  19.99127371
2276.00 -88.25251787  20.04247716
2278.00 -88.40721380  20.09376394
2280.00 -88.56202101  20.14513410
2282.00 -88.71693944  20.19658768
2284.00 -88.87196903  20.24812474
2286.00 -89.02710972  20.29974533
2288.00 -89.18236146  20.35144950
2290.00 -89.33772418  20.40323729
2292.00 -89.49319782  20.45510877
2294.00 -89.64878233  20.50706398
2296.00 -89.80447764  20.55910296
2298.00 -89.96028371  20.61122578
2300.00 -90.11620046  20.66343249
2302.00 -90.27222784  20.71572312
2304.00 -90.42836579  20.76809774
2306.00 -90.58461425  20.82055639
2308.00 -90.74097316  20.87309913
2310.00 -90.89744246  20.92572600
2312.00 -91.05402210  20.97843705
2314.00 -91.21071201  21.03123234
2316.00 -91.36751213  21.08411192
2318.00 -91.52442241  21.13707582
2320.00 -91.68144278  21.19012412
2322.00 -91.83857319  21.24325684
2324.00 -91.99581357  21.29647406
2326.00 -92.15316388  21.34977580
2328.00 -92.31062403  21.40316213
2330.00 -92.46819399  21.45663310
2332.00 -92.62587368  21.51018874
2334.00 -92.78366306  21.56382912
2336.00 -92.94156205  21.61755428
2338.00 -93.09957060  21.67136428
2340.00 -93.25768864  21.72525915
2342.00 -93.41591613  21.77923896
2344.00 -93.57425300  21.83330375
2346.00 -93.73269919  21.88745357
2348.00 -93.89125464  21.94168846
2350.00 -94.04991929  21.99600849
2352.00 -94.20869308  22.05041369
2354.00 -94.36757595  22.10490411
2356.00 -94.52656784  22.15947982
2358.00 -94.68566869  22.21414084
2360.00 -94.84487844  22.26888724
2362.00 -95.00419703  22.32371907
2364.00 -95.16362441  22.37863636
2366.00 -95.32316050  22.43363918
2368.00 -95.48280526  22.48872756
2370.00 -95.64255861  22.54390156
2372.00 -95.80242051  22.59916122
2374.00 -95.96239089  22.65450661
2376.00 -96.12246968  22.70993775
2378.00 -96.28265684  22.76545470
2380.00 -96.44295230  22.82105752
2382.00 -96.60335599  22.87674624
2384.00 -96.76386787  22.93252092
2386.00 -96.92448786  22.98838161
2388.00 -97.08521592  23.04432835
2390.00 -97.24605197  23.10036119
2392.00 -97.40699596  23.15648018
2394.00 -97.56804783  23.21268537
2396.00 -97.72920751  23.26897680
2398.00 -97.89047495  23.32535453
2400.00 -98.05185009  23.38181859
2402.00 -98.21333287  23.43836905
2404.00 -98.37492321  23.49500595
2406.00 -98.53662108  23.55172933
2408.00 -98.69842640  23.60853924
2410.00 -98.86033911  23.66543573
2412.00 -99.02235915  23.72241885
2414.00 -99.18448647  23.77948865
2416.00 -99.34672100  23.83664517
2418.00 -99.50906267  23.89388846
2420.00 -99.67151144  23.95121856
2422.00 -99.83406724  24.00863554
2424.00 -99.99673001  24.06613942
2426.00 -100.15949969  24.12373027
2428.00 -100.32237621  24.18140812
2430.00 -100.48535952  24.23917302
2432.00 -100.64844955  24.29702503
2434.00 -100.81164625  24.35496418
2436.00 -100.97494956  24.41299053
2438.00 -101.13835940  24.47110413
2440.00 -101.30187573  24.52930501
2442.00 -101.46549848  24.58759322
2444.00 -101.62922759  24.64596882
2446.00 -101.79306299  24.70443185
2448.00 -101.95700464  24.76298236
2450.00 -102.12105246  24.82162038
2452.00 -102.28520640  24.88034598
2454.00 -102.44946639  24.93915919
2456.00 -102.61383238  24.99806006
2458.00 -102.77830429  25.05704864
2460.00 -102.94288208  25.11612498
2462.00 -103.10756568  25.17528912
2464.00 -103.27235503  25.23454110
2466.00 -103.43725006  25.29388098
2468.00 -103.60225072  25.35330880
2470.00 -103.76735695  25.41282461
2472.00 -103.93256868  25.47242844
2474.00 -104.09788585  25.53212036
2476.00 -104.26330840  25.59190039
2478.00 -104.42883627  25.65176860
2480.00 -104.59446940  25.71172502
2482.00 -104.76020772  25.77176971
2484.00 -104.92605119  25.83190270
2486.00 -105.09199972  25.89212404
2488.00 -105.25805327  25.95243378
2490.00 -105.42421176  26.01283197
2492.00 -105.59047515  26.07331865
2494.00 -105.75684336  26.13389386
2496.00 -105.92331634  26.19455765
2498.00 -106.08989402  26.25531006
2500.00 -106.25657635  26.31615115
2502.00 -106.42336325  26.37708095
2504.00 -106.59025468  26.43809952
2506.00 -106.75725056  26.49920689
2508.00 -106.92435084  26.56040311
2510.00 -107.09155545  26.62168823
2512.00 -107.25886434  26.68306229
2514.00 -107.42627744  26.74452534
2516.00 -107.59379468  26.80607741
2518.00 -107.76141601  26.86771857
2520.00 -107.92914137  26.92944885
2522.00 -108.09697069  26.99126829
2524.00 -108.26490391  27.05317694
2526.00 -108.43294097  27.11517485
2528.00 -108.60108180  27.17726205
2530.00 -108.76932636  27.23943861
2532.00 -108.93767456  27.30170455
2534.00 -109.10612636  27.36405992
2536.00 -109.27468168  27.42650477
2538.00 -109.44334048  27.48903914
2540.00 -109.61210268  27.55166308
2542.00 -109.78096822  27.61437663
2544.00 -109.94993704  27.67717983
2546.00 -110.11900908  27.74007273
2548.00 -110.28818428  27.80305538
2550.00 -110.45746258  27.86612781
2552.00 -110.62684390  27.92929007
2554.00 -110.79632820  27.99254221
2556.00 -110.96591540  28.05588426
2558.00 -111.13560545  28.11931628
2560.00 -111.30539828  28.18283830
2562.00 -111.47529384  28.24645037
2564.00 -111.64529205  28.31015253
2566.00 -111.81539286  28.37394483
2568.00 -111.98559620  28.43782731
2570.00 -112.15590202  28.50180002
2572.00 -112.32631024  28.56586299
2574.00 -112.49682081  28.63001627
2576.00 -112.66743367  28.69425991
2578.00 -112.83814875  28.75859394
2580.00 -113.00896598  28.82301841
2582.00 -113.17988532  28.88753337
2584.00 -113.35090669  28.95213885
2586.00 -113.52203003  29.01683490
2588.00 -113.69325528  29.08162156
2590.00 -113.86458237  29.14649888
2592.00 -114.03601125  29.21146690
2594.00 -114.20754185  29.27652566
2596.00 -114.37917411  29.34167520
2598.00 -114.55090797  29.40691557
2600.00 -114.72274336  29.47224681
2602.00 -114.89468022  29.53766896
2604.00 -115.06671849  29.60318206
2606.00 -115.23885811  29.66878617
2608.00 -115.41109901  29.73448131
2610.00 -115.58344112  29.80026753
2612.00 -115.75588440  29.86614488
2614.00 -115.92842877  29.93211339
2616.00 -116.10107417  29.99817312
2618.00 -116.27382054  30.06432409
2620.00 -116.44666781  30.13056636
2622.00 -116.61961593  30.19689996
2624.00 -116.79266483  30.26332494
2626.00 -116.96581444  30.32984134
2628.00 -117.13906471  30.39644920
2630.00 -117.31241557  30.46314856
2632.00 -117.48586696  30.52993947
2634.00 -117.65941881  30.59682196
2636.00 -117.83307107  30.66379609
2638.00 -118.00682366  30.73086188
2640.00 -118.18067653  30.79801939
2642.00 -118.35462961  30.86526864
2644.00 -118.52868284  30.93260970
2646.00 -118.70283616  31.00004259
2648.00 -118.87708951  31.06756736
2650.00 -119.05144281  31.13518404
2652.00 -119.22589601  31.20289269
2654.00 -119.40044904  31.27069334
2656.00 -119.57510185  31.33858603
2658.00 -119.74985436  31.40657081
2660.00 -119.92470652  31.47464771
2662.00 -120.09965826  31.54281677
2664.00 -120.27470951  31.61107805
2666.00 -120.44986022  31.67943157
2668.00 -120.62511033  31.74787738
2670.00 -120.80045975  31.81641552
2672.00 -120.97590845  31.88504603
2674.00 -121.15145634  31.95376895
2676.00 -121.32710338  32.02258433
2678.00 -121.50284948  32.09149219
2680.00 -121.67869460  32.16049259
2682.00 -121.85463867  32.22958557
2684.00 -122.03068162  32.29877115
2686.00 -122.20682339  32.36804939
2688.00 -122.38306392  32.43742033
2690.00 -122.55940314  32.50688400
2692.00 -122.73584099  32.57644045
2694.00 -122.91237741  32.64608971
2696.00 -123.08901233  32.71583183
2698.00 -123.26574569  32.78566684
2700.00 -123.44257742  32.85559479
2702.00 -123.61950747  32.92561572
2704.00 -123.79653577  32.99572966
2706.00 -123.97366225  33.06593666
2708.00 -124.15088685  33.13623675
2710.00 -124.32820951  33.20662998
2712.00 -124.50563017  33.27711638
2714.00 -124.68314875  33.34769600
2716.00 -124.86076520  33.41836887
2718.00 -125.03847946  33.48913503
2720.00 -125.21629145  33.55999453
2722.00 -125.39420112  33.63094740
2724.00 -125.57220840  33.70199368
2726.00 -125.75031323  33.77313342
2728.00 -125.92851554  33.84436664
2730.00 -126.10681527  33.91569340
2732.00 -126.28521236  33.98711372
2734.00 -126.46370673  34.05862765
2736.00 -126.64229834  34.13023523
2738.00 -126.82098711  34.20193650
2740.00 -126.99977299  34.27373149
2742.00 -127.17865590  34.34562024
2744.00 -127.35763578  34.41760280
2746.00 -127.53671257  34.48967920
2748.00 -127.71588620  34.56184948
2750.00 -127.89515662  34.63411369
2752.00 -128.07452375  34.70647184
2754.00 -128.25398753  34.77892400
2756.00 -128.43354791  34.85147019
2758.00 -128.61320481  34.92411045
2760.00 -128.79295816  34.99684483
2762.00 -128.97280792  35.06967336
2764.00 -129.15275401  35.14259607
2766.00 -129.33279636  35.21561302
2768.00 -129.51293492  35.28872422
2770.00 -129.69316962  35.36192974
2772.00 -129.87350039  35.43522959
2774.00 -130.05392718  35.50862382
2776.00 -130.23444991  35.58211248
2778.00 -130.41506853  35.65569558
2780.00 -130.59578296  35.72937318
2782.00 -130.77659315  35.80314532
2784.00 -130.95749903  35.87701202
2786.00 -131.13850054  35.95097333
2788.00 -131.31959761  36.02502928
2790.00 -131.50079017  36.09917991
2792.00 -131.68207817  36.17342527
2794.00 -131.86346154  36.24776538
2796.00 -132.04494021  36.32220029
2798.00 -132.22651412  36.39673003
2800.00 -132.40818321  36.47135464
2802.00 -132.58994741  36.54607416
2804.00 -132.77180666  36.62088863
2806.00 -132.95376088  36.69579807
2808.00 -133.13581003  36.77080253
2810.00 -133.31795403  36.84590205
2812.00 -133.50019282  36.92109666
2814.00 -133.68252633  36.99638641
2816.00 -133.86495451  37.07177132
2818.00 -134.04747728  37.14725143
2820.00 -134.23009458  37.22282678
2822.00 -134.41280635  37.29849741
2824.00 -134.59561252  37.37426336
2826.00 -134.77851303  37.45012466
2828.00 -134.96150781  37.52608134
2830.00 -135.14459680  37.60213345
2832.00 -135.32777993  37.67828102
2834.00 -135.51105714  37.75452409
2836.00 -135.69442837  37.83086269
2838.00 -135.87789354  37.90729686
2840.00 -136.06145261  37.98382663
2842.00 -136.24510549  38.06045205
2844.00 -136.42885213  38.13717315
2846.00 -136.61269246  38.21398997
2848.00 -136.79662641  38.29090253
2850.00 -136.98065393  38.36791088
2852.00 -137.16477495  38.44501506
2854.00 -137.34898939  38.52221509
2856.00 -137.53329721  38.59951102
2858.00 -137.71769833  38.67690288
2860.00 -137.90219268  38.75439071
2862.00 -138.08678021  38.83197453
2864.00 -138.27146085  38.90965440
2866.00 -138.45623453  38.98743034
2868.00 -138.64110119  39.06530239
2870.00 -138.82606077  39.14327059
2872.00 -139.01111319  39.22133496
2874.00 -139.19625840  39.29949555
2876.00 -139.38149632  39.37775240
2878.00 -139.56682691  39.45610552
2880.00 -139.75225008  39.53455497
2882.00 -139.93776577  39.61310078
2884.00 -140.12337393  39.69174298
2886.00 -140.30907448  39.77048161
2888.00 -140.49486735  39.84931669
2890.00 -140.68075250  39.92824828
2892.00 -140.86672984  40.00727640
2894.00 -141.05279932  40.08640108
2896.00 -141.23896087  40.16562237
2898.00 -141.42521442  40.24494029
2900.00 -141.61155992  40.32435488
2902.00 -141.79799728  40.40386618
2904.00 -141.98452646  40.48347422
2906.00 -142.17114738  40.56317904
2908.00 -142.35785998  40.64298067
2910.00 -142.54466420  40.72287913
2912.00 -142.73155996  40.80287448
2914.00 -142.91854721  40.88296674
2916.00 -143.10562588  40.96315595
2918.00 -143.29279590  41.04344214
2920.00 -143.48005722  41.12382535
2922.00 -143.66740975  41.20430560
2924.00 -143.85485344  41.28488294
2926.00 -144.04238823  41.36555740
2928.00 -144.23001404  41.44632901
2930.00 -144.41773082  41.52719781
2932.00 -144.60553850  41.60816382
2934.00 -144.79343700  41.68922709
2936.00 -144.98142628  41.77038765
2938.00 -145.16950625  41.85164552
2940.00 -145.35767687  41.93300076
2942.00 -145.54593805  42.01445338
2944.00 -145.73428974  42.09600342
2946.00 -145.92273187  42.17765092
2948.00 -146.11126438  42.25939591
2950.00 -146.29988720  42.34123841
2952.00 -146.48860026  42.42317848
2954.00 -146.67740350  42.50521613
2956.00 -146.86629686  42.58735141
2958.00 -147.05528026  42.66958434
2960.00 -147.24435365  42.75191496
2962.00 -147.43351696  42.83434331
2964.00 -147.62277012  42.91686940
2966.00 -147.81211306  42.99949329
2968.00 -148.00154573  43.08221499
2970.00 -148.19106806  43.16503455
2972.00 -148.38067997  43.24795200
2974.00 -148.57038142  43.33096736
2976.00 -148.76017232  43.41408068
2978.00 -148.95005261  43.49729198
2980.00 -149.14002224  43.58060129
2982.00 -149.33008113  43.66400866
2984.00 -149.52022922  43.74751411
2986.00 -149.71046644  43.83111767
2988.00 -149.90079273  43.91481938
2990.00 -150.09120802  43.99861927
2992.00 -150.28171224  44.08251738
2994.00 -150.47230534  44.16651372
2996.00 -150.66298724  44.25060834
2998.00 -150.85375789  44.33480127
3000.00 -151.04461720  44.41909254
3002.00 -151.23556513  44.50348219
3004.00 -151.42660159  44.58797023
3006.00 -151.61772654  44.67255672
3008.00 -151.80893990  44.75724167
3010.00 -152.00024160  44.84202512
3012.00 -152.19163158  44.92690710
3014.00 -152.38310978  45.01188765
3016.00 -152.57467613  45.09696679
3018.00 -152.76633056  45.18214456
3020.00 -152.95807301  45.26742099
3022.00 -153.14990341  45.35279610
3024.00 -153.34182170  45.43826994
3026.00 -153.53382781  45.52384253
3028.00 -153.72592167  45.60951390
3030.00 -153.91810322  45.69528409
3032.00 -154.11037240  45.78115313
3034.00 -154.30272914  45.86712104
3036.00 -154.49517336  45.95318786
3038.00 -154.68770502  46.03935362
3040.00 -154.88032403  46.12561836
3042.00 -155.07303035  46.21198209
3044.00 -155.26582389  46.29844486
3046.00 -155.45870459  46.38500669
3048.00 -155.65167239  46.47166762
3050.00 -155.84472723  46.55842767
3052.00 -156.03786903  46.64528687
3054.00 -156.23109773  46.73224527
3056.00 -156.42441326  46.81930288
3058.00 -156.61781557  46.90645974
3060.00 -156.81130457  46.99371587
3062.00 -157.00488022  47.08107132
3064.00 -157.19854243  47.16852610
3066.00 -157.39229115  47.25608026
3068.00 -157.58612631  47.34373381
3070.00 -157.78004785  47.43148680
3072.00 -157.97405569  47.51933924
3074.00 -158.16814978  47.60729117
3076.00 -158.36233004  47.69534263
3078.00 -158.55659641  47.78349363
3080.00 -158.75094883  47.87174422
3082.00 -158.94538722  47.96009442
3084.00 -159.13991153  48.04854425
3086.00 -159.33452168  48.13709376
3088.00 -159.52921761  48.22574296
3090.00 -159.72399926  48.31449190
3092.00 -159.91886656  48.40334059
3094.00 -160.11381944  48.49228908
3096.00 -160.30885784  48.58133738
3098.00 -160.50398169  48.67048553
3100.00 -160.69919092  48.75973356
3102.00 -160.89448547  48.84908149
3104.00 -161.08986528  48.93852936
3106.00 -161.28533027  49.02807719
3108.00 -161.48088039  49.11772502
3110.00 -161.67651555  49.20747288
3112.00 -161.87223571  49.29732078
3114.00 -162.06804079  49.38726877
3116.00 -162.26393073  49.47731687
3118.00 -162.45990546  49.56746511
3120.00 -162.65596491  49.65771352
3122.00 -162.85210902  49.74806212
3124.00 -163.04833773  49.83851095
3126.00 -163.24465096  49.92906004
3128.00 -163.44104865  50.01970941
3130.00 -163.63753074  50.11045910
3132.00 -163.83409716  50.20130912
3134.00 -164.03074783  50.29225952
3136.00 -164.22748271  50.38331031
3138.00 -164.42430171  50.47446154
3140.00 -164.62120478  50.56571321
3142.00 -164.81819185  50.65706537
3144.00 -165.01526285  50.74851804
3146.00 -165.21241771  50.84007126
3148.00 -165.40965638  50.93172504
3150.00 -165.60697877  51.02347941
3152.00 -165.80438484  51.11533441
3154.00 -166.00187451  51.20729007
3156.00 -166.19944771  51.29934640
3158.00 -166.39710438  51.39150345
3160.00 -166.59484445  51.48376123
3162.00 -166.79266786  51.57611977
3164.00 -166.99057454  51.66857911
3166.00 -167.18856443  51.76113926
3168.00 -167.38663745  51.85380026
3170.00 -167.58479354  51.94656214
3172.00 -167.78303264  52.03942492
3174.00 -167.98135468  52.13238863
3176.00 -168.17975960  52.22545330
3178.00 -168.37824732  52.31861896
3180.00 -168.57681778  52.41188562
3182.00 -168.77547092  52.50525333
3184.00 -168.97420666  52.59872210
3186.00 -169.17302495  52.69229197
3188.00 -169.37192571  52.78596295
3190.00 -169.57090888  52.87973509
3192.00 -169.76997440  52.97360840
3194.00 -169.96912219  53.06758291
3196.00 -170.16835220  53.16165866
3198.00 -170.36766434  53.25583566
3200.00 -170.56705857  53.35011394
3202.00 -170.76653481  53.44449353
3204.00 -170.96609300  53.53897446
3206.00 -171.16573306  53.63355675
3208.00 -171.36545494  53.72824043
3210.00 -171.56525857  53.82302553
3212.00 -171.76514387  53.91791207
3214.00 -171.96511080  54.01290008
3216.00 -172.16515926  54.10798959
3218.00 -172.36528922  54.20318062
3220.00 -172.56550058  54.29847320
3222.00 -172.76579330  54.39386735
3224.00 -172.96616730  54.48936310
3226.00 -173.16662252  54.58496048
3228.00 -173.36715888  54.68065951
3230.00 -173.56777633  54.77646023
3232.00 -173.76847480  54.87236265
3234.00 -173.96925422  54.96836680
3236.00 -174.17011452  55.06447270
3238.00 -174.37105565  55.16068039
3240.00 -174.57207752  55.25698989
3242.00 -174.77318009  55.35340122
3244.00 -174.97436327  55.44991442
3246.00 -175.17562700  55.54652950
3248.00 -175.37697122  55.64324649
3250.00 -175.57839587  55.74006542
3252.00 -175.77990086  55.83698631
3254.00 -175.98148615  55.93400918
3256.00 -176.18315165  56.03113408
3258.00 -176.38489731  56.12836101
3260.00 -176.58672306  56.22569000
3262.00 -176.78862883  56.32312108
3264.00 -176.99061456  56.42065428
3266.00 -177.19268018  56.51828962
3268.00 -177.39482562  56.61602712
3270.00 -177.59705082  56.71386681
3272.00 -177.79935571  56.81180872
3274.00 -178.00174022  56.90985287
3276.00 -178.20420429  57.00799927
3278.00 -178.40674785  57.10624797
3280.00 -178.60937083  57.20459899
3282.00 -178.81207318  57.30305234
3284.00 -179.01485481  57.40160805
3286.00 -179.21771567  57.50026616
3288.00 -179.42065569  57.59902667
3290.00 -179.62367480  57.69788962
3292.00 -179.82677294  57.79685504
3294.00 -180.02995004  57.89592294
3296.00 -180.23320603  57.99509335
3298.00 -180.43654085  58.09436629
3300.00 -180.63995443  58.19374179
3302.00 -180.84344671  58.29321988
3304.00 -181.04701761  58.39280057
3306.00 -181.25066707  58.49248389
3308.00 -181.45439503  58.59226987
3310.00 -181.65820141  58.69215853
3312.00 -181.86208616  58.79214989
3314.00 -182.06604921  58.89224398
3316.00 -182.27009048  58.99244082
3318.00 -182.47420991  59.09274043
3320.00 -182.67840744  59.19314284
3322.00 -182.88268300  59.29364808
3324.00 -183.08703653  59.39425615
3326.00 -183.29146795  59.49496710
3328.00 -183.49597720  59.59578094
3330.00 -183.70056421  59.69669770
3332.00 -183.90522892  59.79771740
3334.00 -184.10997126  59.89884006
3336.00 -184.31479117  60.00006570
3338.00 -184.51968857  60.10139436
3340.00 -184.72466341  60.20282605
3342.00 -184.92971561  60.30436079
3344.00 -185.13484511  60.40599862
3346.00 -185.34005184  60.50773954
3348.00 -185.54533574  60.60958359
3350.00 -185.75069673  60.71153079
3352.00 -185.95613476  60.81358116
3354.00 -186.16164976  60.91573473
3356.00 -186.36724165  61.01799151
3358.00 -186.57291038  61.12035153
3360.00 -186.77865587  61.22281481
3362.00 -186.98447807  61.32538138
3364.00 -187.19037689  61.42805125
3366.00 -187.39635229  61.53082446
3368.00 -187.60240418  61.63370101
3370.00 -187.80853251  61.73668094
3372.00 -188.01473721  61.83976427
3374.00 -188.22101821  61.94295102
3376.00 -188.42737544  62.04624121
3378.00 -188.63380884  62.14963487
3380.00 -188.84031835  62.25313201
3382.00 -189.04690389  62.35673266
3384.00 -189.25356539  62.46043684
3386.00 -189.46030280  62.56424458
3388.00 -189.66711605  62.66815588
3390.00 -189.87400506  62.77217079
3392.00 -190.08096978  62.87628931
3394.00 -190.28801013  62.98051148
3396.00 -190.49512606  63.08483730
3398.00 -190.70231748  63.18926681
3400.00 -190.90958435  63.29380003
3402.00 -191.11692658  63.39843697
3404.00 -191.32434412  63.50317766
3406.00 -191.53183690  63.60802212
3408.00 -191.73940484  63.71297038
3410.00 -191.94704789  63.81802244
3412.00 -192.15476598  63.92317834
3414.00 -192.36255904  64.02843810
3416.00 -192.57042700  64.13380174
3418.00 -192.77836981  64.23926927
3420.00 -192.98638738  64.34484072
3422.00 -193.19447966  64.45051611
3424.00 -193.40264658  64.55629547
3426.00 -193.61088807  64.66217881
3428.00 -193.81920407  64.76816615
3430.00 -194.02759451  64.87425752
3432.00 -194.23605932  64.98045293
3434.00 -194.44459844  65.08675241
3436.00 -194.65321179  65.19315597
3438.00 -194.86189932  65.29966365
3440.00 -195.07066096  65.40627545
3442.00 -195.27949664  65.51299140
3444.00 -195.48840629  65.61981153
3446.00 -195.69738985  65.72673584
3448.00 -195.90644725  65.83376436
3450.00 -196.11557842  65.94089711
3452.00 -196.32478330  66.04813412
3454.00 -196.53406183  66.15547540
3456.00 -196.74341393  66.26292097
3458.00 -196.95283954  66.37047085
3460.00 -197.16233859  66.47812507
3462.00 -197.37191101  66.58588363
3464.00 -197.58155675  66.69374657
3466.00 -197.79127573  66.80171391
3468.00 -198.00106788  66.90978565
3470.00 -198.21093315  67.01796183
3472.00 -198.42087145  67.12624246
3474.00 -198.63088274  67.23462757
3476.00 -198.84096693  67.34311716
3478.00 -199.05112397  67.45171127
3480.00 -199.26135379  67.56040991
3482.00 -199.47165632  67.66921310
3484.00 -199.68203149  67.77812086
3486.00 -199.89247924  67.88713321
3488.00 -200.10299950  67.99625017
3490.00 -200.31359221  68.10547176
3492.00 -200.52425730  68.21479800
3494.00 -200.73499469  68.32422891
3496.00 -200.94580434  68.43376450
3498.00 -201.15668616  68.54340480
3500.00 -201.36764010  68.65314982
3502.00 -201.57866608  68.76299959
3504.00 -201.78976405  68.87295412
3506.00 -202.00093392  68.98301344
3508.00 -202.21217565  69.09317755
3510.00 -202.42348915  69.20344649
3512.00 -202.63487437  69.31382027
3514.00 -202.84633124  69.42429890
3516.00 -203.05785969  69.53488241
3518.00 -203.26945965  69.64557082
3520.00 -203.48113107  69.75636414
3522.00 -203.69287386  69.86726239
3524.00 -203.90468797  69.97826560
3526.00 -204.11657333  70.08937377
3528.00 -204.32852988  70.20058694
3530.00 -204.54055754  70.31190511
3532.00 -204.75265625  70.42332830
3534.00 -204.96482594  70.53485654
3536.00 -205.17706655  70.64648984
3538.00 -205.38937801  70.75822822
3540.00 -205.60176026  70.87007170
3542.00 -205.81421323  70.98202030
3544.00 -206.02673685  71.09407403
3546.00 -206.23933105  71.20623291
3548.00 -206.45199577  71.31849696
3550.00 -206.66473095  71.43086620
3552.00 -206.87753651  71.54334065
3554.00 -207.09041239  71.65592032
3556.00 -207.30335852  71.76860523
3558.00 -207.51637484  71.88139540
3560.00 -207.72946129  71.99429085
3562.00 -207.94261778  72.10729159
3564.00 -208.15584427  72.22039765
3566.00 -208.36914068  72.33360903
3568.00 -208.58250694  72.44692576
3570.00 -208.79594299  72.56034786
3572.00 -209.00944877  72.67387534
3574.00 -209.22302420  72.78750821
3576.00 -209.43666922  72.90124651
3578.00 -209.65038377  73.01509024
3580.00 -209.86416777  73.12903941
3582.00 -210.07802116  73.24309406
3584.00 -210.29194388  73.35725419
3586.00 -210.50593586  73.47151983
3588.00 -210.71999703  73.58589098
3590.00 -210.93412732  73.70036767
3592.00 -211.14832668  73.81494991
3594.00 -211.36259503  73.92963773
3596.00 -211.57693230  74.04443113
3598.00 -211.79133844  74.15933013
3600.00 -212.00581337  74.27433475
3602.00 -212.22035703  74.38944501
3604.00 -212.43496935  74.50466092
3606.00 -212.64965026  74.61998250
3608.00 -212.86439971  74.73540977
3610.00 -213.07921762  74.85094274
3612.00 -213.29410392  74.96658143
3614.00 -213.50905856  75.08232585
3616.00 -213.72408146  75.19817603
3618.00 -213.93917255  75.31413197
3620.00 -214.15433178  75.43019370
3622.00 -214.36955908  75.54636123
3624.00 -214.58485438  75.66263458
3626.00 -214.80021760  75.77901375
3628.00 -215.01564870  75.89549878
3630.00 -215.23114759  76.01208967
3632.00 -215.44671422  76.12878644
3634.00 -215.66234852  76.24558910
3636.00 -215.87805042  76.36249768
3638.00 -216.09381986  76.47951219
3640.00 -216.30965676  76.59663263
3642.00 -216.52556107  76.71385904
3644.00 -216.74153272  76.83119142
3646.00 -216.95757164  76.94862979
3648.00 -217.17367776  77.06617417
3650.00 -217.38985102  77.18382457
3652.00 -217.60609136  77.30158100
3654.00 -217.82239870  77.41944349
3656.00 -218.03877298  77.53741204
3658.00 -218.25521413  77.65548668
3660.00 -218.47172209  77.77366741
3662.00 -218.68829680  77.89195426
3664.00 -218.90493818  78.01034723
3666.00 -219.12164617  78.12884635
3668.00 -219.33842070  78.24745162
3670.00 -219.55526171  78.36616307
3672.00 -219.77216914  78.48498070
3674.00 -219.98914290  78.60390454
3676.00 -220.20618295  78.72293460
3678.00 -220.42328921  78.84207088
3680.00 -220.64046161  78.96131342
3682.00 -220.85770010  79.08066221
3684.00 -221.07500460  79.20011728
3686.00 -221.29237505  79.31967865
3688.00 -221.50981139  79.43934631
3690.00 -221.72731354  79.55912030
3692.00 -221.94488144  79.67900062
3694.00 -222.16251502  79.79898729
3696.00 -222.38021422  79.91908033
3698.00 -222.59797898  80.03927974
3700.00 -222.81580922  80.15958554
3702.00 -223.03370488  80.27999775
3704.00 -223.25166590  80.40051638
3706.00 -223.46969220  80.52114144
3708.00 -223.68778373  80.64187295
3710.00 -223.90594041  80.76271092
3712.00 -224.12416218  80.88365537
3714.00 -224.34244898  81.00470631
3716.00 -224.56080074  81.12586375
3718.00 -224.77921739  81.24712771
3720.00 -224.99769886  81.36849820
3722.00 -225.21624510  81.48997523
3724.00 -225.43485603  81.61155882
3726.00 -225.65353158  81.73324899
3728.00 -225.87227170  81.85504574
3730.00 -226.09107632  81.97694909
3732.00 -226.30994537  82.09895906
3734.00 -226.52887878  82.22107565
3736.00 -226.74787650  82.34329888
3738.00 -226.96693844  82.46562876
3740.00 -227.18606455  82.58806531
3742.00 -227.40525477  82.71060854
3744.00 -227.62450902  82.83325846
3746.00 -227.84382724  82.95601508
3748.00 -228.06320936  83.07887843
3750.00 -228.28265532  83.20184850
3752.00 -228.50216505  83.32492533
3754.00 -228.72173849  83.44810891
3756.00 -228.94137557  83.57139926
3758.00 -229.16107622  83.69479639
3760.00 -229.38084038  83.81830032
3762.00 -229.60066798  83.94191106
3764.00 -229.82055897  84.06562862
3766.00 -230.04051326  84.18945302
3768.00 -230.26053079  84.31338426
3770.00 -230.48061151  84.43742236
3772.00 -230.70075534  84.56156734
3774.00 -230.92096222  84.68581920
3776.00 -231.14123208  84.81017795
3778.00 -231.36156486  84.93464362
3780.00 -231.58196049  85.05921620
3782.00 -231.80241890  85.18389573
3784.00 -232.02294004  85.30868219
3786.00 -232.24352382  85.43357562
3788.00 -232.46417020  85.55857601
3790.00 -232.68487909  85.68368339
3792.00 -232.90565045  85.80889777
3794.00 -233.12648419  85.93421915
3796.00 -233.34738026  86.05964755
3798.00 -233.56833859  86.18518298
3800.00 -233.78935911  86.31082545
3802.00 -234.01044176  86.43657497
3804.00 -234.23158647  86.56243157
3806.00 -234.45279318  86.68839523
3808.00 -234.67406182  86.81446599
3810.00 -234.89539233  86.94064385
3812.00 -235.11678463  87.06692883
3814.00 -235.33823867  87.19332092
3816.00 -235.55975438  87.31982015
3818.00 -235.78133169  87.44642653
3820.00 -236.00297054  87.57314007
3822.00 -236.22467086  87.69996077
3824.00 -236.44643259  87.82688866
3826.00 -236.66825566  87.95392374
3828.00 -236.89014000  88.08106602
3830.00 -237.11208555  88.20831552
3832.00 -237.33409225  88.33567224
3834.00 -237.55616002  88.46313620
3836.00 -237.77828881  88.59070741
3838.00 -238.00047855  88.71838587
3840.00 -238.22272917  88.84617161
3842.00 -238.44504060  88.97406462
3844.00 -238.66741279  89.10206493
3846.00 -238.88984566  89.23017254
3848.00 -239.11233915  89.35838746
3850.00 -239.33489320  89.48670970
3852.00 -239.55750773  89.61513928
3854.00 -239.78018269  89.74367620
3856.00 -240.00291801  89.87232048
3858.00 -240.22571362  90.00107212
3860.00 -240.44856946  90.12993114
3862.00 -240.67148546  90.25889755
3864.00 -240.89446156  90.38797135
3866.00 -241.11749768  90.51715256
3868.00 -241.34059378  90.64644119
3870.00 -241.56374977  90.77583724
3872.00 -241.78696561  90.90534073
3874.00 -242.01024121  91.03495167
3876.00 -242.23357651  91.16467007
3878.00 -242.45697146  91.29449594
3880.00 -242.68042597  91.42442928
3882.00 -242.90394000  91.55447011
3884.00 -243.12751347  91.68461844
3886.00 -243.35114632  91.81487427
3888.00 -243.57483848  91.94523763
3890.00 -243.79858989  92.07570851
3892.00 -244.02240048  92.20628692
3894.00 -244.24627019  92.33697289
3896.00 -244.47019895  92.46776641
3898.00 -244.69418670  92.59866749
3900.00 -244.91823336  92.72967615
3902.00 -245.14233889  92.86079240
3904.00 -245.36650320  92.99201624
3906.00 -245.59072624  93.12334768
3908.00 -245.81500795  93.25478673
3910.00 -246.03934824  93.38633341
3912.00 -246.26374707  93.51798772
3914.00 -246.48820436  93.64974967
3916.00 -246.71272005  93.78161926
3918.00 -246.93729408  93.91359652
3920.00 -247.16192638  94.04568144
3922.00 -247.38661688  94.17787404
3924.00 -247.61136552  94.31017433
3926.00 -247.83617223  94.44258231
3928.00 -248.06103696  94.57509800
3930.00 -248.28595963  94.70772139
3932.00 -248.51094017  94.84045251
3934.00 -248.73597853  94.97329136
3936.00 -248.96107465  95.10623794
3938.00 -249.18622844  95.23929228
3940.00 -249.41143986  95.37245437
3942.00 -249.63670882  95.50572422
3944.00 -249.86203528  95.63910185
3946.00 -250.08741916  95.77258725
3948.00 -250.31286040  95.90618045
3950.00 -250.53835894  96.03988144
3952.00 -250.76391470  96.17369024
3954.00 -250.98952763  96.30760686
3956.00 -251.21519766  96.44163130
3958.00 -251.44092472  96.57576357
3960.00 -251.66670875  96.71000368
3962.00 -251.89254969  96.84435163
3964.00 -252.11844747  96.97880744
3966.00 -252.34440202  97.11337112
3968.00 -252.57041328  97.24804266
3970.00 -252.79648118  97.38282209
3972.00 -253.02260567  97.51770940
3974.00 -253.24878667  97.65270461
3976.00 -253.47502413  97.78780772
3978.00 -253.70131797  97.92301874
3980.00 -253.92766813  98.05833767
3982.00 -254.15407454  98.19376454
3984.00 -254.38053715  98.32929933
3986.00 -254.60705588  98.46494207
3988.00 -254.83363068  98.60069276
3990.00 -255.06026148  98.73655140
3992.00 -255.28694820  98.87251800
3994.00 -255.51369080  99.00859258
3996.00 -255.74048919  99.14477513
3998.00 -255.96734333  99.28106567
4000.00 -256.19425314  99.41746420
4002.00 -256.42121856  99.55397073
4004.00 -256.64823952  99.69058527
4006.00 -256.87531597  99.82730782
4008.00 -257.10244782  99.96413839
4010.00 -257.32963503 100.10107699
4012.00 -257.55687753 100.23812363
4014.00 -257.78417524 100.37527830
4016.00 -258.01152812 100.51254103
4018.00 -258.23893608 100.64991181
4020.00 -258.46639908 100.78739065
4022.00 -258.69391703 100.92497757
4024.00 -258.92148989 101.06267255
4026.00 -259.14911758 101.20047563
4028.00 -259.37680003 101.33838678
4030.00 -259.60453720 101.47640604
4032.00 -259.83232900 101.61453340
4034.00 -260.06017538 101.75276886
4036.00 -260.28807627 101.89111244
4038.00 -260.51603161 102.02956415
4040.00 -260.74404133 102.16812398
4042.00 -260.97210537 102.30679194
4044.00 -261.20022366 102.44556804
4046.00 -261.42839615 102.58445229
4048.00 -261.65662275 102.72344470
4050.00 -261.88490342 102.86254526
4052.00 -262.11323809 103.00175399
4054.00 -262.34162669 103.14107088
4056.00 -262.57006915 103.28049596
4058.00 -262.79856542 103.42002922
4060.00 -263.02711542 103.55967066
4062.00 -263.25571911 103.69942030
4064.00 -263.48437640 103.83927814
4066.00 -263.71308724 103.97924419
4068.00 -263.94185156 104.11931845
4070.00 -264.17066929 104.25950092
4072.00 -264.39954038 104.39979162
4074.00 -264.62846476 104.54019055
4076.00 -264.85744237 104.68069771
4078.00 -265.08647313 104.82131312
4080.00 -265.31555700 104.96203676
4082.00 -265.54469389 105.10286866
4084.00 -265.77388375 105.24380882
4086.00 -266.00312652 105.38485723
4088.00 -266.23242213 105.52601391
4090.00 -266.46177051 105.66727887
4092.00 -266.69117160 105.80865210
4094.00 -266.92062535 105.95013361
4096.00 -267.15013167 106.09172341
4098.00 -267.37969052 106.23342150
4100.00 -267.60930182 106.37522789
4102.00 -267.83896551 106.51714258
4104.00 -268.06868153 106.65916558
4106.00 -268.29844981 106.80129689
4108.00 -268.52827029 106.94353652
4110.00 -268.75814291 107.08588447
4112.00 -268.98806760 107.22834075
4114.00 -269.21804429 107.37090536
4116.00 -269.44807293 107.51357830
4118.00 -269.67815345 107.65635959
4120.00 -269.90828578 107.79924921
4122.00 -270.13846987 107.94224719
4124.00 -270.36870564 108.08535353
4126.00 -270.59899304 108.22856822
4128.00 -270.82933200 108.37189127
4130.00 -271.05972245 108.51532269
4132.00 -271.29016434 108.65886249
4134.00 -271.52065759 108.80251066
4136.00 -271.75120215 108.94626721
4138.00 -271.98179795 109.09013214
4140.00 -272.21244493 109.23410546
4142.00 -272.44314302 109.37818718
4144.00 -272.67389216 109.52237729
4146.00 -272.90469229 109.66667580
4148.00 -273.13554334 109.81108272
4150.00 -273.36644524 109.95559805
4152.00 -273.59739795 110.10022179
4154.00 -273.82840138 110.24495394
4156.00 -274.05945548 110.38979452
4158.00 -274.29056018 110.53474351
4160.00 -274.52171543 110.67980094
4162.00 -274.75292115 110.82496680
4164.00 -274.98417728 110.97024109
4166.00 -275.21548376 111.11562382
4168.00 -275.44684053 111.26111499
4170.00 -275.67824752 111.40671461
4172.00 -275.90970467 111.55242268
4174.00 -276.14121191 111.69823920
4176.00 -276.37276919 111.84416417
4178.00 -276.60437643 111.99019761
4180.00 -276.83603358 112.13633951
4182.00 -277.06774057 112.28258987
4184.00 -277.29949733 112.42894870
4186.00 -277.53130381 112.57541600
4188.00 -277.76315994 112.72199178
4190.00 -277.99506566 112.86867604
4192.00 -278.22702090 113.01546878
4194.00 -278.45902560 113.16237000
4196.00 -278.69107970 113.30937971
4198.00 -278.92318314 113.45649791
4200.00 -279.15533584 113.60372460
4202.00 -279.38753775 113.75105979
4204.00 -279.61978880 113.89850347
4206.00 -279.85208894 114.04605566
4208.00 -280.08443809 114.19371635
4210.00 -280.31683619 114.34148555
4212.00 -280.54928319 114.48936326
4214.00 -280.78177901 114.63734948
4216.00 -281.01432359 114.78544421
4218.00 -281.24691688 114.93364746
4220.00 -281.47955881 115.08195923
4222.00 -281.71224930 115.23037952
4224.00 -281.94498831 115.37890833
4226.00 -282.17777577 115.52754567
4228.00 -282.41061162 115.67629154
4230.00 -282.64349578 115.82514594
4232.00 -282.87642820 115.97410887
4234.00 -283.10940882 116.12318034
4236.00 -283.34243758 116.27236035
4238.00 -283.57551440 116.42164889
4240.00 -283.80863923 116.57104598
4242.00 -284.04181200 116.72055160
4244.00 -284.27503265 116.87016578
4246.00 -284.50830112 117.01988850
4248.00 -284.74161734 117.16971977
4250.00 -284.97498125 117.31965959
4252.00 -285.20839280 117.46970796
4254.00 -285.44185191 117.61986489
4256.00 -285.67535852 117.77013037
4258.00 -285.90891257 117.92050441
4260.00 -286.14251400 118.07098701
4262.00 -286.37616274 118.22157817
4264.00 -286.60985873 118.37227789
4266.00 -286.84360191 118.52308617
4268.00 -287.07739222 118.67400303
4270.00 -287.31122959 118.82502844
4272.00 -287.54511395 118.97616243
4274.00 -287.77904526 119.12740498
4276.00 -288.01302344 119.27875610
4278.00 -288.24704843 119.43021580
4280.00 -288.48112017 119.58178407
4282.00 -288.71523860 119.73346091
4284.00 -288.94940365 119.88524633
4286.00 -289.18361526 120.03714032
4288.00 -289.41787336 120.18914289
4290.00 -289.65217791 120.34125404
4292.00 -289.88652882 120.49347377
4294.00 -290.12092605 120.64580207
4296.00 -290.35536952 120.79823896
4298.00 -290.58985918 120.95078443
4300.00 -290.82439496 121.10343848
4302.00 -291.05897680 121.25620112
4304.00 -291.29360464 121.40907233
4306.00 -291.52827841 121.56205214
4308.00 -291.76299806 121.71514052
4310.00 -291.99776351 121.86833750
4312.00 -292.23257471 122.02164306
4314.00 -292.46743160 122.17505720
4316.00 -292.70233411 122.32857993
4318.00 -292.93728217 122.48221125
4320.00 -293.17227574 122.63595116
4322.00 -293.40731474 122.78979966
4324.00 -293.64239911 122.94375674
4326.00 -293.87752880 123.09782242
4328.00 -294.11270373 123.25199668
4330.00 -294.34792385 123.40627953
4332.00 -294.58318909 123.56067097
4334.00 -294.81849939 123.71517100
4336.00 -295.05385469 123.86977961
4338.00 -295.28925493 124.02449682
4340.00 -295.52470004 124.17932262
4342.00 -295.76018996 124.33425700
4344.00 -295.99572464 124.48929997
4346.00 -296.23130400 124.64445154
4348.00 -296.46692799 124.79971169
4350.00 -296.70259654 124.95508043
4352.00 -296.93830959 125.11055775
4354.00 -297.17406708 125.26614367
4356.00 -297.40986895 125.42183817
4358.00 -297.64571513 125.57764126
4360.00 -297.88160556 125.73355293
4362.00 -298.11754019 125.88957319
4364.00 -298.35351895 126.04570204
4366.00 -298.58954177 126.20193947
4368.00 -298.82560859 126.35828549
4370.00 -299.06171936 126.51474009
4372.00 -299.29787401 126.67130327
4374.00 -299.53407248 126.82797503
4376.00 -299.77031471 126.98475538
4378.00 -300.00660063 127.14164430
4380.00 -300.24293018 127.29864181
4382.00 -300.47930331 127.45574789
4384.00 -300.71571994 127.61296255
4386.00 -300.95218002 127.77028579
4388.00 -301.18868349 127.92771761
4390.00 -301.42523028 128.08525799
4392.00 -301.66182034 128.24290696
4394.00 -301.89845359 128.40066449
4396.00 -302.13512998 128.55853060
4398.00 -302.37184945 128.71650528
4400.00 -302.60861194 128.87458852
4402.00 -302.84541737 129.03278033
4404.00 -303.08226570 129.19108071
4406.00 -303.31915686 129.34948966
4408.00 -303.55609079 129.50800717
4410.00 -303.79306743 129.66663324
4412.00 -304.03008671 129.82536787
4414.00 -304.26714857 129.98421106
4416.00 -304.50425295 130.14316280
4418.00 -304.74139980 130.30222311
4420.00 -304.97858904 130.46139196
4422.00 -305.21582063 130.62066937
4424.00 -305.45309448 130.78005533
4426.00 -305.69041055 130.93954984
4428.00 -305.92776878 131.09915290
4430.00 -306.16516910 131.25886450
4432.00 -306.40261144 131.41868464
4434.00 -306.64009576 131.57861333
4436.00 -306.87762198 131.73865056
4438.00 -307.11519004 131.89879632
4440.00 -307.35279990 132.05905062
4442.00 -307.59045147 132.21941345
4444.00 -307.82814471 132.37988482
4446.00 -308.06587954 132.54046471
4448.00 -308.30365592 132.70115313
4450.00 -308.54147377 132.86195007
4452.00 -308.77933304 133.02285554
4454.00 -309.01723367 133.18386953
4456.00 -309.25517559 133.34499203
4458.00 -309.49315874 133.50622305
4460.00 -309.73118307 133.66756259
4462.00 -309.96924850 133.82901063
4464.00 -310.20735499 133.99056718
4466.00 -310.44550246 134.15223224
4468.00 -310.68369086 134.31400580
4470.00 -310.92192013 134.47588786
4472.00 -311.16019020 134.63787842
4474.00 -311.39850101 134.79997747
4476.00 -311.63685251 134.96218502
4478.00 -311.87524463 135.12450105
4480.00 -312.11367731 135.28692557
4482.00 -312.35215050 135.44945857
4484.00 -312.59066412 135.61210006
4486.00 -312.82921812 135.77485002
4488.00 -313.06781243 135.93770846
4490.00 -313.30644700 136.10067537
4492.00 -313.54512177 136.26375075
4494.00 -313.78383667 136.42693459
4496.00 -314.02259165 136.59022689
4498.00 -314.26138664 136.75362766
4500.00 -314.50022158 136.91713688
4502.00 -314.73909641 137.08075455
4504.00 -314.97801107 137.24448068
4506.00 -315.21696550 137.40831525
4508.00 -315.45595964 137.57225826
4510.00 -315.69499343 137.73630971
4512.00 -315.93406681 137.90046960
4514.00 -316.17317971 138.06473792
4516.00 -316.41233208 138.22911467
4518.00 -316.65152386 138.39359985
4520.00 -316.89075498 138.55819345
4522.00 -317.13002539 138.72289546
4524.00 -317.36933501 138.88770589
4526.00 -317.60868381 139.05262474
4528.00 -317.84807170 139.21765199
4530.00 -318.08749864 139.38278764
4532.00 -318.32696456 139.54803169
4534.00 -318.56646940 139.71338414
4536.00 -318.80601310 139.87884498
4538.00 -319.04559560 140.04441421
4540.00 -319.28521684 140.21009182
4542.00 -319.52487676 140.37587781
4544.00 -319.76457530 140.54177218
4546.00 -320.00431240 140.70777492
4548.00 -320.24408800 140.87388602
4550.00 -320.48390204 141.04010549
4552.00 -320.72375445 141.20643332
4554.00 -320.96364518 141.37286951
4556.00 -321.20357417 141.53941405
4558.00 -321.44354135 141.70606693
4560.00 -321.68354667 141.87282815
4562.00 -321.92359007 142.03969772
4564.00 -322.16367149 142.20667561
4566.00 -322.40379086 142.37376184
4568.00 -322.64394812 142.54095639
4570.00 -322.88414323 142.70825926
4572.00 -323.12437611 142.87567044
4574.00 -323.36464670 143.04318994
4576.00 -323.60495495 143.21081774
4578.00 -323.84530080 143.37855384
4580.00 -324.08568418 143.54639824
4582.00 -324.32610503 143.71435094
4584.00 -324.56656331 143.88241192
4586.00 -324.80705893 144.05058118
4588.00 -325.04759186 144.21885872
4590.00 -325.28816202 144.38724453
4592.00 -325.52876935 144.55573861
4594.00 -325.76941380 144.72434095
4596.00 -326.01009531 144.89305155
4598.00 -326.25081381 145.06187040
4600.00 -326.49156925 145.23079750
4602.00 -326.73236157 145.39983285
4604.00 -326.97319070 145.56897643
4606.00 -327.21405659 145.73822824
4608.00 -327.45495918 145.90758828
4610.00 -327.69589840 146.07705654
4612.00 -327.93687420 146.24663301
4614.00 -328.17788652 146.41631770
4616.00 -328.41893530 146.58611059
4618.00 -328.66002048 146.75601169
4620.00 -328.90114200 146.92602097
4622.00 -329.14229979 147.09613845
4624.00 -329.38349381 147.26636411
4626.00 -329.62472399 147.43669795
4628.00 -329.86599027 147.60713996
4630.00 -330.10729258 147.77769014
4632.00 -330.34863088 147.94834848
4634.00 -330.59000511 148.11911497
4636.00 -330.83141519 148.28998961
4638.00 -331.07286108 148.46097240
4640.00 -331.31434272 148.63206333
4642.00 -331.55586003 148.80326238
4644.00 -331.79741298 148.97456957
4646.00 -332.03900149 149.14598487
4648.00 -332.28062550 149.31750829
4650.00 -332.52228497 149.48913982
4652.00 -332.76397982 149.66087945
4654.00 -333.00571000 149.83272718
4656.00 -333.24747544 150.00468299
4658.00 -333.48927610 150.17674689
4660.00 -333.73111191 150.34891887
4662.00 -333.97298281 150.52119892
4664.00 -334.21488875 150.69358703
4666.00 -334.45682965 150.86608321
4668.00 -334.69880548 151.03868744
4670.00 -334.94081615 151.21139971
4672.00 -335.18286163 151.38422002
4674.00 -335.42494184 151.55714837
4676.00 -335.66705672 151.73018474
4678.00 -335.90920623 151.90332914
4680.00 -336.15139030 152.07658155
4682.00 -336.39360886 152.24994196
4684.00 -336.63586187 152.42341038
4686.00 -336.87814926 152.59698679
4688.00 -337.12047098 152.77067119
4690.00 -337.36282696 152.94446357
4692.00 -337.60521715 153.11836393
4694.00 -337.84764148 153.29237225
4696.00 -338.09009991 153.46648853
4698.00 -338.33259236 153.64071276
4700.00 -338.57511878 153.81504495
4702.00 -338.81767912 153.98948507
4704.00 -339.06027331 154.16403312
4706.00 -339.30290129 154.33868910
4708.00 -339.54556301 154.51345300
4710.00 -339.78825841 154.68832481
4712.00 -340.03098743 154.86330453
4714.00 -340.27375000 155.03839214
4716.00 -340.51654608 155.21358765
4718.00 -340.75937560 155.38889103
4720.00 -341.00223850 155.56430229
4722.00 -341.24513473 155.73982142
4724.00 -341.48806423 155.91544842
4726.00 -341.73102693 156.09118326
4728.00 -341.97402279 156.26702595
4730.00 -342.21705174 156.44297648
4732.00 -342.46011372 156.61903485
4734.00 -342.70320867 156.79520103
4736.00 -342.94633654 156.97147504
4738.00 -343.18949727 157.14785685
4740.00 -343.43269080 157.32434646
4742.00 -343.67591707 157.50094387
4744.00 -343.91917602 157.67764906
4746.00 -344.16246759 157.85446203
4748.00 -344.40579174 158.03138278
4750.00 -344.64914839 158.20841128
4752.00 -344.89253749 158.38554754
4754.00 -345.13595898 158.56279155
4756.00 -345.37941280 158.74014329
4758.00 -345.62289890 158.91760277
4760.00 -345.86641722 159.09516997
4762.00 -346.10996769 159.27284489
4764.00 -346.35355027 159.45062752
4766.00 -346.59716489 159.62851784
4768.00 -346.84081149 159.80651585
4770.00 -347.08449002 159.98462155
4772.00 -347.32820042 160.16283493
4774.00 -347.57194263 160.34115597
4776.00 -347.81571659 160.51958467
4778.00 -348.05952225 160.69812101
4780.00 -348.30335954 160.87676501
4782.00 -348.54722841 161.05551663
4784.00 -348.79112880 161.23437588
4786.00 -349.03506066 161.41334275
4788.00 -349.27902392 161.59241723
4790.00 -349.52301852 161.77159930
4792.00 -349.76704442 161.95088897
4794.00 -350.01110155 162.13028622
4796.00 -350.25518985 162.30979105
4798.00 -350.49930927 162.48940344
4800.00 -350.74345975 162.66912339
4802.00 -350.98764122 162.84895088
4804.00 -351.23185364 163.02888592
4806.00 -351.47609695 163.20892849
4808.00 -351.72037108 163.38907858
4810.00 -351.96467599 163.56933619
4812.00 -352.20901160 163.74970130
4814.00 -352.45337788 163.93017390
4816.00 -352.69777475 164.11075399
4818.00 -352.94220216 164.29144156
4820.00 -353.18666005 164.47223660
4822.00 -353.43114836 164.65313910
4824.00 -353.67566705 164.83414905
4826.00 -353.92021604 165.01526645
4828.00 -354.16479529 165.19649127
4830.00 -354.40940474 165.37782352
4832.00 -354.65404432 165.55926319
4834.00 -354.89871398 165.74081026
4836.00 -355.14341366 165.92246472
4838.00 -355.38814332 166.10422658
4840.00 -355.63290288 166.28609581
4842.00 -355.87769229 166.46807240
4844.00 -356.12251149 166.65015636
4846.00 -356.36736044 166.83234767
4848.00 -356.61223906 167.01464631
4850.00 -356.85714731 167.19705229
4852.00 -357.10208512 167.37956559
4854.00 -357.34705244 167.56218620
4856.00 -357.59204921 167.74491411
4858.00 -357.83707538 167.92774932
4860.00 -358.08213088 168.11069180
4862.00 -358.32721567 168.29374156
4864.00 -358.57232968 168.47689859
4866.00 -358.81747285 168.66016286
4868.00 -359.06264514 168.84353438
4870.00 -359.30784647 169.02701314
4872.00 -359.55307680 169.21059912
4874.00 -359.79833608 169.39429231
4876.00 -360.04362423 169.57809271
4878.00 -360.28894121 169.76200030
4880.00 -360.53428695 169.94601508
4882.00 -360.77966141 170.13013703
4884.00 -361.02506452 170.31436615
4886.00 -361.27049623 170.49870242
4888.00 -361.51595649 170.68314583
4890.00 -361.76144522 170.86769638
4892.00 -362.00696239 171.05235405
4894.00 -362.25250792 171.23711884
4896.00 -362.49808177 171.42199073
4898.00 -362.74368388 171.60696971
4900.00 -362.98931419 171.79205578
4902.00 -363.23497265 171.97724892
4904.00 -363.48065919 172.16254912
4906.00 -363.72637376 172.34795637
4908.00 -363.97211631 172.53347067
4910.00 -364.21788678 172.71909199
4912.00 -364.46368511 172.90482034
4914.00 -364.70951125 173.09065570
4916.00 -364.95536514 173.27659805
4918.00 -365.20124672 173.46264740
4920.00 -365.44715593 173.64880372
4922.00 -365.69309273 173.83506701
4924.00 -365.93905705 174.02143726
4926.00 -366.18504884 174.20791446
4928.00 -366.43106804 174.39449859
4930.00 -366.67711460 174.58118964
4932.00 -366.92318845 174.76798761
4934.00 -367.16928955 174.95489248
4936.00 -367.41541784 175.14190425
4938.00 -367.66157325 175.32902290
4940.00 -367.90775575 175.51624841
4942.00 -368.15396526 175.70358079
4944.00 -368.40020173 175.89102001
4946.00 -368.64646511 176.07856607
4948.00 -368.89275533 176.26621896
4950.00 -369.13907236 176.45397867
4952.00 -369.38541612 176.64184517
4954.00 -369.63178656 176.82981847
4956.00 -369.87818363 177.01789856
4958.00 -370.12460728 177.20608541
4960.00 -370.37105743 177.39437902
4962.00 -370.61753405 177.58277938
4964.00 -370.86403706 177.77128648
4966.00 -371.11056643 177.95990030
4968.00 -371.35712209 178.14862084
4970.00 -371.60370398 178.33744808
4972.00 -371.85031205 178.52638201
4974.00 -372.09694625 178.71542262
4976.00 -372.34360651 178.90456989
4978.00 -372.59029279 179.09382383
4980.00 -372.83700502 179.28318441
4982.00 -373.08374316 179.47265162
4984.00 -373.33050714 179.66222546
4986.00 -373.57729691 179.85190590
4988.00 -373.82411242 180.04169294
4990.00 -374.07095361 180.23158658
4992.00 -374.31782042 180.42158678
4994.00 -374.56471280 180.61169355
4996.00 -374.81163069 180.80190687
4998.00 -375.05857404 180.99222673
5000.00 -375.30554279 181.18265312
