wavelength(nm)         real         imag
100.00   3.81637916   0.00079907
102.00   3.81300120   0.00084798
104.00   3.80955637   0.00089884
106.00   3.80604468   0.00095170
108.00   3.80246613   0.00100659
110.00   3.79882072   0.00106355
112.00   3.79510845   0.00112261
114.00   3.79132932   0.00118383
116.00   3.78748334   0.00124723
118.00   3.78357051   0.00131286
120.00   3.77959082   0.00138074
122.00   3.77554429   0.00145093
124.00   3.77143090   0.00152346
126.00   3.76725067   0.00159836
128.00   3.76300360   0.00167568
130.00   3.75868968   0.00175545
132.00   3.75430892   0.00183772
134.00   3.74986132   0.00192251
136.00   3.74534689   0.00200988
138.00   3.74076562   0.00209985
140.00   3.73611751   0.00219246
142.00   3.73140258   0.00228776
144.00   3.72662081   0.00238579
146.00   3.72177223   0.00248657
148.00   3.71685681   0.00259015
150.00   3.71187457   0.00269656
152.00   3.70682552   0.00280586
154.00   3.70170964   0.00291806
156.00   3.69652695   0.00303322
158.00   3.69127744   0.00315136
160.00   3.68596113   0.00327254
162.00   3.68057800   0.00339678
164.00   3.67512807   0.00352412
166.00   3.66961133   0.00365461
168.00   3.66402780   0.00378828
170.00   3.65837746   0.00392517
172.00   3.65266032   0.00406531
174.00   3.64687640   0.00420876
176.00   3.64102568   0.00435553
178.00   3.63510817   0.00450568
180.00   3.62912387   0.00465924
182.00   3.62307279   0.00481625
184.00   3.61695493   0.00497674
186.00   3.61077028   0.00514077
188.00   3.60451887   0.00530835
190.00   3.59820068   0.00547954
192.00   3.59181572   0.00565436
194.00   3.58536399   0.00583287
196.00   3.57884549   0.00601509
198.00   3.57226024   0.00620106
200.00   3.56560822   0.00639083
202.00   3.55888945   0.00658443
204.00   3.55210393   0.00678190
206.00   3.54525165   0.00698328
208.00   3.53833263   0.00718860
210.00   3.53134686   0.00739791
212.00   3.52429436   0.00761124
214.00   3.51717511   0.00782863
216.00   3.50998913   0.00805012
218.00   3.50273641   0.00827575
220.00   3.49541697   0.00850555
222.00   3.48803080   0.00873956
224.00   3.48057791   0.00897783
226.00   3.47305831   0.00922038
228.00   3.46547198   0.00946727
230.00   3.45781894   0.00971851
232.00   3.45009920   0.00997417
234.00   3.44231275   0.01023426
236.00   3.43445959   0.01049884
238.00   3.42653974   0.01076794
240.00   3.41855319   0.01104159
242.00   3.41049995   0.01131983
244.00   3.40238002   0.01160271
246.00   3.39419341   0.01189026
248.00   3.38594011   0.01218253
250.00   3.37762014   0.01247953
252.00   3.36923349   0.01278133
254.00   3.36078017   0.01308795
256.00   3.35226019   0.01339943
258.00   3.34367354   0.01371581
260.00   3.33502024   0.01403713
262.00   3.32630028   0.01436342
264.00   3.31751366   0.01469473
266.00   3.30866040   0.01503109
268.00   3.29974050   0.01537254
270.00   3.29075395   0.01571913
272.00   3.28170077   0.01607088
274.00   3.27258096   0.01642783
276.00   3.26339452   0.01679003
278.00   3.25414146   0.01715751
280.00   3.24482177   0.01753030
282.00   3.23543547   0.01790846
284.00   3.22598256   0.01829201
286.00   3.21646304   0.01868099
288.00   3.20687692   0.01907545
290.00   3.19722419   0.01947542
292.00   3.18750488   0.01988093
294.00   3.17771897   0.02029203
296.00   3.16786647   0.02070875
298.00   3.15794740   0.02113114
300.00   3.14796174   0.02155922
302.00   3.13790951   0.02199305
304.00   3.12779071   0.02243265
306.00   3.11760535   0.02287806
308.00   3.10735343   0.02332933
310.00   3.09703495   0.02378649
312.00   3.08664992   0.02424957
314.00   3.07619834   0.02471862
316.00   3.06568022   0.02519368
318.00   3.05509557   0.02567477
320.00   3.04444438   0.02616195
322.00   3.03372666   0.02665525
324.00   3.02294242   0.02715470
326.00   3.01209166   0.02766035
328.00   3.00117438   0.02817223
330.00   2.99019060   0.02869038
332.00   2.97914031   0.02921484
334.00   2.96802352   0.02974564
336.00   2.95684024   0.03028283
338.00   2.94559046   0.03082644
340.00   2.93427420   0.03137651
342.00   2.92289147   0.03193308
344.00   2.91144225   0.03249619
346.00   2.89992657   0.03306587
348.00   2.88834442   0.03364216
350.00   2.87669581   0.03422510
352.00   2.86498075   0.03481473
354.00   2.85319923   0.03541108
356.00   2.84135127   0.03601420
358.00   2.82943687   0.03662412
360.00   2.81745604   0.03724088
362.00   2.80540878   0.03786452
364.00   2.79329509   0.03849507
366.00   2.78111499   0.03913258
368.00   2.76886847   0.03977708
370.00   2.75655555   0.04042860
372.00   2.74417622   0.04108720
374.00   2.73173049   0.04175289
376.00   2.71921838   0.04242573
378.00   2.70663987   0.04310576
380.00   2.69399499   0.04379299
382.00   2.68128373   0.04448749
384.00   2.66850610   0.04518928
386.00   2.65566211   0.04589840
388.00   2.64275176   0.04661489
390.00   2.62977505   0.04733879
392.00   2.61673200   0.04807014
394.00   2.60362261   0.04880897
396.00   2.59044688   0.04955531
398.00   2.57720482   0.05030922
400.00   2.56389644   0.05107073
402.00   2.55052174   0.05183987
404.00   2.53708072   0.05261668
406.00   2.52357340   0.05340120
408.00   2.50999978   0.05419347
410.00   2.49635987   0.05499353
412.00   2.48265366   0.05580141
414.00   2.46888117   0.05661715
416.00   2.45504241   0.05744078
418.00   2.44113737   0.05827236
420.00   2.42716607   0.05911191
422.00   2.41312851   0.05995947
424.00   2.39902470   0.06081509
426.00   2.38485464   0.06167879
428.00   2.37061834   0.06255061
430.00   2.35631581   0.06343060
432.00   2.34194705   0.06431879
434.00   2.32751206   0.06521522
436.00   2.31301086   0.06611993
438.00   2.29844346   0.06703295
440.00   2.28380985   0.06795432
442.00   2.26911004   0.06888408
444.00   2.25434405   0.06982227
446.00   2.23951187   0.07076892
448.00   2.22461351   0.07172408
450.00   2.20964898   0.07268777
452.00   2.19461829   0.07366004
454.00   2.17952144   0.07464093
456.00   2.16435845   0.07563047
458.00   2.14912930   0.07662871
460.00   2.13383402   0.07763567
462.00   2.11847261   0.07865139
464.00   2.10304508   0.07967592
466.00   2.08755142   0.08070929
468.00   2.07199166   0.08175154
470.00   2.05636579   0.08280271
472.00   2.04067383   0.08386283
474.00   2.02491577   0.08493194
476.00   2.00909163   0.08601008
478.00   1.99320142   0.08709729
480.00   1.97724513   0.08819360
482.00   1.96122278   0.08929906
484.00   1.94513438   0.09041369
486.00   1.92897993   0.09153754
488.00   1.91275944   0.09267065
490.00   1.89647291   0.09381305
492.00   1.88012035   0.09496477
494.00   1.86370178   0.09612587
496.00   1.84721719   0.09729636
498.00   1.83066659   0.09847631
500.00   1.81405000   0.09966573
502.00   1.79736741   0.10086466
504.00   1.78061884   0.10207316
506.00   1.76380430   0.10329124
508.00   1.74692378   0.10451895
510.00   1.72997730   0.10575633
512.00   1.71296487   0.10700342
514.00   1.69588649   0.10826025
516.00   1.67874216   0.10952685
518.00   1.66153191   0.11080328
520.00   1.64425573   0.11208955
522.00   1.62691363   0.11338572
524.00   1.60950562   0.11469182
526.00   1.59203171   0.11600789
528.00   1.57449191   0.11733396
530.00   1.55688622   0.11867007
532.00   1.53921464   0.12001625
534.00   1.52147720   0.12137256
536.00   1.50367389   0.12273902
538.00   1.48580473   0.12411567
540.00   1.46786971   0.12550254
542.00   1.44986886   0.12689969
544.00   1.43180217   0.12830713
546.00   1.41366966   0.12972492
548.00   1.39547133   0.13115308
550.00   1.37720719   0.13259166
552.00   1.35887724   0.13404069
554.00   1.34048151   0.13550021
556.00   1.32201999   0.13697026
558.00   1.30349269   0.13845087
560.00   1.28489962   0.13994208
562.00   1.26624079   0.14144393
564.00   1.24751621   0.14295646
566.00   1.22872588   0.14447970
568.00   1.20986981   0.14601369
570.00   1.19094802   0.14755846
572.00   1.17196051   0.14911407
574.00   1.15290728   0.15068053
576.00   1.13378835   0.15225790
578.00   1.11460372   0.15384620
580.00   1.09535341   0.15544547
582.00   1.07603741   0.15705576
584.00   1.05665575   0.15867709
586.00   1.03720842   0.16030951
588.00   1.01769544   0.16195305
590.00   0.99811682   0.16360775
592.00   0.97847255   0.16527365
594.00   0.95876266   0.16695078
596.00   0.93898715   0.16863918
598.00   0.91914603   0.17033889
600.00   0.89923930   0.17204995
602.00   0.87926699   0.17377239
604.00   0.85922908   0.17550625
606.00   0.83912560   0.17725156
608.00   0.81895655   0.17900837
610.00   0.79872195   0.18077671
612.00   0.77842179   0.18255662
614.00   0.75805609   0.18434813
616.00   0.73762486   0.18615128
618.00   0.71712810   0.18796612
620.00   0.69656583   0.18979267
622.00   0.67593805   0.19163097
624.00   0.65524478   0.19348106
626.00   0.63448602   0.19534298
628.00   0.61366178   0.19721677
630.00   0.59277206   0.19910245
632.00   0.57181689   0.20100008
634.00   0.55079627   0.20290968
636.00   0.52971020   0.20483129
638.00   0.50855870   0.20676495
640.00   0.48734178   0.20871069
642.00   0.46605944   0.21066856
644.00   0.44471169   0.21263859
646.00   0.42329855   0.21462082
648.00   0.40182001   0.21661528
650.00   0.38027610   0.21862201
652.00   0.35866683   0.22064105
654.00   0.33699219   0.22267243
656.00   0.31525220   0.22471620
658.00   0.29344687   0.22677238
660.00   0.27157621   0.22884102
662.00   0.24964023   0.23092215
664.00   0.22763894   0.23301581
666.00   0.20557234   0.23512203
668.00   0.18344045   0.23724086
670.00   0.16124328   0.23937233
672.00   0.13898083   0.24151647
674.00   0.11665312   0.24367333
676.00   0.09426015   0.24584293
678.00   0.07180194   0.24802532
680.00   0.04927849   0.25022054
682.00   0.02668982   0.25242862
684.00   0.00403593   0.25464959
686.00  -0.01868317   0.25688349
688.00  -0.04146746   0.25913037
690.00  -0.06431693   0.26139025
692.00  -0.08723159   0.26366318
694.00  -0.11021141   0.26594919
696.00  -0.13325639   0.26824832
698.00  -0.15636651   0.27056059
700.00  -0.17954177   0.27288606
702.00  -0.20278216   0.27522476
704.00  -0.22608766   0.27757672
706.00  -0.24945827   0.27994198
708.00  -0.27289397   0.28232058
710.00  -0.29639477   0.28471256
712.00  -0.31996063   0.28711794
714.00  -0.34359157   0.28953677
716.00  -0.36728756   0.29196908
718.00  -0.39104859   0.29441492
720.00  -0.41487466   0.29687431
722.00  -0.43876576   0.29934729
724.00  -0.46272187   0.30183391
726.00  -0.48674298   0.30433419
728.00  -0.51082909   0.30684817
730.00  -0.53498018   0.30937590
732.00  -0.55919624   0.31191740
734.00  -0.58347727   0.31447271
736.00  -0.60782325   0.31704187
738.00  -0.63223417   0.31962492
740.00  -0.65671002   0.32222189
742.00  -0.68125079   0.32483282
744.00  -0.70585647   0.32745775
746.00  -0.73052705   0.33009670
748.00  -0.75526252   0.33274973
750.00  -0.78006287   0.33541686
752.00  -0.80492808   0.33809813
754.00  -0.82985815   0.34079357
756.00  -0.85485307   0.34350323
758.00  -0.87991282   0.34622715
760.00  -0.90503739   0.34896534
762.00  -0.93022678   0.35171786
764.00  -0.95548097   0.35448474
766.00  -0.98079995   0.35726602
768.00  -1.00618372   0.36006173
770.00  -1.03163225   0.36287190
772.00  -1.05714554   0.36569658
774.00  -1.08272358   0.36853581
776.00  -1.10836635   0.37138961
778.00  -1.13407385   0.37425802
780.00  -1.15984606   0.37714108
782.00  -1.18568298   0.38003883
784.00  -1.21158459   0.38295130
786.00  -1.23755088   0.38587853
788.00  -1.26358184   0.38882056
790.00  -1.28967746   0.39177741
792.00  -1.31583773   0.39474914
794.00  -1.34206263   0.39773576
796.00  -1.36835216   0.40073733
798.00  -1.39470630   0.40375387
800.00  -1.42112505   0.40678543
802.00  -1.44760838   0.40983203
804.00  -1.47415629   0.41289372
806.00  -1.50076877   0.41597053
808.00  -1.52744581   0.41906249
810.00  -1.55418739   0.42216965
812.00  -1.58099351   0.42529204
814.00  -1.60786415   0.42842969
816.00  -1.63479930   0.43158264
818.00  -1.66179894   0.43475093
820.00  -1.68886308   0.43793460
822.00  -1.71599169   0.44113367
824.00  -1.74318476   0.44434819
826.00  -1.77044229   0.44757819
828.00  -1.79776425   0.45082371
830.00  -1.82515065   0.45408478
832.00  -1.85260146   0.45736144
834.00  -1.88011667   0.46065373
836.00  -1.90769628   0.46396168
838.00  -1.93534027   0.46728532
840.00  -1.96304863   0.47062470
842.00  -1.99082135   0.47397985
844.00  -2.01865841   0.47735080
846.00  -2.04655981   0.48073760
848.00  -2.07452553   0.48414027
850.00  -2.10255556   0.48755885
852.00  -2.13064988   0.49099339
854.00  -2.15880850   0.49444391
856.00  -2.18703138   0.49791045
858.00  -2.21531853   0.50139304
860.00  -2.24366992   0.50489173
862.00  -2.27208555   0.50840655
864.00  -2.30056541   0.51193753
866.00  -2.32910948   0.51548471
868.00  -2.35771775   0.51904813
870.00  -2.38639021   0.52262782
872.00  -2.41512684   0.52622381
874.00  -2.44392764   0.52983615
876.00  -2.47279258   0.53346487
878.00  -2.50172167   0.53711000
880.00  -2.53071488   0.54077158
882.00  -2.55977221   0.54444965
884.00  -2.58889364   0.54814424
886.00  -2.61807915   0.55185539
888.00  -2.64732874   0.55558313
890.00  -2.67664240   0.55932749
892.00  -2.70602011   0.56308853
894.00  -2.73546185   0.56686626
896.00  -2.76496762   0.57066073
898.00  -2.79453741   0.57447197
900.00  -2.82417119   0.57830002
902.00  -2.85386896   0.58214491
904.00  -2.88363071   0.58600667
906.00  -2.91345642   0.58988535
908.00  -2.94334608   0.59378099
910.00  -2.97329968   0.59769360
912.00  -3.00331720   0.60162324
914.00  -3.03339863   0.60556993
916.00  -3.06354396   0.60953371
918.00  -3.09375318   0.61351462
920.00  -3.12402626   0.61751269
922.00  -3.15436321   0.62152796
924.00  -3.18476400   0.62556046
926.00  -3.21522863   0.62961024
928.00  -3.24575708   0.63367731
930.00  -3.27634933   0.63776173
932.00  -3.30700538   0.64186352
934.00  -3.33772521   0.64598272
936.00  -3.36850880   0.65011937
938.00  -3.39935616   0.65427349
940.00  -3.43026725   0.65844514
942.00  -3.46124207   0.66263434
944.00  -3.49228061   0.66684112
946.00  -3.52338284   0.67106553
948.00  -3.55454877   0.67530759
950.00  -3.58577837   0.67956735
952.00  -3.61707164   0.68384484
954.00  -3.64842855   0.68814009
956.00  -3.67984909   0.69245313
958.00  -3.71133326   0.69678402
960.00  -3.74288104   0.70113277
962.00  -3.77449241   0.70549943
964.00  -3.80616736   0.70988403
966.00  -3.83790588   0.71428660
968.00  -3.86970795   0.71870718
970.00  -3.90157357   0.72314581
972.00  -3.93350271   0.72760252
974.00  -3.96549536   0.73207735
976.00  -3.99755152   0.73657033
978.00  -4.02967116   0.74108149
980.00  -4.06185427   0.74561087
982.00  -4.09410084   0.75015852
984.00  -4.12641085   0.75472445
986.00  -4.15878429   0.75930871
988.00  -4.19122116   0.76391133
990.00  -4.22372142   0.76853235
992.00  -4.25628507   0.77317179
994.00  -4.28891210   0.77782971
996.00  -4.32160249   0.78250613
998.00  -4.35435623   0.78720108
1000.00  -4.38717330   0.79191461
1002.00  -4.42005370   0.79664674
1004.00  -4.45299739   0.80139752
1006.00  -4.48600438   0.80616697
1008.00  -4.51907465   0.81095513
1010.00  -4.55220818   0.81576204
1012.00  -4.58540495   0.82058773
1014.00  -4.61866497   0.82543224
1016.00  -4.65198820   0.83029560
1018.00  -4.68537464   0.83517784
1020.00  -4.71882427   0.84007901
1022.00  -4.75233708   0.84499913
1024.00  -4.78591306   0.84993824
1026.00  -4.81955218   0.85489638
1028.00  -4.85325444   0.85987357
1030.00  -4.88701982   0.86486986
1032.00  -4.92084831   0.86988529
1034.00  -4.95473989   0.87491987
1036.00  -4.98869454   0.87997366
1038.00  -5.02271226   0.88504668
1040.00  -5.05679303   0.89013896
1042.00  -5.09093684   0.89525056
1044.00  -5.12514366   0.90038149
1046.00  -5.15941349   0.90553179
1048.00  -5.19374630   0.91070150
1050.00  -5.22814210   0.91589065
1052.00  -5.26260085   0.92109928
1054.00  -5.29712256   0.92632742
1056.00  -5.33170719   0.93157510
1058.00  -5.36635474   0.93684237
1060.00  -5.40106520   0.94212925
1062.00  -5.43583854   0.94743578
1064.00  -5.47067475   0.95276200
1066.00  -5.50557383   0.95810793
1068.00  -5.54053574   0.96347362
1070.00  -5.57556049   0.96885909
1072.00  -5.61064805   0.97426439
1074.00  -5.64579841   0.97968955
1076.00  -5.68101155   0.98513459
1078.00  -5.71628746   0.99059956
1080.00  -5.75162612   0.99608449
1082.00  -5.78702753   1.00158942
1084.00  -5.82249165   1.00711438
1086.00  -5.85801849   1.01265939
1088.00  -5.89360802   1.01822451
1090.00  -5.92926023   1.02380976
1092.00  -5.96497510   1.02941517
1094.00  -6.00075262   1.03504079
1096.00  -6.03659277   1.04068664
1098.00  -6.07249554   1.04635276
1100.00  -6.10846092   1.05203919
1102.00  -6.14448888   1.05774595
1104.00  -6.18057941   1.06347308
1106.00  -6.21673250   1.06922063
1108.00  -6.25294814   1.07498861
1110.00  -6.28922629   1.08077707
1112.00  -6.32556696   1.08658603
1114.00  -6.36197013   1.09241554
1116.00  -6.39843577   1.09826563
1118.00  -6.43496388   1.10413633
1120.00  -6.47155444   1.11002768
1122.00  -6.50820743   1.11593970
1124.00  -6.54492284   1.12187245
1126.00  -6.58170066   1.12782593
1128.00  -6.61854086   1.13380021
1130.00  -6.65544343   1.13979529
1132.00  -6.69240836   1.14581123
1134.00  -6.72943562   1.15184806
1136.00  -6.76652521   1.15790580
1138.00  -6.80367712   1.16398450
1140.00  -6.84089131   1.17008418
1142.00  -6.87816778   1.17620488
1144.00  -6.91550651   1.18234664
1146.00  -6.95290749   1.18850949
1148.00  -6.99037070   1.19469346
1150.00  -7.02789612   1.20089858
1152.00  -7.06548374   1.20712490
1154.00  -7.10313354   1.21337244
1156.00  -7.14084551   1.21964124
1158.00  -7.17861963   1.22593133
1160.00  -7.21645588   1.23224275
1162.00  -7.25435426   1.23857553
1164.00  -7.29231473   1.24492970
1166.00  -7.33033729   1.25130530
1168.00  -7.36842192   1.25770236
1170.00  -7.40656861   1.26412092
1172.00  -7.44477734   1.27056100
1174.00  -7.48304808   1.27702265
1176.00  -7.52138083   1.28350590
1178.00  -7.55977558   1.29001077
1180.00  -7.59823229   1.29653731
1182.00  -7.63675097   1.30308555
1184.00  -7.67533158   1.30965552
1186.00  -7.71397412   1.31624725
1188.00  -7.75267857   1.32286078
1190.00  -7.79144491   1.32949615
1192.00  -7.83027312   1.33615338
1194.00  -7.86916320   1.34283251
1196.00  -7.90811511   1.34953357
1198.00  -7.94712886   1.35625660
1200.00  -7.98620441   1.36300163
1202.00  -8.02534176   1.36976869
1204.00  -8.06454089   1.37655782
1206.00  -8.10380177   1.38336906
1208.00  -8.14312440   1.39020242
1210.00  -8.18250876   1.39705796
1212.00  -8.22195483   1.40393569
1214.00  -8.26146260   1.41083566
1216.00  -8.30103204   1.41775790
1218.00  -8.34066314   1.42470244
1220.00  -8.38035589   1.43166932
1222.00  -8.42011026   1.43865856
1224.00  -8.45992625   1.44567021
1226.00  -8.49980383   1.45270429
1228.00  -8.53974299   1.45976084
1230.00  -8.57974371   1.46683989
1232.00  -8.61980597   1.47394148
1234.00  -8.65992976   1.48106563
1236.00  -8.70011506   1.48821239
1238.00  -8.74036185   1.49538178
1240.00  -8.78067012   1.50257384
1242.00  -8.82103985   1.50978860
1244.00  -8.86147102   1.51702610
1246.00  -8.90196361   1.52428636
1248.00  -8.94251762   1.53156943
1250.00  -8.98313302   1.53887533
1252.00  -9.02380979   1.54620410
1254.00  -9.06454791   1.55355577
1256.00  -9.10534738   1.56093037
1258.00  -9.14620817   1.56832794
1260.00  -9.18713027   1.57574851
1262.00  -9.22811366   1.58319211
1264.00  -9.26915831   1.59065878
1266.00  -9.31026422   1.59814854
1268.00  -9.35143137   1.60566144
1270.00  -9.39265974   1.61319751
1272.00  -9.43394931   1.62075677
1274.00  -9.47530007   1.62833927
1276.00  -9.51671199   1.63594502
1278.00  -9.55818506   1.64357408
1280.00  -9.59971927   1.65122647
1282.00  -9.64131459   1.65890221
1284.00  -9.68297101   1.66660136
1286.00  -9.72468852   1.67432393
1288.00  -9.76646708   1.68206997
1290.00  -9.80830669   1.68983950
1292.00  -9.85020733   1.69763255
1294.00  -9.89216898   1.70544917
1296.00  -9.93419162   1.71328938
1298.00  -9.97627524   1.72115321
1300.00 -10.01841982   1.72904071
1302.00 -10.06062533   1.73695189
1304.00 -10.10289177   1.74488680
1306.00 -10.14521912   1.75284547
1308.00 -10.18760735   1.76082792
1310.00 -10.23005645   1.76883420
1312.00 -10.27256640   1.77686433
1314.00 -10.31513719   1.78491835
1316.00 -10.35776879   1.79299629
1318.00 -10.40046119   1.80109818
1320.00 -10.44321437   1.80922406
1322.00 -10.48602832   1.81737395
1324.00 -10.52890300   1.82554790
1326.00 -10.57183842   1.83374593
1328.00 -10.61483454   1.84196807
1330.00 -10.65789136   1.85021437
1332.00 -10.70100885   1.85848484
1334.00 -10.74418699   1.86677953
1336.00 -10.78742577   1.87509846
1338.00 -10.83072517   1.88344167
1340.00 -10.87408517   1.89180919
1342.00 -10.91750575   1.90020105
1344.00 -10.96098690   1.90861729
1346.00 -11.00452859   1.91705794
1348.00 -11.04813081   1.92552302
1350.00 -11.09179355   1.93401258
1352.00 -11.13551677   1.94252665
1354.00 -11.17930047   1.95106525
1356.00 -11.22314462   1.95962842
1358.00 -11.26704921   1.96821619
1360.00 -11.31101422   1.97682859
1362.00 -11.35503963   1.98546567
1364.00 -11.39912542   1.99412744
1366.00 -11.44327157   2.00281394
1368.00 -11.48747807   2.01152520
1370.00 -11.53174490   2.02026126
1372.00 -11.57607203   2.02902215
1374.00 -11.62045946   2.03780789
1376.00 -11.66490716   2.04661853
1378.00 -11.70941511   2.05545409
1380.00 -11.75398329   2.06431461
1382.00 -11.79861169   2.07320011
1384.00 -11.84330029   2.08211064
1386.00 -11.88804907   2.09104622
1388.00 -11.93285800   2.10000688
1390.00 -11.97772708   2.10899265
1392.00 -12.02265628   2.11800358
1394.00 -12.06764559   2.12703968
1396.00 -12.11269498   2.13610100
1398.00 -12.15780444   2.14518756
1400.00 -12.20297395   2.15429940
1402.00 -12.24820348   2.16343654
1404.00 -12.29349303   2.17259903
1406.00 -12.33884257   2.18178688
1408.00 -12.38425208   2.19100014
1410.00 -12.42972154   2.20023883
1412.00 -12.47525094   2.20950300
1414.00 -12.52084026   2.21879266
1416.00 -12.56648948   2.22810785
1418.00 -12.61219857   2.23744860
1420.00 -12.65796752   2.24681495
1422.00 -12.70379631   2.25620692
1424.00 -12.74968493   2.26562455
1426.00 -12.79563334   2.27506787
1428.00 -12.84164154   2.28453692
1430.00 -12.88770950   2.29403171
1432.00 -12.93383721   2.30355229
1434.00 -12.98002465   2.31309868
1436.00 -13.02627179   2.32267093
1438.00 -13.07257862   2.33226905
1440.00 -13.11894512   2.34189308
1442.00 -13.16537126   2.35154306
1444.00 -13.21185704   2.36121901
1446.00 -13.25840243   2.37092096
1448.00 -13.30500741   2.38064895
1450.00 -13.35167196   2.39040301
1452.00 -13.39839607   2.40018317
1454.00 -13.44517971   2.40998947
1456.00 -13.49202286   2.41982192
1458.00 -13.53892551   2.42968057
1460.00 -13.58588763   2.43956544
1462.00 -13.63290921   2.44947657
1464.00 -13.67999023   2.45941399
1466.00 -13.72713066   2.46937773
1468.00 -13.77433050   2.47936783
1470.00 -13.82158970   2.48938430
1472.00 -13.86890827   2.49942719
1474.00 -13.91628618   2.50949652
1476.00 -13.96372341   2.51959233
1478.00 -14.01121994   2.52971464
1480.00 -14.05877574   2.53986350
1482.00 -14.10639081   2.55003892
1484.00 -14.15406512   2.56024095
1486.00 -14.20179865   2.57046961
1488.00 -14.24959138   2.58072493
1490.00 -14.29744330   2.59100694
1492.00 -14.34535437   2.60131569
1494.00 -14.39332459   2.61165119
1496.00 -14.44135394   2.62201347
1498.00 -14.48944238   2.63240258
1500.00 -14.53758991   2.64281853
1502.00 -14.58579650   2.65326137
1504.00 -14.63406213   2.66373112
1506.00 -14.68238679   2.67422781
1508.00 -14.73077045   2.68475148
1510.00 -14.77921310   2.69530215
1512.00 -14.82771470   2.70587986
1514.00 -14.87627526   2.71648463
1516.00 -14.92489473   2.72711650
1518.00 -14.97357311   2.73777550
1520.00 -15.02231037   2.74846166
1522.00 -15.07110650   2.75917501
1524.00 -15.11996147   2.76991558
1526.00 -15.16887526   2.78068341
1528.00 -15.21784786   2.79147851
1530.00 -15.26687924   2.80230093
1532.00 -15.31596938   2.81315070
1534.00 -15.36511827   2.82402783
1536.00 -15.41432588   2.83493238
1538.00 -15.46359219   2.84586436
1540.00 -15.51291718   2.85682381
1542.00 -15.56230083   2.86781075
1544.00 -15.61174313   2.87882523
1546.00 -15.66124405   2.88986726
1548.00 -15.71080357   2.90093688
1550.00 -15.76042166   2.91203413
1552.00 -15.81009832   2.92315902
1554.00 -15.85983352   2.93431159
1556.00 -15.90962724   2.94549188
1558.00 -15.95947946   2.95669991
1560.00 -16.00939015   2.96793571
1562.00 -16.05935931   2.97919932
1564.00 -16.10938690   2.99049076
1566.00 -16.15947290   3.00181006
1568.00 -16.20961731   3.01315726
1570.00 -16.25982009   3.02453238
1572.00 -16.31008123   3.03593546
1574.00 -16.36040070   3.04736652
1576.00 -16.41077848   3.05882560
1578.00 -16.46121456   3.07031273
1580.00 -16.51170891   3.08182793
1582.00 -16.56226151   3.09337124
1584.00 -16.61287235   3.10494269
1586.00 -16.66354139   3.11654230
1588.00 -16.71426863   3.12817012
1590.00 -16.76505404   3.13982616
1592.00 -16.81589759   3.15151046
1594.00 -16.86679927   3.16322305
1596.00 -16.91775906   3.17496395
1598.00 -16.96877693   3.18673321
1600.00 -17.01985287   3.19853084
1602.00 -17.07098686   3.21035688
1604.00 -17.12217886   3.22221136
1606.00 -17.17342887   3.23409431
1608.00 -17.22473686   3.24600576
1610.00 -17.27610282   3.25794574
1612.00 -17.32752671   3.26991428
1614.00 -17.37900852   3.28191140
1616.00 -17.43054822   3.29393715
1618.00 -17.48214581   3.30599154
1620.00 -17.53380125   3.31807461
1622.00 -17.58551452   3.33018639
1624.00 -17.63728561   3.34232691
1626.00 -17.68911449   3.35449620
1628.00 -17.74100114   3.36669429
1630.00 -17.79294554   3.37892120
1632.00 -17.84494767   3.39117698
1634.00 -17.89700751   3.40346164
1636.00 -17.94912503   3.41577522
1638.00 -18.00130022   3.42811774
1640.00 -18.05353305   3.44048924
1642.00 -18.10582351   3.45288975
1644.00 -18.15817156   3.46531930
1646.00 -18.21057720   3.47777791
1648.00 -18.26304039   3.49026562
1650.00 -18.31556112   3.50278245
1652.00 -18.36813937   3.51532844
1654.00 -18.42077511   3.52790361
1656.00 -18.47346833   3.54050800
1658.00 -18.52621900   3.55314163
1660.00 -18.57902709   3.56580453
1662.00 -18.63189260   3.57849674
1664.00 -18.68481549   3.59121828
1666.00 -18.73779575   3.60396918
1668.00 -18.79083335   3.61674947
1670.00 -18.84392828   3.62955918
1672.00 -18.89708051   3.64239834
1674.00 -18.95029001   3.65526699
1676.00 -19.00355678   3.66816514
1678.00 -19.05688078   3.68109283
1680.00 -19.11026199   3.69405008
1682.00 -19.16370040   3.70703694
1684.00 -19.21719598   3.72005341
1686.00 -19.27074871   3.73309955
1688.00 -19.32435856   3.74617537
1690.00 -19.37802553   3.75928090
1692.00 -19.43174957   3.77241618
1694.00 -19.48553068   3.78558123
1696.00 -19.53936883   3.79877608
1698.00 -19.59326400   3.81200076
1700.00 -19.64721617   3.82525530
1702.00 -19.70122531   3.83853973
1704.00 -19.75529140   3.85185408
1706.00 -19.80941443   3.86519838
1708.00 -19.86359437   3.87857265
1710.00 -19.91783119   3.89197693
1712.00 -19.97212488   3.90541124
1714.00 -20.02647541   3.91887561
1716.00 -20.08088276   3.93237008
1718.00 -20.13534692   3.94589467
1720.00 -20.18986785   3.95944941
1722.00 -20.24444554   3.97303433
1724.00 -20.29907996   3.98664945
1726.00 -20.35377109   4.00029482
1728.00 -20.40851891   4.01397045
1730.00 -20.46332340   4.02767637
1732.00 -20.51818453   4.04141262
1734.00 -20.57310229   4.05517922
1736.00 -20.62807665   4.06897620
1738.00 -20.68310759   4.08280359
1740.00 -20.73819508   4.09666142
1742.00 -20.79333910   4.11054971
1744.00 -20.84853964   4.12446851
1746.00 -20.90379667   4.13841782
1748.00 -20.95911017   4.15239769
1750.00 -21.01448011   4.16640815
1752.00 -21.06990647   4.18044921
1754.00 -21.12538923   4.19452091
1756.00 -21.18092837   4.20862328
1758.00 -21.23652387   4.22275635
1760.00 -21.29217570   4.23692014
1762.00 -21.34788384   4.25111468
1764.00 -21.40364827   4.26534001
1766.00 -21.45946897   4.27959615
1768.00 -21.51534590   4.29388313
1770.00 -21.57127906   4.30820097
1772.00 -21.62726842   4.32254971
1774.00 -21.68331395   4.33692937
1776.00 -21.73941564   4.35133999
1778.00 -21.79557346   4.36578159
1780.00 -21.85178738   4.38025419
1782.00 -21.90805739   4.39475784
1784.00 -21.96438347   4.40929255
1786.00 -22.02076558   4.42385835
1788.00 -22.07720371   4.43845528
1790.00 -22.13369784   4.45308336
1792.00 -22.19024794   4.46774261
1794.00 -22.24685399   4.48243308
1796.00 -22.30351597   4.49715478
1798.00 -22.36023384   4.51190774
1800.00 -22.41700761   4.52669199
1802.00 -22.47383723   4.54150756
1804.00 -22.53072268   4.55635449
1806.00 -22.58766395   4.57123278
1808.00 -22.64466101   4.58614248
1810.00 -22.70171383   4.60108362
1812.00 -22.75882240   4.61605621
1814.00 -22.81598669   4.63106029
1816.00 -22.87320668   4.64609589
1818.00 -22.93048235   4.66116303
1820.00 -22.98781367   4.67626174
1822.00 -23.04520061   4.69139205
1824.00 -23.10264317   4.70655399
1826.00 -23.16014131   4.72174759
1828.00 -23.21769501   4.73697287
1830.00 -23.27530424   4.75222986
1832.00 -23.33296900   4.76751859
1834.00 -23.39068924   4.78283908
1836.00 -23.44846495   4.79819137
1838.00 -23.50629611   4.81357548
1840.00 -23.56418269   4.82899145
1842.00 -23.62212466   4.84443929
1844.00 -23.68012202   4.85991903
1846.00 -23.73817473   4.87543071
1848.00 -23.79628276   4.89097435
1850.00 -23.85444611   4.90654998
1852.00 -23.91266473   4.92215762
1854.00 -23.97093862   4.93779731
1856.00 -24.02926774   4.95346906
1858.00 -24.08765208   4.96917292
1860.00 -24.14609160   4.98490890
1862.00 -24.20458630   5.00067704
1864.00 -24.26313613   5.01647736
1866.00 -24.32174109   5.03230988
1868.00 -24.38040114   5.04817464
1870.00 -24.43911627   5.06407167
1872.00 -24.49788645   5.08000099
1874.00 -24.55671165   5.09596262
1876.00 -24.61559186   5.11195660
1878.00 -24.67452704   5.12798295
1880.00 -24.73351719   5.14404170
1882.00 -24.79256226   5.16013288
1884.00 -24.85166225   5.17625652
1886.00 -24.91081712   5.19241263
1888.00 -24.97002685   5.20860126
1890.00 -25.02929142   5.22482242
1892.00 -25.08861081   5.24107615
1894.00 -25.14798498   5.25736246
1896.00 -25.20741393   5.27368140
1898.00 -25.26689762   5.29003297
1900.00 -25.32643603   5.30641722
1902.00 -25.38602914   5.32283417
1904.00 -25.44567692   5.33928385
1906.00 -25.50537935   5.35576628
1908.00 -25.56513640   5.37228149
1910.00 -25.62494806   5.38882951
1912.00 -25.68481430   5.40541036
1914.00 -25.74473509   5.42202407
1916.00 -25.80471041   5.43867067
1918.00 -25.86474024   5.45535018
1920.00 -25.92482455   5.47206264
1922.00 -25.98496333   5.48880806
1924.00 -26.04515653   5.50558648
1926.00 -26.10540415   5.52239793
1928.00 -26.16570616   5.53924242
1930.00 -26.22606253   5.55611999
1932.00 -26.28647325   5.57303066
1934.00 -26.34693827   5.58997446
1936.00 -26.40745759   5.60695142
1938.00 -26.46803118   5.62396156
1940.00 -26.52865902   5.64100490
1942.00 -26.58934107   5.65808149
1944.00 -26.65007732   5.67519134
1946.00 -26.71086774   5.69233447
1948.00 -26.77171231   5.70951093
1950.00 -26.83261101   5.72672072
1952.00 -26.89356380   5.74396389
1954.00 -26.95457067   5.76124045
1956.00 -27.01563159   5.77855043
1958.00 -27.07674655   5.79589386
1960.00 -27.13791550   5.81327077
1962.00 -27.19913843   5.83068117
1964.00 -27.26041532   5.84812511
1966.00 -27.32174614   5.86560260
1968.00 -27.38313087   5.88311367
1970.00 -27.44456948   5.90065834
1972.00 -27.50606195   5.91823666
1974.00 -27.56760826   5.93584863
1976.00 -27.62920837   5.95349428
1978.00 -27.69086227   5.97117365
1980.00 -27.75256993   5.98888676
1982.00 -27.81433133   6.00663363
1984.00 -27.87614644   6.02441429
1986.00 -27.93801524   6.04222877
1988.00 -27.99993771   6.06007709
1990.00 -28.06191381   6.07795928
1992.00 -28.12394353   6.09587537
1994.00 -28.18602684   6.11382538
1996.00 -28.24816372   6.13180933
1998.00 -28.31035414   6.14982726
2000.00 -28.37259808   6.16787919
2002.00 -28.43489551   6.18596515
2004.00 -28.49724641   6.20408515
2006.00 -28.55965075   6.22223924
2008.00 -28.62210851   6.24042743
2010.00 -28.68461967   6.25864974
2012.00 -28.74718420   6.27690621
2014.00 -28.80980207   6.29519687
2016.00 -28.87247327   6.31352173
2018.00 -28.93519777   6.33188082
2020.00 -28.99797553   6.35027418
2022.00 -29.06080655   6.36870181
2024.00 -29.12369078   6.38716376
2026.00 -29.18662822   6.40566004
2028.00 -29.24961883   6.42419069
2030.00 -29.31266258   6.44275572
2032.00 -29.37575947   6.46135516
2034.00 -29.43890945   6.47998905
2036.00 -29.50211251   6.49865740
2038.00 -29.56536861   6.51736024
2040.00 -29.62867775   6.53609759
2042.00 -29.69203988   6.55486948
2044.00 -29.75545499   6.57367595
2046.00 -29.81892305   6.59251700
2048.00 -29.88244403   6.61139267
2050.00 -29.94601792   6.63030299
2052.00 -30.00964469   6.64924797
2054.00 -30.07332430   6.66822765
2056.00 -30.13705674   6.68724205
2058.00 -30.20084199   6.70629119
2060.00 -30.26468001   6.72537510
2062.00 -30.32857078   6.74449381
2064.00 -30.39251428   6.76364734
2066.00 -30.45651048   6.78283571
2068.00 -30.52055936   6.80205896
2070.00 -30.58466090   6.82131710
2072.00 -30.64881505   6.84061017
2074.00 -30.71302181   6.85993818
2076.00 -30.77728115   6.87930116
2078.00 -30.84159304   6.89869915
2080.00 -30.90595746   6.91813215
2082.00 -30.97037438   6.93760021
2084.00 -31.03484377   6.95710333
2086.00 -31.09936562   6.97664156
2088.00 -31.16393989   6.99621490
2090.00 -31.22856657   7.01582340
2092.00 -31.29324562   7.03546707
2094.00 -31.35797702   7.05514594
2096.00 -31.42276075   7.07486003
2098.00 -31.48759678   7.09460936
2100.00 -31.55248508   7.11439398
2102.00 -31.61742564   7.13421388
2104.00 -31.68241842   7.15406912
2106.00 -31.74746340   7.17395970
2108.00 -31.81256055   7.19388565
2110.00 -31.87770986   7.21384700
2112.00 -31.94291128   7.23384377
2114.00 -32.00816481   7.25387599
2116.00 -32.07347041   7.27394368
2118.00 -32.13882805   7.29404686
2120.00 -32.20423772   7.31418557
2122.00 -32.26969939   7.33435982
2124.00 -32.33521303   7.35456965
2126.00 -32.40077861   7.37481507
2128.00 -32.46639612   7.39509611
2130.00 -32.53206552   7.41541279
2132.00 -32.59778679   7.43576514
2134.00 -32.66355991   7.45615318
2136.00 -32.72938484   7.47657695
2138.00 -32.79526157   7.49703645
2140.00 -32.86119007   7.51753172
2142.00 -32.92717031   7.53806279
2144.00 -32.99320227   7.55862967
2146.00 -33.05928592   7.57923239
2148.00 -33.12542123   7.59987097
2150.00 -33.19160819   7.62054544
2152.00 -33.25784676   7.64125583
2154.00 -33.32413692   7.66200215
2156.00 -33.39047864   7.68278444
2158.00 -33.45687190   7.70360271
2160.00 -33.52331668   7.72445699
2162.00 -33.58981294   7.74534731
2164.00 -33.65636066   7.76627369
2166.00 -33.72295982   7.78723615
2168.00 -33.78961038   7.80823471
2170.00 -33.85631234   7.82926941
2172.00 -33.92306565   7.85034027
2174.00 -33.98987029   7.87144730
2176.00 -34.05672624   7.89259054
2178.00 -34.12363347   7.91377000
2180.00 -34.19059195   7.93498572
2182.00 -34.25760167   7.95623771
2184.00 -34.32466259   7.97752600
2186.00 -34.39177468   7.99885062
2188.00 -34.45893793   8.02021158
2190.00 -34.52615230   8.04160892
2192.00 -34.59341778   8.06304265
2194.00 -34.66073433   8.08451280
2196.00 -34.72810193   8.10601939
2198.00 -34.79552055   8.12756245
2200.00 -34.86299016   8.14914200
2202.00 -34.93051075   8.17075807
2204.00 -34.99808229   8.19241067
2206.00 -35.06570474   8.21409984
2208.00 -35.13337808   8.23582559
2210.00 -35.20110230   8.25758795
2212.00 -35.26887735   8.27938695
2214.00 -35.33670322   8.30122260
2216.00 -35.40457987   8.32309494
2218.00 -35.47250729   8.34500397
2220.00 -35.54048545   8.36694974
2222.00 -35.60851432   8.38893225
2224.00 -35.67659387   8.41095154
2226.00 -35.74472408   8.43300763
2228.00 -35.81290493   8.45510054
2230.00 -35.88113638   8.47723030
2232.00 -35.94941841   8.49939692
2234.00 -36.01775099   8.52160044
2236.00 -36.08613410   8.54384087
2238.00 -36.15456772   8.56611825
2240.00 -36.22305181   8.58843258
2242.00 -36.29158635   8.61078390
2244.00 -36.36017131   8.63317223
2246.00 -36.42880667   8.65559759
2248.00 -36.49749240   8.67806000
2250.00 -36.56622848   8.70055950
2252.00 -36.63501487   8.72309609
2254.00 -36.70385156   8.74566982
2256.00 -36.77273851   8.76828068
2258.00 -36.84167570   8.79092873
2260.00 -36.91066311   8.81361396
2262.00 -36.97970070   8.83633641
2264.00 -37.04878845   8.85909611
2266.00 -37.11792634   8.88189307
2268.00 -37.18711433   8.90472731
2270.00 -37.25635241   8.92759887
2272.00 -37.32564054   8.95050775
2274.00 -37.39497870   8.97345399
2276.00 -37.46436686   8.99643762
2278.00 -37.53380500   9.01945864
2280.00 -37.60329309   9.04251709
2282.00 -37.67283110   9.06561298
2284.00 -37.74241900   9.08874635
2286.00 -37.81205678   9.11191721
2288.00 -37.88174440   9.13512558
2290.00 -37.95148184   9.15837149
2292.00 -38.02126907   9.18165497
2294.00 -38.09110606   9.20497602
2296.00 -38.16099279   9.22833469
2298.00 -38.23092923   9.25173098
2300.00 -38.30091536   9.27516493
2302.00 -38.37095114   9.29863655
2304.00 -38.44103656   9.32214587
2306.00 -38.51117158   9.34569291
2308.00 -38.58135617   9.36927769
2310.00 -38.65159032   9.39290024
2312.00 -38.72187400   9.41656057
2314.00 -38.79220717   9.44025872
2316.00 -38.86258981   9.46399470
2318.00 -38.93302190   9.48776853
2320.00 -39.00350341   9.51158024
2322.00 -39.07403430   9.53542985
2324.00 -39.14461457   9.55931738
2326.00 -39.21524417   9.58324286
2328.00 -39.28592308   9.60720630
2330.00 -39.35665128   9.63120774
2332.00 -39.42742873   9.65524718
2334.00 -39.49825542   9.67932466
2336.00 -39.56913131   9.70344020
2338.00 -39.64005638   9.72759381
2340.00 -39.71103060   9.75178552
2342.00 -39.78205394   9.77601536
2344.00 -39.85312638   9.80028334
2346.00 -39.92424789   9.82458949
2348.00 -39.99541844   9.84893383
2350.00 -40.06663802   9.87331638
2352.00 -40.13790658   9.89773717
2354.00 -40.20922410   9.92219621
2356.00 -40.28059056   9.94669352
2358.00 -40.35200593   9.97122914
2360.00 -40.42347018   9.99580308
2362.00 -40.49498328  10.02041536
2364.00 -40.56654522  10.04506600
2366.00 -40.63815595  10.06975504
2368.00 -40.70981546  10.09448248
2370.00 -40.78152372  10.11924835
2372.00 -40.85328069  10.14405268
2374.00 -40.92508636  10.16889548
2376.00 -40.99694070  10.19377678
2378.00 -41.06884368  10.21869659
2380.00 -41.14079527  10.24365495
2382.00 -41.21279544  10.26865186
2384.00 -41.28484417  10.29368736
2386.00 -41.35694144  10.31876147
2388.00 -41.42908721  10.34387420
2390.00 -41.50128145  10.36902558
2392.00 -41.57352415  10.39421563
2394.00 -41.64581526  10.41944437
2396.00 -41.71815478  10.44471182
2398.00 -41.79054266  10.47001801
2400.00 -41.86297888  10.49536295
2402.00 -41.93546342  10.52074668
2404.00 -42.00799625  10.54616920
2406.00 -42.08057733  10.57163054
2408.00 -42.15320665  10.59713072
2410.00 -42.22588417  10.62266977
2412.00 -42.29860988  10.64824770
2414.00 -42.37138373  10.67386453
2416.00 -42.44420571  10.69952030
2418.00 -42.51707578  10.72521501
2420.00 -42.58999392  10.75094869
2422.00 -42.66296011  10.77672136
2424.00 -42.73597431  10.80253305
2426.00 -42.80903650  10.82838377
2428.00 -42.88214664  10.85427354
2430.00 -42.95530473  10.88020239
2432.00 -43.02851071  10.90617034
2434.00 -43.10176458  10.93217740
2436.00 -43.17506630  10.95822361
2438.00 -43.24841584  10.98430897
2440.00 -43.32181317  11.01043351
2442.00 -43.39525828  11.03659726
2444.00 -43.46875112  11.06280023
2446.00 -43.54229169  11.08904245
2448.00 -43.61587993  11.11532393
2450.00 -43.68951584  11.14164469
2452.00 -43.76319938  11.16800476
2454.00 -43.83693053  11.19440417
2456.00 -43.91070925  11.22084292
2458.00 -43.98453552  11.24732103
2460.00 -44.05840931  11.27383854
2462.00 -44.13233060  11.30039546
2464.00 -44.20629935  11.32699182
2466.00 -44.28031555  11.35362762
2468.00 -44.35437915  11.38030290
2470.00 -44.42849015  11.40701767
2472.00 -44.50264849  11.43377196
2474.00 -44.57685417  11.46056578
2476.00 -44.65110715  11.48739916
2478.00 -44.72540741  11.51427212
2480.00 -44.79975491  11.54118467
2482.00 -44.87414963  11.56813684
2484.00 -44.94859155  11.59512865
2486.00 -45.02308062  11.62216012
2488.00 -45.09761684  11.64923126
2490.00 -45.17220016  11.67634211
2492.00 -45.24683056  11.70349267
2494.00 -45.32150802  11.73068298
2496.00 -45.39623251  11.75791305
2498.00 -45.47100399  11.78518290
2500.00 -45.54582244  11.81249255
2502.00 -45.62068784  11.83984202
2504.00 -45.69560015  11.86723133
2506.00 -45.77055935  11.89466051
2508.00 -45.84556541  11.92212957
2510.00 -45.92061830  11.94963853
2512.00 -45.99571800  11.97718742
2514.00 -46.07086447  12.00477625
2516.00 -46.14605769  12.03240504
2518.00 -46.22129764  12.06007381
2520.00 -46.29658427  12.08778259
2522.00 -46.37191758  12.11553140
2524.00 -46.44729752  12.14332024
2526.00 -46.52272407  12.17114915
2528.00 -46.59819720  12.19901815
2530.00 -46.67371689  12.22692725
2532.00 -46.74928310  12.25487647
2534.00 -46.82489582  12.28286583
2536.00 -46.90055500  12.31089536
2538.00 -46.97626063  12.33896508
2540.00 -47.05201267  12.36707499
2542.00 -47.12781110  12.39522513
2544.00 -47.20365589  12.42341552
2546.00 -47.27954702  12.45164616
2548.00 -47.35548444  12.47991709
2550.00 -47.43146814  12.50822832
2552.00 -47.50749809  12.53657987
2554.00 -47.58357426  12.56497177
2556.00 -47.65969662  12.59340402
2558.00 -47.73586515  12.62187666
2560.00 -47.81207981  12.65038970
2562.00 -47.88834058  12.67894315
2564.00 -47.96464743  12.70753705
2566.00 -48.04100034  12.73617141
2568.00 -48.11739926  12.76484625
2570.00 -48.19384419  12.79356158
2572.00 -48.27033508  12.82231743
2574.00 -48.34687191  12.85111382
2576.00 -48.42345466  12.87995077
2578.00 -48.50008329  12.90882829
2580.00 -48.57675777  12.93774641
2582.00 -48.65347808  12.96670515
2584.00 -48.73024420  12.99570452
2586.00 -48.80705608  13.02474454
2588.00 -48.88391371  13.05382524
2590.00 -48.96081706  13.08294662
2592.00 -49.03776609  13.11210872
2594.00 -49.11476078  13.14131155
2596.00 -49.19180111  13.17055513
2598.00 -49.26888703  13.19983948
2600.00 -49.34601853  13.22916462
2602.00 -49.42319558  13.25853057
2604.00 -49.50041815  13.28793734
2606.00 -49.57768621  13.31738496
2608.00 -49.65499973  13.34687344
2610.00 -49.73235869  13.37640281
2612.00 -49.80976305  13.40597308
2614.00 -49.88721279  13.43558427
2616.00 -49.96470788  13.46523640
2618.00 -50.04224829  13.49492949
2620.00 -50.11983400  13.52466356
2622.00 -50.19746497  13.55443863
2624.00 -50.27514118  13.58425471
2626.00 -50.35286259  13.61411183
2628.00 -50.43062919  13.64401001
2630.00 -50.50844094  13.67394925
2632.00 -50.58629781  13.70392959
2634.00 -50.66419978  13.73395104
2636.00 -50.74214681  13.76401362
2638.00 -50.82013889  13.79411734
2640.00 -50.89817597  13.82426223
2642.00 -50.97625804  13.85444831
2644.00 -51.05438506  13.88467559
2646.00 -51.13255701  13.91494409
2648.00 -51.21077386  13.94525384
2650.00 -51.28903557  13.97560484
2652.00 -51.36734212  14.00599712
2654.00 -51.44569349  14.03643070
2656.00 -51.52408964  14.06690560
2658.00 -51.60253055  14.09742182
2660.00 -51.68101618  14.12797940
2662.00 -51.75954651  14.15857835
2664.00 -51.83812152  14.18921869
2666.00 -51.91674116  14.21990044
2668.00 -51.99540542  14.25062361
2670.00 -52.07411426  14.28138823
2672.00 -52.15286767  14.31219430
2674.00 -52.23166559  14.34304186
2676.00 -52.31050802  14.37393092
2678.00 -52.38939492  14.40486149
2680.00 -52.46832627  14.43583360
2682.00 -52.54730202  14.46684726
2684.00 -52.62632217  14.49790250
2686.00 -52.70538667  14.52899932
2688.00 -52.78449550  14.56013775
2690.00 -52.86364863  14.59131781
2692.00 -52.94284603  14.62253951
2694.00 -53.02208767  14.65380288
2696.00 -53.10137353  14.68510792
2698.00 -53.18070358  14.71645466
2700.00 -53.26007779  14.74784312
2702.00 -53.33949612  14.77927331
2704.00 -53.41895855  14.81074525
2706.00 -53.49846506  14.84225896
2708.00 -53.57801561  14.87381447
2710.00 -53.65761018  14.90541177
2712.00 -53.73724873  14.93705090
2714.00 -53.81693124  14.96873187
2716.00 -53.89665768  15.00045470
2718.00 -53.97642801  15.03221940
2720.00 -54.05624223  15.06402600
2722.00 -54.13610028  15.09587452
2724.00 -54.21600215  15.12776496
2726.00 -54.29594780  15.15969735
2728.00 -54.37593722  15.19167170
2730.00 -54.45597036  15.22368804
2732.00 -54.53604720  15.25574638
2734.00 -54.61616771  15.28784673
2736.00 -54.69633187  15.31998912
2738.00 -54.77653964  15.35217356
2740.00 -54.85679099  15.38440008
2742.00 -54.93708590  15.41666868
2744.00 -55.01742434  15.44897938
2746.00 -55.09780628  15.48133221
2748.00 -55.17823169  15.51372718
2750.00 -55.25870054  15.54616431
2752.00 -55.33921281  15.57864361
2754.00 -55.41976845  15.61116511
2756.00 -55.50036746  15.64372881
2758.00 -55.58100979  15.67633474
2760.00 -55.66169542  15.70898291
2762.00 -55.74242432  15.74167335
2764.00 -55.82319646  15.77440606
2766.00 -55.90401181  15.80718107
2768.00 -55.98487034  15.83999839
2770.00 -56.06577203  15.87285804
2772.00 -56.14671684  15.90576004
2774.00 -56.22770475  15.93870441
2776.00 -56.30873573  15.97169115
2778.00 -56.38980974  16.00472029
2780.00 -56.47092677  16.03779185
2782.00 -56.55208678  16.07090584
2784.00 -56.63328973  16.10406228
2786.00 -56.71453562  16.13726118
2788.00 -56.79582440  16.17050257
2790.00 -56.87715604  16.20378646
2792.00 -56.95853052  16.23711287
2794.00 -57.03994781  16.27048180
2796.00 -57.12140788  16.30389329
2798.00 -57.20291069  16.33734735
2800.00 -57.28445623  16.37084399
2802.00 -57.36604447  16.40438323
2804.00 -57.44767536  16.43796509
2806.00 -57.52934889  16.47158959
2808.00 -57.61106503  16.50525673
2810.00 -57.69282374  16.53896654
2812.00 -57.77462500  16.57271904
2814.00 -57.85646878  16.60651424
2816.00 -57.93835505  16.64035215
2818.00 -58.02028378  16.67423280
2820.00 -58.10225494  16.70815620
2822.00 -58.18426851  16.74212236
2824.00 -58.26632445  16.77613131
2826.00 -58.34842274  16.81018307
2828.00 -58.43056334  16.84427763
2830.00 -58.51274623  16.87841503
2832.00 -58.59497137  16.91259528
2834.00 -58.67723875  16.94681839
2836.00 -58.75954833  16.98108439
2838.00 -58.84190007  17.01539329
2840.00 -58.92429396  17.04974510
2842.00 -59.00672996  17.08413984
2844.00 -59.08920805  17.11857753
2846.00 -59.17172819  17.15305818
2848.00 -59.25429036  17.18758181
2850.00 -59.33689453  17.22214843
2852.00 -59.41954066  17.25675807
2854.00 -59.50222873  17.29141074
2856.00 -59.58495871  17.32610645
2858.00 -59.66773057  17.36084522
2860.00 -59.75054429  17.39562707
2862.00 -59.83339982  17.43045201
2864.00 -59.91629715  17.46532006
2866.00 -59.99923625  17.50023124
2868.00 -60.08221708  17.53518555
2870.00 -60.16523961  17.57018302
2872.00 -60.24830382  17.60522366
2874.00 -60.33140968  17.64030749
2876.00 -60.41455716  17.67543453
2878.00 -60.49774623  17.71060478
2880.00 -60.58097686  17.74581827
2882.00 -60.66424902  17.78107502
2884.00 -60.74756269  17.81637503
2886.00 -60.83091782  17.85171832
2888.00 -60.91431440  17.88710491
2890.00 -60.99775240  17.92253482
2892.00 -61.08123178  17.95800805
2894.00 -61.16475251  17.99352463
2896.00 -61.24831458  18.02908458
2898.00 -61.33191794  18.06468790
2900.00 -61.41556257  18.10033461
2902.00 -61.49924844  18.13602473
2904.00 -61.58297552  18.17175828
2906.00 -61.66674378  18.20753526
2908.00 -61.75055320  18.24335570
2910.00 -61.83440373  18.27921961
2912.00 -61.91829537  18.31512701
2914.00 -62.00222806  18.35107791
2916.00 -62.08620179  18.38707232
2918.00 -62.17021653  18.42311027
2920.00 -62.25427224  18.45919176
2922.00 -62.33836890  18.49531681
2924.00 -62.42250648  18.53148545
2926.00 -62.50668494  18.56769767
2928.00 -62.59090427  18.60395351
2930.00 -62.67516443  18.64025297
2932.00 -62.75946539  18.67659607
2934.00 -62.84380712  18.71298282
2936.00 -62.92818959  18.74941324
2938.00 -63.01261278  18.78588734
2940.00 -63.09707665  18.82240515
2942.00 -63.18158117  18.85896667
2944.00 -63.26612632  18.89557192
2946.00 -63.35071207  18.93222091
2948.00 -63.43533838  18.96891367
2950.00 -63.52000523  19.00565019
2952.00 -63.60471259  19.04243051
2954.00 -63.68946042  19.07925463
2956.00 -63.77424871  19.11612258
2958.00 -63.85907742  19.15303435
2960.00 -63.94394651  19.18998998
2962.00 -64.02885597  19.22698947
2964.00 -64.11380576  19.26403284
2966.00 -64.19879586  19.30112010
2968.00 -64.28382622  19.33825127
2970.00 -64.36889683  19.37542637
2972.00 -64.45400766  19.41264540
2974.00 -64.53915867  19.44990839
2976.00 -64.62434984  19.48721534
2978.00 -64.70958113  19.52456628
2980.00 -64.79485252  19.56196121
2982.00 -64.88016398  19.59940015
2984.00 -64.96551547  19.63688312
2986.00 -65.05090698  19.67441013
2988.00 -65.13633846  19.71198120
2990.00 -65.22180990  19.74959633
2992.00 -65.30732125  19.78725555
2994.00 -65.39287250  19.82495887
2996.00 -65.47846361  19.86270630
2998.00 -65.56409455  19.90049786
3000.00 -65.64976529  19.93833356
3002.00 -65.73547581  19.97621342
3004.00 -65.82122607  20.01413744
3006.00 -65.90701605  20.05210565
3008.00 -65.99284571  20.09011807
3010.00 -66.07871503  20.12817469
3012.00 -66.16462397  20.16627554
3014.00 -66.25057251  20.20442064
3016.00 -66.33656062  20.24260999
3018.00 -66.42258827  20.28084361
3020.00 -66.50865542  20.31912151
3022.00 -66.59476206  20.35744372
3024.00 -66.68090814  20.39581024
3026.00 -66.76709364  20.43422108
3028.00 -66.85331854  20.47267627
3030.00 -66.93958279  20.51117581
3032.00 -67.02588638  20.54971972
3034.00 -67.11222927  20.58830801
3036.00 -67.19861143  20.62694070
3038.00 -67.28503283  20.66561780
3040.00 -67.37149345  20.70433932
3042.00 -67.45799325  20.74310529
3044.00 -67.54453221  20.78191570
3046.00 -67.63111029  20.82077059
3048.00 -67.71772747  20.85966995
3050.00 -67.80438371  20.89861381
3052.00 -67.89107899  20.93760218
3054.00 -67.97781327  20.97663506
3056.00 -68.06458654  21.01571249
3058.00 -68.15139875  21.05483446
3060.00 -68.23824988  21.09400099
3062.00 -68.32513990  21.13321211
3064.00 -68.41206877  21.17246781
3066.00 -68.49903648  21.21176811
3068.00 -68.58604299  21.25111304
3070.00 -68.67308827  21.29050259
3072.00 -68.76017229  21.32993679
3074.00 -68.84729502  21.36941565
3076.00 -68.93445643  21.40893918
3078.00 -69.02165649  21.44850739
3080.00 -69.10889518  21.48812030
3082.00 -69.19617246  21.52777793
3084.00 -69.28348830  21.56748028
3086.00 -69.37084268  21.60722736
3088.00 -69.45823556  21.64701920
3090.00 -69.54566691  21.68685581
3092.00 -69.63313672  21.72673720
3094.00 -69.72064493  21.76666337
3096.00 -69.80819153  21.80663435
3098.00 -69.89577649  21.84665015
3100.00 -69.98339978  21.88671079
3102.00 -70.07106136  21.92681626
3104.00 -70.15876121  21.96696660
3106.00 -70.24649930  22.00716181
3108.00 -70.33427559  22.04740190
3110.00 -70.42209007  22.08768689
3112.00 -70.50994269  22.12801678
3114.00 -70.59783343  22.16839161
3116.00 -70.68576226  22.20881137
3118.00 -70.77372916  22.24927608
3120.00 -70.86173408  22.28978575
3122.00 -70.94977700  22.33034039
3124.00 -71.03785789  22.37094003
3126.00 -71.12597673  22.41158467
3128.00 -71.21413348  22.45227432
3130.00 -71.30232811  22.49300900
3132.00 -71.39056059  22.53378872
3134.00 -71.47883089  22.57461349
3136.00 -71.56713899  22.61548333
3138.00 -71.65548485  22.65639824
3140.00 -71.74386844  22.69735825
3142.00 -71.83228974  22.73836336
3144.00 -71.92074872  22.77941359
3146.00 -72.00924533  22.82050895
3148.00 -72.09777957  22.86164945
3150.00 -72.18635138  22.90283510
3152.00 -72.27496076  22.94406592
3154.00 -72.36360766  22.98534192
3156.00 -72.45229205  23.02666312
3158.00 -72.54101392  23.06802951
3160.00 -72.62977322  23.10944113
3162.00 -72.71856992  23.15089798
3164.00 -72.80740401  23.19240006
3166.00 -72.89627544  23.23394741
3168.00 -72.98518419  23.27554002
3170.00 -73.07413023  23.31717791
3172.00 -73.16311352  23.35886109
3174.00 -73.25213405  23.40058957
3176.00 -73.34119178  23.44236338
3178.00 -73.43028667  23.48418251
3180.00 -73.51941870  23.52604698
3182.00 -73.60858785  23.56795681
3184.00 -73.69779407  23.60991200
3186.00 -73.78703735  23.65191257
3188.00 -73.87631765  23.69395853
3190.00 -73.96563493  23.73604989
3192.00 -74.05498918  23.77818667
3194.00 -74.14438036  23.82036887
3196.00 -74.23380845  23.86259651
3198.00 -74.32327340  23.90486961
3200.00 -74.41277520  23.94718816
3202.00 -74.50231381  23.98955219
3204.00 -74.59188920  24.03196171
3206.00 -74.68150135  24.07441673
3208.00 -74.77115022  24.11691725
3210.00 -74.86083578  24.15946330
3212.00 -74.95055801  24.20205489
3214.00 -75.04031687  24.24469202
3216.00 -75.13011234  24.28737471
3218.00 -75.21994438  24.33010296
3220.00 -75.30981296  24.37287680
3222.00 -75.39971806  24.41569624
3224.00 -75.48965965  24.45856128
3226.00 -75.57963769  24.50147194
3228.00 -75.66965216  24.54442822
3230.00 -75.75970302  24.58743015
3232.00 -75.84979025  24.63047773
3234.00 -75.93991382  24.67357097
3236.00 -76.03007369  24.71670989
3238.00 -76.12026984  24.75989450
3240.00 -76.21050224  24.80312480
3242.00 -76.30077085  24.84640082
3244.00 -76.39107566  24.88972255
3246.00 -76.48141662  24.93309002
3248.00 -76.57179371  24.97650324
3250.00 -76.66220689  25.01996221
3252.00 -76.75265615  25.06346695
3254.00 -76.84314144  25.10701747
3256.00 -76.93366274  25.15061378
3258.00 -77.02422003  25.19425589
3260.00 -77.11481326  25.23794381
3262.00 -77.20544241  25.28167756
3264.00 -77.29610745  25.32545715
3266.00 -77.38680835  25.36928258
3268.00 -77.47754508  25.41315387
3270.00 -77.56831761  25.45707103
3272.00 -77.65912591  25.50103407
3274.00 -77.74996995  25.54504300
3276.00 -77.84084970  25.58909784
3278.00 -77.93176514  25.63319859
3280.00 -78.02271622  25.67734527
3282.00 -78.11370293  25.72153788
3284.00 -78.20472523  25.76577644
3286.00 -78.29578309  25.81006096
3288.00 -78.38687648  25.85439145
3290.00 -78.47800537  25.89876792
3292.00 -78.56916974  25.94319038
3294.00 -78.66036955  25.98765884
3296.00 -78.75160477  26.03217332
3298.00 -78.84287538  26.07673382
3300.00 -78.93418134  26.12134036
3302.00 -79.02552262  26.16599295
3304.00 -79.11689919  26.21069159
3306.00 -79.20831103  26.25543630
3308.00 -79.29975810  26.30022708
3310.00 -79.39124038  26.34506396
3312.00 -79.48275783  26.38994694
3314.00 -79.57431042  26.43487602
3316.00 -79.66589813  26.47985123
3318.00 -79.75752093  26.52487258
3320.00 -79.84917878  26.56994006
3322.00 -79.94087165  26.61505370
3324.00 -80.03259952  26.66021350
3326.00 -80.12436235  26.70541948
3328.00 -80.21616012  26.75067164
3330.00 -80.30799280  26.79597000
3332.00 -80.39986035  26.84131456
3334.00 -80.49176275  26.88670534
3336.00 -80.58369996  26.93214235
3338.00 -80.67567196  26.97762560
3340.00 -80.76767872  27.02315509
3342.00 -80.85972020  27.06873085
3344.00 -80.95179639  27.11435287
3346.00 -81.04390723  27.16002117
3348.00 -81.13605272  27.20573576
3350.00 -81.22823281  27.25149665
3352.00 -81.32044748  27.29730386
3354.00 -81.41269670  27.34315738
3356.00 -81.50498043  27.38905723
3358.00 -81.59729865  27.43500342
3360.00 -81.68965133  27.48099597
3362.00 -81.78203844  27.52703487
3364.00 -81.87445995  27.57312015
3366.00 -81.96691583  27.61925181
3368.00 -82.05940604  27.66542986
3370.00 -82.15193057  27.71165431
3372.00 -82.24448937  27.75792518
3374.00 -82.33708242  27.80424246
3376.00 -82.42970969  27.85060618
3378.00 -82.52237115  27.89701634
3380.00 -82.61506678  27.94347295
3382.00 -82.70779653  27.98997603
3384.00 -82.80056038  28.03652557
3386.00 -82.89335830  28.08312160
3388.00 -82.98619026  28.12976412
3390.00 -83.07905623  28.17645314
3392.00 -83.17195618  28.22318867
3394.00 -83.26489009  28.26997072
3396.00 -83.35785791  28.31679930
3398.00 -83.45085962  28.36367442
3400.00 -83.54389520  28.41059609
3402.00 -83.63696461  28.45756433
3404.00 -83.73006782  28.50457913
3406.00 -83.82320480  28.55164051
3408.00 -83.91637552  28.59874848
3410.00 -84.00957995  28.64590305
3412.00 -84.10281807  28.69310423
3414.00 -84.19608984  28.74035202
3416.00 -84.28939523  28.78764644
3418.00 -84.38273422  28.83498750
3420.00 -84.47610676  28.88237521
3422.00 -84.56951284  28.92980957
3424.00 -84.66295242  28.97729059
3426.00 -84.75642548  29.02481829
3428.00 -84.84993198  29.07239268
3430.00 -84.94347189  29.12001375
3432.00 -85.03704519  29.16768153
3434.00 -85.13065184  29.21539603
3436.00 -85.22429181  29.26315724
3438.00 -85.31796508  29.31096519
3440.00 -85.41167162  29.35881987
3442.00 -85.50541138  29.40672131
3444.00 -85.59918435  29.45466950
3446.00 -85.69299050  29.50266446
3448.00 -85.78682979  29.55070620
3450.00 -85.88070220  29.59879472
3452.00 -85.97460769  29.64693004
3454.00 -86.06854624  29.69511216
3456.00 -86.16251781  29.74334110
3458.00 -86.25652238  29.79161686
3460.00 -86.35055991  29.83993945
3462.00 -86.44463039  29.88830888
3464.00 -86.53873376  29.93672516
3466.00 -86.63287002  29.98518830
3468.00 -86.72703911  30.03369831
3470.00 -86.82124103  30.08225520
3472.00 -86.91547573  30.13085897
3474.00 -87.00974319  30.17950963
3476.00 -87.10404338  30.22820720
3478.00 -87.19837627  30.27695168
3480.00 -87.29274182  30.32574308
3482.00 -87.38714001  30.37458141
3484.00 -87.48157081  30.42346667
3486.00 -87.57603418  30.47239889
3488.00 -87.67053011  30.52137806
3490.00 -87.76505855  30.57040420
3492.00 -87.85961948  30.61947731
3494.00 -87.95421287  30.66859740
3496.00 -88.04883869  30.71776448
3498.00 -88.14349691  30.76697856
3500.00 -88.23818750  30.81623965
3502.00 -88.33291042  30.86554776
3504.00 -88.42766566  30.91490289
3506.00 -88.52245318  30.96430506
3508.00 -88.61727294  31.01375426
3510.00 -88.71212493  31.06325052
3512.00 -88.80700910  31.11279384
3514.00 -88.90192544  31.16238422
3516.00 -88.99687391  31.21202168
3518.00 -89.09185448  31.26170623
3520.00 -89.18686712  31.31143786
3522.00 -89.28191180  31.36121660
3524.00 -89.37698849  31.41104245
3526.00 -89.47209716  31.46091541
3528.00 -89.56723779  31.51083551
3530.00 -89.66241034  31.56080273
3532.00 -89.75761478  31.61081710
3534.00 -89.85285108  31.66087862
3536.00 -89.94811922  31.71098729
3538.00 -90.04341915  31.76114314
3540.00 -90.13875086  31.81134616
3542.00 -90.23411432  31.86159636
3544.00 -90.32950949  31.91189376
3546.00 -90.42493634  31.96223835
3548.00 -90.52039484  32.01263015
3550.00 -90.61588497  32.06306917
3552.00 -90.71140669  32.11355541
3554.00 -90.80695998  32.16408889
3556.00 -90.90254480  32.21466960
3558.00 -90.99816113  32.26529756
3560.00 -91.09380893  32.31597277
3562.00 -91.18948818  32.36669525
3564.00 -91.28519884  32.41746500
3566.00 -91.38094089  32.46828203
3568.00 -91.47671430  32.51914635
3570.00 -91.57251903  32.57005796
3572.00 -91.66835506  32.62101688
3574.00 -91.76422235  32.67202310
3576.00 -91.86012088  32.72307664
3578.00 -91.95605062  32.77417751
3580.00 -92.05201153  32.82532572
3582.00 -92.14800359  32.87652126
3584.00 -92.24402677  32.92776415
3586.00 -92.34008104  32.97905440
3588.00 -92.43616637  33.03039201
3590.00 -92.53228272  33.08177700
3592.00 -92.62843008  33.13320936
3594.00 -92.72460840  33.18468912
3596.00 -92.82081766  33.23621626
3598.00 -92.91705783  33.28779081
3600.00 -93.01332888  33.33941277
3602.00 -93.10963078  33.39108214
3604.00 -93.20596350  33.44279894
3606.00 -93.30232701  33.49456317
3608.00 -93.39872128  33.54637484
3610.00 -93.49514629  33.59823396
3612.00 -93.59160199  33.65014053
3614.00 -93.68808837  33.70209456
3616.00 -93.78460538  33.75409606
3618.00 -93.88115301  33.80614504
3620.00 -93.97773122  33.85824150
3622.00 -94.07433999  33.91038545
3624.00 -94.17097927  33.96257690
3626.00 -94.26764905  34.01481585
3628.00 -94.36434930  34.06710231
3630.00 -94.46107997  34.11943630
3632.00 -94.55784105  34.17181780
3634.00 -94.65463251  34.22424685
3636.00 -94.75145430  34.27672343
3638.00 -94.84830642  34.32924756
3640.00 -94.94518882  34.38181925
3642.00 -95.04210147  34.43443849
3644.00 -95.13904435  34.48710531
3646.00 -95.23601742  34.53981970
3648.00 -95.33302067  34.59258168
3650.00 -95.43005404  34.64539124
3652.00 -95.52711753  34.69824840
3654.00 -95.62421109  34.75115316
3656.00 -95.72133470  34.80410553
3658.00 -95.81848833  34.85710552
3660.00 -95.91567194  34.91015314
3662.00 -96.01288551  34.96324838
3664.00 -96.11012902  35.01639127
3666.00 -96.20740242  35.06958179
3668.00 -96.30470569  35.12281997
3670.00 -96.40203880  35.17610580
3672.00 -96.49940172  35.22943930
3674.00 -96.59679442  35.28282047
3676.00 -96.69421687  35.33624932
3678.00 -96.79166904  35.38972585
3680.00 -96.88915090  35.44325008
3682.00 -96.98666242  35.49682200
3684.00 -97.08420358  35.55044162
3686.00 -97.18177434  35.60410896
3688.00 -97.27937467  35.65782401
3690.00 -97.37700454  35.71158678
3692.00 -97.47466393  35.76539729
3694.00 -97.57235280  35.81925553
3696.00 -97.67007113  35.87316152
3698.00 -97.76781888  35.92711525
3700.00 -97.86559602  35.98111674
3702.00 -97.96340253  36.03516600
3704.00 -98.06123837  36.08926302
3706.00 -98.15910352  36.14340782
3708.00 -98.25699795  36.19760039
3710.00 -98.35492162  36.25184076
3712.00 -98.45287452  36.30612892
3714.00 -98.55085659  36.36046487
3716.00 -98.64886783  36.41484864
3718.00 -98.74690819  36.46928022
3720.00 -98.84497765  36.52375961
3722.00 -98.94307619  36.57828683
3724.00 -99.04120376  36.63286188
3726.00 -99.13936034  36.68748477
3728.00 -99.23754590  36.74215550
3730.00 -99.33576041  36.79687408
3732.00 -99.43400384  36.85164052
3734.00 -99.53227616  36.90645481
3736.00 -99.63057735  36.96131698
3738.00 -99.72890737  37.01622701
3740.00 -99.82726618  37.07118493
3742.00 -99.92565378  37.12619073
3744.00 -100.02407011  37.18124442
3746.00 -100.12251516  37.23634601
3748.00 -100.22098890  37.29149550
3750.00 -100.31949129  37.34669290
3752.00 -100.41802230  37.40193822
3754.00 -100.51658191  37.45723145
3756.00 -100.61517009  37.51257261
3758.00 -100.71378680  37.56796170
3760.00 -100.81243202  37.62339873
3762.00 -100.91110572  37.67888371
3764.00 -101.00980787  37.73441663
3766.00 -101.10853843  37.78999751
3768.00 -101.20729738  37.84562634
3770.00 -101.30608469  37.90130315
3772.00 -101.40490033  37.95702792
3774.00 -101.50374428  38.01280067
3776.00 -101.60261649  38.06862141
3778.00 -101.70151694  38.12449013
3780.00 -101.80044561  38.18040684
3782.00 -101.89940246  38.23637156
3784.00 -101.99838746  38.29238428
3786.00 -102.09740058  38.34844501
3788.00 -102.19644180  38.40455376
3790.00 -102.29551108  38.46071052
3792.00 -102.39460840  38.51691532
3794.00 -102.49373372  38.57316814
3796.00 -102.59288702  38.62946901
3798.00 -102.69206826  38.68581791
3800.00 -102.79127742  38.74221487
3802.00 -102.89051447  38.79865987
3804.00 -102.98977938  38.85515294
3806.00 -103.08907211  38.91169407
3808.00 -103.18839264  38.96828327
3810.00 -103.28774095  39.02492054
3812.00 -103.38711699  39.08160589
3814.00 -103.48652074  39.13833933
3816.00 -103.58595218  39.19512086
3818.00 -103.68541126  39.25195048
3820.00 -103.78489797  39.30882820
3822.00 -103.88441227  39.36575402
3824.00 -103.98395414  39.42272796
3826.00 -104.08352353  39.47975001
3828.00 -104.18312044  39.53682018
3830.00 -104.28274481  39.59393848
3832.00 -104.38239664  39.65110491
3834.00 -104.48207588  39.70831947
3836.00 -104.58178250  39.76558217
3838.00 -104.68151649  39.82289302
3840.00 -104.78127780  39.88025202
3842.00 -104.88106641  39.93765917
3844.00 -104.98088229  39.99511448
3846.00 -105.08072541  40.05261796
3848.00 -105.18059574  40.11016960
3850.00 -105.28049325  40.16776942
3852.00 -105.38041792  40.22541742
3854.00 -105.48036970  40.28311360
3856.00 -105.58034858  40.34085797
3858.00 -105.68035452  40.39865053
3860.00 -105.78038750  40.45649129
3862.00 -105.88044748  40.51438026
3864.00 -105.98053444  40.57231743
3866.00 -106.08064834  40.63030281
3868.00 -106.18078916  40.68833641
3870.00 -106.28095687  40.74641823
3872.00 -106.38115143  40.80454827
3874.00 -106.48137283  40.86272655
3876.00 -106.58162102  40.92095305
3878.00 -106.68189599  40.97922780
3880.00 -106.78219769  41.03755079
3882.00 -106.88252611  41.09592203
3884.00 -106.98288121  41.15434152
3886.00 -107.08326296  41.21280927
3888.00 -107.18367134  41.27132528
3890.00 -107.28410631  41.32988955
3892.00 -107.38456784  41.38850210
3894.00 -107.48505591  41.44716292
3896.00 -107.58557049  41.50587201
3898.00 -107.68611154  41.56462939
3900.00 -107.78667905  41.62343506
3902.00 -107.88727297  41.68228902
3904.00 -107.98789328  41.74119127
3906.00 -108.08853995  41.80014183
3908.00 -108.18921295  41.85914068
3910.00 -108.28991225  41.91818785
3912.00 -108.39063783  41.97728333
3914.00 -108.49138965  42.03642712
3916.00 -108.59216768  42.09561924
3918.00 -108.69297190  42.15485968
3920.00 -108.79380227  42.21414845
3922.00 -108.89465877  42.27348555
3924.00 -108.99554136  42.33287098
3926.00 -109.09645003  42.39230476
3928.00 -109.19738473  42.45178688
3930.00 -109.29834544  42.51131736
3932.00 -109.39933213  42.57089618
3934.00 -109.50034478  42.63052336
3936.00 -109.60138334  42.69019890
3938.00 -109.70244780  42.74992281
3940.00 -109.80353812  42.80969508
3942.00 -109.90465427  42.86951573
3944.00 -110.00579623  42.92938475
3946.00 -110.10696397  42.98930215
3948.00 -110.20815745  43.04926793
3950.00 -110.30937665  43.10928210
3952.00 -110.41062154  43.16934466
3954.00 -110.51189209  43.22945562
3956.00 -110.61318826  43.28961498
3958.00 -110.71451004  43.34982273
3960.00 -110.81585739  43.41007890
3962.00 -110.91723029  43.47038347
3964.00 -111.01862869  43.53073645
3966.00 -111.12005258  43.59113785
3968.00 -111.22150193  43.65158767
3970.00 -111.32297670  43.71208592
3972.00 -111.42447687  43.77263259
3974.00 -111.52600241  43.83322769
3976.00 -111.62755329  43.89387123
3978.00 -111.72912948  43.95456320
3980.00 -111.83073094  44.01530362
3982.00 -111.93235766  44.07609248
3984.00 -112.03400960  44.13692979
3986.00 -112.13568674  44.19781554
3988.00 -112.23738904  44.25874976
3990.00 -112.33911647  44.31973243
3992.00 -112.44086902  44.38076356
3994.00 -112.54264664  44.44184316
3996.00 -112.64444930  44.50297122
3998.00 -112.74627699  44.56414776
4000.00 -112.84812967  44.62537277
4002.00 -112.95000730  44.68664626
4004.00 -113.05190987  44.74796823
4006.00 -113.15383735  44.80933868
4008.00 -113.25578970  44.87075762
4010.00 -113.35776689  44.93222505
4012.00 -113.45976890  44.99374097
4014.00 -113.56179569  45.05530540
4016.00 -113.66384725  45.11691832
4018.00 -113.76592353  45.17857974
4020.00 -113.86802451  45.24028967
4022.00 -113.97015017  45.30204810
4024.00 -114.07230046  45.36385505
4026.00 -114.17447537  45.42571052
4028.00 -114.27667487  45.48761450
4030.00 -114.37889892  45.54956700
4032.00 -114.48114749  45.61156803
4034.00 -114.58342057  45.67361758
4036.00 -114.68571811  45.73571566
4038.00 -114.78804009  45.79786228
4040.00 -114.89038648  45.86005743
4042.00 -114.99275726  45.92230112
4044.00 -115.09515239  45.98459334
4046.00 -115.19757184  46.04693412
4048.00 -115.30001558  46.10932343
4050.00 -115.40248359  46.17176130
4052.00 -115.50497584  46.23424772
4054.00 -115.60749230  46.29678269
4056.00 -115.71003294  46.35936622
4058.00 -115.81259773  46.42199831
4060.00 -115.91518664  46.48467897
4062.00 -116.01779964  46.54740819
4064.00 -116.12043671  46.61018597
4066.00 -116.22309781  46.67301233
4068.00 -116.32578292  46.73588726
4070.00 -116.42849200  46.79881076
4072.00 -116.53122503  46.86178284
4074.00 -116.63398199  46.92480351
4076.00 -116.73676283  46.98787275
4078.00 -116.83956754  47.05099058
4080.00 -116.94239608  47.11415700
4082.00 -117.04524843  47.17737201
4084.00 -117.14812455  47.24063562
4086.00 -117.25102442  47.30394781
4088.00 -117.35394800  47.36730861
4090.00 -117.45689528  47.43071800
4092.00 -117.55986621  47.49417600
4094.00 -117.66286078  47.55768260
4096.00 -117.76587895  47.62123781
4098.00 -117.86892070  47.68484162
4100.00 -117.97198599  47.74849405
4102.00 -118.07507480  47.81219509
4104.00 -118.17818709  47.87594475
4106.00 -118.28132285  47.93974303
4108.00 -118.38448203  48.00358992
4110.00 -118.48766462  48.06748544
4112.00 -118.59087058  48.13142958
4114.00 -118.69409989  48.19542235
4116.00 -118.79735251  48.25946375
4118.00 -118.90062842  48.32355378
4120.00 -119.00392758  48.38769244
4122.00 -119.10724998  48.45187973
4124.00 -119.21059558  48.51611566
4126.00 -119.31396435  48.58040023
4128.00 -119.41735626  48.64473344
4130.00 -119.52077129  48.70911530
4132.00 -119.62420940  48.77354580
4134.00 -119.72767057  48.83802494
4136.00 -119.83115478  48.90255274
4138.00 -119.93466198  48.96712918
4140.00 -120.03819215  49.03175428
4142.00 -120.14174527  49.09642803
4144.00 -120.24532130  49.16115043
4146.00 -120.34892022  49.22592150
4148.00 -120.45254199  49.29074122
4150.00 -120.55618660  49.35560960
4152.00 -120.65985400  49.42052665
4154.00 -120.76354418  49.48549236
4156.00 -120.86725709  49.55050674
4158.00 -120.97099273  49.61556979
4160.00 -121.07475105  49.68068151
4162.00 -121.17853202  49.74584189
4164.00 -121.28233563  49.81105095
4166.00 -121.38616183  49.87630869
4168.00 -121.49001061  49.94161510
4170.00 -121.59388193  50.00697019
4172.00 -121.69777576  50.07237396
4174.00 -121.80169208  50.13782641
4176.00 -121.90563086  50.20332754
4178.00 -122.00959207  50.26887736
4180.00 -122.11357567  50.33447586
4182.00 -122.21758165  50.40012304
4184.00 -122.32160998  50.46581892
4186.00 -122.42566061  50.53156349
4188.00 -122.52973354  50.59735674
4190.00 -122.63382872  50.66319869
4192.00 -122.73794613  50.72908934
4194.00 -122.84208575  50.79502867
4196.00 -122.94624753  50.86101671
4198.00 -123.05043146  50.92705344
4200.00 -123.15463751  50.99313887
4202.00 -123.25886564  51.05927300
4204.00 -123.36311584  51.12545584
4206.00 -123.46738806  51.19168737
4208.00 -123.57168229  51.25796761
4210.00 -123.67599849  51.32429656
4212.00 -123.78033663  51.39067421
4214.00 -123.88469669  51.45710057
4216.00 -123.98907864  51.52357564
4218.00 -124.09348246  51.59009941
4220.00 -124.19790810  51.65667190
4222.00 -124.30235554  51.72329310
4224.00 -124.40682477  51.78996302
4226.00 -124.51131573  51.85668164
4228.00 -124.61582842  51.92344899
4230.00 -124.72036280  51.99026504
4232.00 -124.82491884  52.05712982
4234.00 -124.92949651  52.12404331
4236.00 -125.03409579  52.19100552
4238.00 -125.13871664  52.25801646
4240.00 -125.24335904  52.32507611
4242.00 -125.34802297  52.39218448
4244.00 -125.45270838  52.45934158
4246.00 -125.55741526  52.52654740
4248.00 -125.66214357  52.59380194
4250.00 -125.76689330  52.66110521
4252.00 -125.87166440  52.72845721
4254.00 -125.97645685  52.79585793
4256.00 -126.08127062  52.86330738
4258.00 -126.18610569  52.93080556
4260.00 -126.29096202  52.99835246
4262.00 -126.39583959  53.06594810
4264.00 -126.50073837  53.13359246
4266.00 -126.60565834  53.20128556
4268.00 -126.71059945  53.26902739
4270.00 -126.81556169  53.33681794
4272.00 -126.92054503  53.40465724
4274.00 -127.02554943  53.47254526
4276.00 -127.13057488  53.54048202
4278.00 -127.23562134  53.60846751
4280.00 -127.34068878  53.67650174
4282.00 -127.44577718  53.74458471
4284.00 -127.55088650  53.81271641
4286.00 -127.65601673  53.88089684
4288.00 -127.76116783  53.94912602
4290.00 -127.86633977  54.01740393
4292.00 -127.97153252  54.08573057
4294.00 -128.07674606  54.15410596
4296.00 -128.18198036  54.22253008
4298.00 -128.28723540  54.29100295
4300.00 -128.39251113  54.35952455
4302.00 -128.49780754  54.42809489
4304.00 -128.60312460  54.49671397
4306.00 -128.70846227  54.56538180
4308.00 -128.81382054  54.63409836
4310.00 -128.91919937  54.70286366
4312.00 -129.02459873  54.77167770
4314.00 -129.13001860  54.84054049
4316.00 -129.23545895  54.90945201
4318.00 -129.34091975  54.97841228
4320.00 -129.44640097  55.04742129
4322.00 -129.55190258  55.11647904
4324.00 -129.65742456  55.18558554
4326.00 -129.76296688  55.25474077
4328.00 -129.86852951  55.32394475
4330.00 -129.97411243  55.39319747
4332.00 -130.07971559  55.46249893
4334.00 -130.18533899  55.53184913
4336.00 -130.29098258  55.60124808
4338.00 -130.39664634  55.67069576
4340.00 -130.50233025  55.74019219
4342.00 -130.60803427  55.80973737
4344.00 -130.71375837  55.87933128
4346.00 -130.81950254  55.94897394
4348.00 -130.92526674  56.01866534
4350.00 -131.03105094  56.08840548
4352.00 -131.13685511  56.15819436
4354.00 -131.24267923  56.22803198
4356.00 -131.34852328  56.29791835
4358.00 -131.45438721  56.36785345
4360.00 -131.56027101  56.43783730
4362.00 -131.66617464  56.50786989
4364.00 -131.77209808  56.57795122
4366.00 -131.87804130  56.64808129
4368.00 -131.98400427  56.71826009
4370.00 -132.08998697  56.78848764
4372.00 -132.19598937  56.85876393
4374.00 -132.30201143  56.92908896
4376.00 -132.40805314  56.99946272
4378.00 -132.51411445  57.06988523
4380.00 -132.62019536  57.14035647
4382.00 -132.72629582  57.21087645
4384.00 -132.83241581  57.28144517
4386.00 -132.93855530  57.35206262
4388.00 -133.04471427  57.42272881
4390.00 -133.15089269  57.49344373
4392.00 -133.25709052  57.56420740
4394.00 -133.36330775  57.63501979
4396.00 -133.46954433  57.70588092
4398.00 -133.57580026  57.77679079
4400.00 -133.68207549  57.84774938
4402.00 -133.78837000  57.91875671
4404.00 -133.89468377  57.98981277
4406.00 -134.00101676  58.06091757
4408.00 -134.10736895  58.13207109
4410.00 -134.21374031  58.20327334
4412.00 -134.32013081  58.27452433
4414.00 -134.42654042  58.34582404
4416.00 -134.53296912  58.41717248
4418.00 -134.63941688  58.48856964
4420.00 -134.74588367  58.56001554
4422.00 -134.85236947  58.63151016
4424.00 -134.95887424  58.70305350
4426.00 -135.06539796  58.77464557
4428.00 -135.17194060  58.84628636
4430.00 -135.27850214  58.91797588
4432.00 -135.38508254  58.98971411
4434.00 -135.49168178  59.06150107
4436.00 -135.59829983  59.13333675
4438.00 -135.70493666  59.20522114
4440.00 -135.81159225  59.27715426
4442.00 -135.91826657  59.34913609
4444.00 -136.02495959  59.42116664
4446.00 -136.13167128  59.49324590
4448.00 -136.23840161  59.56537388
4450.00 -136.34515057  59.63755057
4452.00 -136.45191811  59.70977597
4454.00 -136.55870422  59.78205009
4456.00 -136.66550887  59.85437291
4458.00 -136.77233202  59.92674445
4460.00 -136.87917365  59.99916469
4462.00 -136.98603374  60.07163364
4464.00 -137.09291225  60.14415129
4466.00 -137.19980916  60.21671765
4468.00 -137.30672444  60.28933272
4470.00 -137.41365806  60.36199648
4472.00 -137.52061001  60.43470895
4474.00 -137.62758024  60.50747011
4476.00 -137.73456873  60.58027998
4478.00 -137.84157545  60.65313854
4480.00 -137.94860038  60.72604580
4482.00 -138.05564349  60.79900175
4484.00 -138.16270476  60.87200640
4486.00 -138.26978414  60.94505974
4488.00 -138.37688163  61.01816177
4490.00 -138.48399718  61.09131249
4492.00 -138.59113078  61.16451190
4494.00 -138.69828239  61.23775999
4496.00 -138.80545199  61.31105677
4498.00 -138.91263955  61.38440224
4500.00 -139.01984504  61.45779638
4502.00 -139.12706844  61.53123921
4504.00 -139.23430972  61.60473072
4506.00 -139.34156884  61.67827090
4508.00 -139.44884580  61.75185977
4510.00 -139.55614055  61.82549730
4512.00 -139.66345307  61.89918351
4514.00 -139.77078333  61.97291840
4516.00 -139.87813131  62.04670195
4518.00 -139.98549697  62.12053417
4520.00 -140.09288030  62.19441506
4522.00 -140.20028126  62.26834462
4524.00 -140.30769982  62.34232284
4526.00 -140.41513597  62.41634972
4528.00 -140.52258966  62.49042526
4530.00 -140.63006088  62.56454946
4532.00 -140.73754960  62.63872232
4534.00 -140.84505579  62.71294383
4536.00 -140.95257943  62.78721400
4538.00 -141.06012048  62.86153281
4540.00 -141.16767892  62.93590028
4542.00 -141.27525472  63.01031640
4544.00 -141.38284785  63.08478116
4546.00 -141.49045829  63.15929457
4548.00 -141.59808602  63.23385662
4550.00 -141.70573100  63.30846732
4552.00 -141.81339320  63.38312665
4554.00 -141.92107260  63.45783462
4556.00 -142.02876918  63.53259122
4558.00 -142.13648290  63.60739646
4560.00 -142.24421374  63.68225033
4562.00 -142.35196167  63.75715283
4564.00 -142.45972667  63.83210395
4566.00 -142.56750870  63.90710370
4568.00 -142.67530775  63.98215208
4570.00 -142.78312377  64.05724907
4572.00 -142.89095676  64.13239469
4574.00 -142.99880667  64.20758892
4576.00 -143.10667349  64.28283177
4578.00 -143.21455718  64.35812323
4580.00 -143.32245772  64.43346330
4582.00 -143.43037508  64.50885199
4584.00 -143.53830923  64.58428927
4586.00 -143.64626015  64.65977517
4588.00 -143.75422782  64.73530966
4590.00 -143.86221220  64.81089276
4592.00 -143.97021326  64.88652445
4594.00 -144.07823099  64.96220474
4596.00 -144.18626535  65.03793362
4598.00 -144.29431631  65.11371109
4600.00 -144.40238385  65.18953715
4602.00 -144.51046795  65.26541180
4604.00 -144.61856858  65.34133504
4606.00 -144.72668570  65.41730685
4608.00 -144.83481929  65.49332725
4610.00 -144.94296933  65.56939622
4612.00 -145.05113579  65.64551376
4614.00 -145.15931864  65.72167988
4616.00 -145.26751786  65.79789457
4618.00 -145.37573341  65.87415783
4620.00 -145.48396527  65.95046965
4622.00 -145.59221342  66.02683004
4624.00 -145.70047783  66.10323898
4626.00 -145.80875847  66.17969648
4628.00 -145.91705531  66.25620254
4630.00 -146.02536834  66.33275715
4632.00 -146.13369751  66.40936031
4634.00 -146.24204281  66.48601202
4636.00 -146.35040420  66.56271227
4638.00 -146.45878167  66.63946107
4640.00 -146.56717518  66.71625840
4642.00 -146.67558470  66.79310428
4644.00 -146.78401022  66.86999868
4646.00 -146.89245171  66.94694162
4648.00 -147.00090913  67.02393309
4650.00 -147.10938246  67.10097308
4652.00 -147.21787168  67.17806160
4654.00 -147.32637675  67.25519864
4656.00 -147.43489766  67.33238420
4658.00 -147.54343437  67.40961827
4660.00 -147.65198686  67.48690086
4662.00 -147.76055510  67.56423195
4664.00 -147.86913906  67.64161156
4666.00 -147.97773872  67.71903966
4668.00 -148.08635406  67.79651627
4670.00 -148.19498504  67.87404138
4672.00 -148.30363164  67.95161498
4674.00 -148.41229383  68.02923708
4676.00 -148.52097159  68.10690767
4678.00 -148.62966489  68.18462674
4680.00 -148.73837370  68.26239430
4682.00 -148.84709799  68.34021033
4684.00 -148.95583775  68.41807485
4686.00 -149.06459294  68.49598784
4688.00 -149.17336354  68.57394931
4690.00 -149.28214951  68.65195924
4692.00 -149.39095085  68.73001764
4694.00 -149.49976750  68.80812450
4696.00 -149.60859946  68.88627982
4698.00 -149.71744670  68.96448360
4700.00 -149.82630918  69.04273584
4702.00 -149.93518689  69.12103652
4704.00 -150.04407979  69.19938565
4706.00 -150.15298786  69.27778323
4708.00 -150.26191108  69.35622925
4710.00 -150.37084941  69.43472370
4712.00 -150.47980283  69.51326659
4714.00 -150.58877131  69.59185792
4716.00 -150.69775483  69.67049767
4718.00 -150.80675337  69.74918584
4720.00 -150.91576689  69.82792244
4722.00 -151.02479537  69.90670746
4724.00 -151.13383878  69.98554089
4726.00 -151.24289709  70.06442274
4728.00 -151.35197029  70.14335299
4730.00 -151.46105834  70.22233165
4732.00 -151.57016122  70.30135871
4734.00 -151.67927890  70.38043417
4736.00 -151.78841135  70.45955803
4738.00 -151.89755855  70.53873027
4740.00 -152.00672048  70.61795091
4742.00 -152.11589710  70.69721993
4744.00 -152.22508839  70.77653734
4746.00 -152.33429433  70.85590312
4748.00 -152.44351488  70.93531727
4750.00 -152.55275003  71.01477980
4752.00 -152.66199974  71.09429070
4754.00 -152.77126399  71.17384996
4756.00 -152.88054276  71.25345758
4758.00 -152.98983601  71.33311356
4760.00 -153.09914372  71.41281789
4762.00 -153.20846587  71.49257057
4764.00 -153.31780243  71.57237160
4766.00 -153.42715337  71.65222097
4768.00 -153.53651867  71.73211868
4770.00 -153.64589829  71.81206473
4772.00 -153.75529223  71.89205911
4774.00 -153.86470044  71.97210181
4776.00 -153.97412290  72.05219284
4778.00 -154.08355959  72.13233219
4780.00 -154.19301048  72.21251986
4782.00 -154.30247555  72.29275585
4784.00 -154.41195476  72.37304014
4786.00 -154.52144810  72.45337274
4788.00 -154.63095554  72.53375364
4790.00 -154.74047704  72.61418283
4792.00 -154.85001259  72.69466033
4794.00 -154.95956216  72.77518611
4796.00 -155.06912572  72.85576018
4798.00 -155.17870325  72.93638253
4800.00 -155.28829472  73.01705317
4802.00 -155.39790010  73.09777207
4804.00 -155.50751938  73.17853925
4806.00 -155.61715252  73.25935470
4808.00 -155.72679949  73.34021841
4810.00 -155.83646028  73.42113038
4812.00 -155.94613485  73.50209060
4814.00 -156.05582319  73.58309908
4816.00 -156.16552526  73.66415580
4818.00 -156.27524103  73.74526077
4820.00 -156.38497049  73.82641398
4822.00 -156.49471361  73.90761542
4824.00 -156.60447035  73.98886509
4826.00 -156.71424071  74.07016299
4828.00 -156.82402464  74.15150912
4830.00 -156.93382212  74.23290346
4832.00 -157.04363314  74.31434602
4834.00 -157.15345765  74.39583679
4836.00 -157.26329564  74.47737577
4838.00 -157.37314709  74.55896295
4840.00 -157.48301196  74.64059832
4842.00 -157.59289022  74.72228189
4844.00 -157.70278187  74.80401366
4846.00 -157.81268686  74.88579360
4848.00 -157.92260517  74.96762173
4850.00 -158.03253678  75.04949804
4852.00 -158.14248166  75.13142252
4854.00 -158.25243978  75.21339517
4856.00 -158.36241113  75.29541598
4858.00 -158.47239567  75.37748495
4860.00 -158.58239338  75.45960208
4862.00 -158.69240423  75.54176736
4864.00 -158.80242820  75.62398079
4866.00 -158.91246526  75.70624236
4868.00 -159.02251538  75.78855206
4870.00 -159.13257855  75.87090991
4872.00 -159.24265473  75.95331588
4874.00 -159.35274391  76.03576997
4876.00 -159.46284604  76.11827219
4878.00 -159.57296112  76.20082253
4880.00 -159.68308911  76.28342097
4882.00 -159.79322999  76.36606752
4884.00 -159.90338372  76.44876218
4886.00 -160.01355030  76.53150493
4888.00 -160.12372969  76.61429578
4890.00 -160.23392186  76.69713472
4892.00 -160.34412679  76.78002174
4894.00 -160.45434446  76.86295684
4896.00 -160.56457484  76.94594002
4898.00 -160.67481790  77.02897127
4900.00 -160.78507362  77.11205058
4902.00 -160.89534197  77.19517795
4904.00 -161.00562293  77.27835339
4906.00 -161.11591648  77.36157687
4908.00 -161.22622258  77.44484840
4910.00 -161.33654121  77.52816798
4912.00 -161.44687235  77.61153559
4914.00 -161.55721597  77.69495124
4916.00 -161.66757205  77.77841491
4918.00 -161.77794056  77.86192661
4920.00 -161.88832147  77.94548633
4922.00 -161.99871477  78.02909407
4924.00 -162.10912041  78.11274981
4926.00 -162.21953839  78.19645356
4928.00 -162.32996867  78.28020530
4930.00 -162.44041123  78.36400505
4932.00 -162.55086605  78.44785278
4934.00 -162.66133309  78.53174850
4936.00 -162.77181234  78.61569220
4938.00 -162.88230376  78.69968387
4940.00 -162.99280734  78.78372352
4942.00 -163.10332304  78.86781113
4944.00 -163.21385085  78.95194670
4946.00 -163.32439073  79.03613023
4948.00 -163.43494267  79.12036171
4950.00 -163.54550664  79.20464114
4952.00 -163.65608260  79.28896850
4954.00 -163.76667055  79.37334380
4956.00 -163.87727044  79.45776704
4958.00 -163.98788226  79.54223820
4960.00 -164.09850599  79.62675728
4962.00 -164.20914159  79.71132427
4964.00 -164.31978904  79.79593918
4966.00 -164.43044832  79.88060199
4968.00 -164.54111940  79.96531271
4970.00 -164.65180225  80.05007131
4972.00 -164.76249686  80.13487781
4974.00 -164.87320319  80.21973220
4976.00 -164.98392123  80.30463446
4978.00 -165.09465094  80.38958460
4980.00 -165.20539230  80.47458261
4982.00 -165.31614529  80.55962848
4984.00 -165.42690988  80.64472221
4986.00 -165.53768605  80.72986380
4988.00 -165.64847377  80.81505323
4990.00 -165.75927301  80.90029051
4992.00 -165.87008376  80.98557563
4994.00 -165.98090598  81.07090858
4996.00 -166.09173966  81.15628935
4998.00 -166.20258476  81.24171795
5000.00 -166.31344126  81.32719437
