wavelength(nm)         real         imag
100.00   3.79867715   0.00096823
102.00   3.79458409   0.00102749
104.00   3.79041002   0.00108912
106.00   3.78615493   0.00115317
108.00   3.78181882   0.00121967
110.00   3.77740170   0.00128869
112.00   3.77290357   0.00136026
114.00   3.76832442   0.00143444
116.00   3.76366427   0.00151126
118.00   3.75892311   0.00159078
120.00   3.75410095   0.00167304
122.00   3.74919779   0.00175808
124.00   3.74421363   0.00184596
126.00   3.73914847   0.00193672
128.00   3.73400231   0.00203041
130.00   3.72877517   0.00212707
132.00   3.72346703   0.00222675
134.00   3.71807790   0.00232950
136.00   3.71260779   0.00243536
138.00   3.70705669   0.00254437
140.00   3.70142461   0.00265660
142.00   3.69571156   0.00277207
144.00   3.68991753   0.00289084
146.00   3.68404252   0.00301296
148.00   3.67808654   0.00313846
150.00   3.67204960   0.00326741
152.00   3.66593169   0.00339984
154.00   3.65973281   0.00353580
156.00   3.65345298   0.00367533
158.00   3.64709218   0.00381849
160.00   3.64065044   0.00396531
162.00   3.63412774   0.00411585
164.00   3.62752409   0.00427016
166.00   3.62083950   0.00442827
168.00   3.61407396   0.00459024
170.00   3.60722748   0.00475610
172.00   3.60030006   0.00492592
174.00   3.59329171   0.00509972
176.00   3.58620243   0.00527757
178.00   3.57903222   0.00545951
180.00   3.57178109   0.00564557
182.00   3.56444903   0.00583582
184.00   3.55703605   0.00603029
186.00   3.54954216   0.00622903
188.00   3.54196736   0.00643209
190.00   3.53431165   0.00663952
192.00   3.52657503   0.00685136
194.00   3.51875751   0.00706765
196.00   3.51085909   0.00728845
198.00   3.50287978   0.00751379
200.00   3.49481958   0.00774373
202.00   3.48667848   0.00797832
204.00   3.47845650   0.00821759
206.00   3.47015365   0.00846160
208.00   3.46176991   0.00871039
210.00   3.45330530   0.00896400
212.00   3.44475982   0.00922249
214.00   3.43613347   0.00948590
216.00   3.42742627   0.00975428
218.00   3.41863820   0.01002767
220.00   3.40976928   0.01030612
222.00   3.40081950   0.01058967
224.00   3.39178888   0.01087838
226.00   3.38267742   0.01117228
228.00   3.37348512   0.01147143
230.00   3.36421198   0.01177586
232.00   3.35485801   0.01208564
234.00   3.34542322   0.01240079
236.00   3.33590760   0.01272138
238.00   3.32631116   0.01304744
240.00   3.31663391   0.01337902
242.00   3.30687585   0.01371617
244.00   3.29703698   0.01405894
246.00   3.28711731   0.01440736
248.00   3.27711685   0.01476149
250.00   3.26703559   0.01512137
252.00   3.25687354   0.01548706
254.00   3.24663071   0.01585858
256.00   3.23630710   0.01623600
258.00   3.22590271   0.01661936
260.00   3.21541755   0.01700870
262.00   3.20485163   0.01740407
264.00   3.19420495   0.01780551
266.00   3.18347751   0.01821308
268.00   3.17266932   0.01862682
270.00   3.16178038   0.01904677
272.00   3.15081069   0.01947298
274.00   3.13976028   0.01990550
276.00   3.12862912   0.02034437
278.00   3.11741724   0.02078964
280.00   3.10612464   0.02124136
282.00   3.09475132   0.02169957
284.00   3.08329728   0.02216431
286.00   3.07176254   0.02263564
288.00   3.06014710   0.02311360
290.00   3.04845095   0.02359824
292.00   3.03667411   0.02408960
294.00   3.02481659   0.02458772
296.00   3.01287838   0.02509267
298.00   3.00085950   0.02560447
300.00   2.98875994   0.02612318
302.00   2.97657972   0.02664884
304.00   2.96431884   0.02718150
306.00   2.95197730   0.02772120
308.00   2.93955511   0.02826800
310.00   2.92705227   0.02882194
312.00   2.91446879   0.02938305
314.00   2.90180468   0.02995140
316.00   2.88905994   0.03052702
318.00   2.87623458   0.03110996
320.00   2.86332860   0.03170027
322.00   2.85034201   0.03229800
324.00   2.83727481   0.03290318
326.00   2.82412701   0.03351587
328.00   2.81089862   0.03413611
330.00   2.79758964   0.03476395
332.00   2.78420007   0.03539944
334.00   2.77072993   0.03604261
336.00   2.75717921   0.03669352
338.00   2.74354793   0.03735221
340.00   2.72983609   0.03801873
342.00   2.71604370   0.03869312
344.00   2.70217076   0.03937543
346.00   2.68821728   0.04006570
348.00   2.67418326   0.04076399
350.00   2.66006871   0.04147034
352.00   2.64587364   0.04218479
354.00   2.63159806   0.04290739
356.00   2.61724196   0.04363818
358.00   2.60280536   0.04437722
360.00   2.58828826   0.04512455
362.00   2.57369066   0.04588020
364.00   2.55901259   0.04664424
366.00   2.54425403   0.04741670
368.00   2.52941500   0.04819763
370.00   2.51449551   0.04898708
372.00   2.49949555   0.04978510
374.00   2.48441515   0.05059172
376.00   2.46925429   0.05140700
378.00   2.45401300   0.05223097
380.00   2.43869127   0.05306370
382.00   2.42328912   0.05390521
384.00   2.40780655   0.05475557
386.00   2.39224356   0.05561481
388.00   2.37660017   0.05648297
390.00   2.36087638   0.05736012
392.00   2.34507219   0.05824629
394.00   2.32918762   0.05914152
396.00   2.31322268   0.06004586
398.00   2.29717736   0.06095937
400.00   2.28105167   0.06188208
402.00   2.26484563   0.06281404
404.00   2.24855924   0.06375530
406.00   2.23219250   0.06470590
408.00   2.21574543   0.06566589
410.00   2.19921803   0.06663531
412.00   2.18261031   0.06761421
414.00   2.16592227   0.06860264
416.00   2.14915392   0.06960064
418.00   2.13230528   0.07060826
420.00   2.11537634   0.07162553
422.00   2.09836712   0.07265252
424.00   2.08127761   0.07368926
426.00   2.06410784   0.07473580
428.00   2.04685781   0.07579219
430.00   2.02952752   0.07685847
432.00   2.01211698   0.07793468
434.00   1.99462620   0.07902088
436.00   1.97705519   0.08011710
438.00   1.95940395   0.08122340
440.00   1.94167250   0.08233982
442.00   1.92386084   0.08346641
444.00   1.90596897   0.08460321
446.00   1.88799691   0.08575026
448.00   1.86994467   0.08690761
450.00   1.85181224   0.08807532
452.00   1.83359965   0.08925341
454.00   1.81530689   0.09044195
456.00   1.79693398   0.09164097
458.00   1.77848093   0.09285052
460.00   1.75994773   0.09407065
462.00   1.74133440   0.09530140
464.00   1.72264096   0.09654282
466.00   1.70386739   0.09779495
468.00   1.68501373   0.09905783
470.00   1.66607996   0.10033153
472.00   1.64706610   0.10161607
474.00   1.62797217   0.10291150
476.00   1.60879816   0.10421788
478.00   1.58954408   0.10553524
480.00   1.57020995   0.10686364
482.00   1.55079577   0.10820311
484.00   1.53130156   0.10955371
486.00   1.51172731   0.11091547
488.00   1.49207304   0.11228844
490.00   1.47233875   0.11367268
492.00   1.45252446   0.11506822
494.00   1.43263018   0.11647511
496.00   1.41265591   0.11789340
498.00   1.39260165   0.11932312
500.00   1.37246743   0.12076434
502.00   1.35225325   0.12221708
504.00   1.33195911   0.12368140
506.00   1.31158503   0.12515735
508.00   1.29113101   0.12664496
510.00   1.27059707   0.12814429
512.00   1.24998321   0.12965537
514.00   1.22928944   0.13117826
516.00   1.20851577   0.13271300
518.00   1.18766221   0.13425964
520.00   1.16672878   0.13581821
522.00   1.14571546   0.13738877
524.00   1.12462229   0.13897136
526.00   1.10344926   0.14056603
528.00   1.08219639   0.14217282
530.00   1.06086368   0.14379178
532.00   1.03945115   0.14542294
534.00   1.01795880   0.14706637
536.00   0.99638664   0.14872210
538.00   0.97473469   0.15039018
540.00   0.95300294   0.15207065
542.00   0.93119142   0.15376356
544.00   0.90930013   0.15546895
546.00   0.88732907   0.15718687
548.00   0.86527827   0.15891737
550.00   0.84314773   0.16066049
552.00   0.82093745   0.16241627
554.00   0.79864745   0.16418476
556.00   0.77627774   0.16596600
558.00   0.75382833   0.16776005
560.00   0.73129923   0.16956694
562.00   0.70869044   0.17138673
564.00   0.68600198   0.17321945
566.00   0.66323386   0.17506515
568.00   0.64038608   0.17692387
570.00   0.61745866   0.17879567
572.00   0.59445161   0.18068058
574.00   0.57136493   0.18257866
576.00   0.54819864   0.18448994
578.00   0.52495275   0.18641447
580.00   0.50162726   0.18835230
582.00   0.47822220   0.19030348
584.00   0.45473755   0.19226804
586.00   0.43117335   0.19424603
588.00   0.40752959   0.19623750
590.00   0.38380630   0.19824249
592.00   0.36000346   0.20026104
594.00   0.33612111   0.20229321
596.00   0.31215925   0.20433904
598.00   0.28811789   0.20639857
600.00   0.26399703   0.20847185
602.00   0.23979670   0.21055891
604.00   0.21551690   0.21265982
606.00   0.19115764   0.21477461
608.00   0.16671893   0.21690332
610.00   0.14220078   0.21904601
612.00   0.11760320   0.22120271
614.00   0.09292621   0.22337347
616.00   0.06816982   0.22555835
618.00   0.04333403   0.22775737
620.00   0.01841885   0.22997059
622.00  -0.00657570   0.23219805
624.00  -0.03164961   0.23443979
626.00  -0.05680287   0.23669587
628.00  -0.08203547   0.23896632
630.00  -0.10734740   0.24125120
632.00  -0.13273866   0.24355054
634.00  -0.15820921   0.24586439
636.00  -0.18375907   0.24819279
638.00  -0.20938821   0.25053579
640.00  -0.23509663   0.25289344
642.00  -0.26088431   0.25526578
644.00  -0.28675124   0.25765285
646.00  -0.31269741   0.26005471
648.00  -0.33872281   0.26247138
650.00  -0.36482743   0.26490292
652.00  -0.39101126   0.26734938
654.00  -0.41727428   0.26981080
656.00  -0.44361649   0.27228721
658.00  -0.47003787   0.27477868
660.00  -0.49653841   0.27728523
662.00  -0.52311810   0.27980693
664.00  -0.54977693   0.28234380
666.00  -0.57651489   0.28489590
668.00  -0.60333196   0.28746327
670.00  -0.63022814   0.29004595
672.00  -0.65720341   0.29264400
674.00  -0.68425776   0.29525745
676.00  -0.71139118   0.29788634
678.00  -0.73860365   0.30053073
680.00  -0.76589517   0.30319066
682.00  -0.79326572   0.30586618
684.00  -0.82071530   0.30855731
686.00  -0.84824388   0.31126412
688.00  -0.87585147   0.31398665
690.00  -0.90353804   0.31672494
692.00  -0.93130358   0.31947903
694.00  -0.95914808   0.32224897
696.00  -0.98707154   0.32503481
698.00  -1.01507393   0.32783658
700.00  -1.04315525   0.33065434
702.00  -1.07131548   0.33348812
704.00  -1.09955461   0.33633798
706.00  -1.12787263   0.33920395
708.00  -1.15626953   0.34208608
710.00  -1.18474529   0.34498442
712.00  -1.21329991   0.34789901
714.00  -1.24193336   0.35082989
716.00  -1.27064565   0.35377711
718.00  -1.29943674   0.35674071
720.00  -1.32830664   0.35972074
722.00  -1.35725533   0.36271724
724.00  -1.38628280   0.36573026
726.00  -1.41538904   0.36875983
728.00  -1.44457402   0.37180601
730.00  -1.47383775   0.37486884
732.00  -1.50318020   0.37794836
734.00  -1.53260137   0.38104462
736.00  -1.56210124   0.38415766
738.00  -1.59167980   0.38728752
740.00  -1.62133703   0.39043425
742.00  -1.65107293   0.39359790
744.00  -1.68088748   0.39677850
746.00  -1.71078067   0.39997611
748.00  -1.74075248   0.40319076
750.00  -1.77080291   0.40642251
752.00  -1.80093193   0.40967138
754.00  -1.83113954   0.41293744
756.00  -1.86142572   0.41622072
758.00  -1.89179047   0.41952127
760.00  -1.92223376   0.42283912
762.00  -1.95275558   0.42617434
764.00  -1.98335593   0.42952695
766.00  -2.01403478   0.43289700
768.00  -2.04479212   0.43628454
770.00  -2.07562795   0.43968962
772.00  -2.10654224   0.44311226
774.00  -2.13753499   0.44655253
776.00  -2.16860618   0.45001046
778.00  -2.19975580   0.45348610
780.00  -2.23098383   0.45697949
782.00  -2.26229026   0.46049067
784.00  -2.29367508   0.46401970
786.00  -2.32513827   0.46756660
788.00  -2.35667983   0.47113144
790.00  -2.38829973   0.47471424
792.00  -2.41999796   0.47831506
794.00  -2.45177451   0.48193394
796.00  -2.48362936   0.48557092
798.00  -2.51556251   0.48922604
800.00  -2.54757394   0.49289936
802.00  -2.57966363   0.49659091
804.00  -2.61183157   0.50030074
806.00  -2.64407775   0.50402889
808.00  -2.67640214   0.50777540
810.00  -2.70880475   0.51154032
812.00  -2.74128556   0.51532370
814.00  -2.77384454   0.51912557
816.00  -2.80648169   0.52294599
818.00  -2.83919699   0.52678499
820.00  -2.87199044   0.53064261
822.00  -2.90486200   0.53451891
824.00  -2.93781168   0.53841392
826.00  -2.97083945   0.54232769
828.00  -3.00394531   0.54626027
830.00  -3.03712923   0.55021169
832.00  -3.07039121   0.55418200
834.00  -3.10373122   0.55817124
836.00  -3.13714926   0.56217946
838.00  -3.17064531   0.56620670
840.00  -3.20421936   0.57025301
842.00  -3.23787139   0.57431842
844.00  -3.27160138   0.57840298
846.00  -3.30540933   0.58250674
848.00  -3.33929522   0.58662974
850.00  -3.37325903   0.59077201
852.00  -3.40730075   0.59493362
854.00  -3.44142036   0.59911459
856.00  -3.47561785   0.60331498
858.00  -3.50989321   0.60753482
860.00  -3.54424642   0.61177415
862.00  -3.57867746   0.61603304
864.00  -3.61318633   0.62031150
866.00  -3.64777300   0.62460960
868.00  -3.68243746   0.62892737
870.00  -3.71717970   0.63326486
872.00  -3.75199970   0.63762210
874.00  -3.78689744   0.64199915
876.00  -3.82187292   0.64639604
878.00  -3.85692611   0.65081283
880.00  -3.89205700   0.65524954
882.00  -3.92726558   0.65970624
884.00  -3.96255183   0.66418295
886.00  -3.99791574   0.66867972
888.00  -4.03335729   0.67319660
890.00  -4.06887646   0.67773363
892.00  -4.10447325   0.68229085
894.00  -4.14014763   0.68686830
896.00  -4.17589958   0.69146604
898.00  -4.21172911   0.69608409
900.00  -4.24763618   0.70072251
902.00  -4.28362078   0.70538134
904.00  -4.31968291   0.71006062
906.00  -4.35582253   0.71476040
908.00  -4.39203965   0.71948071
910.00  -4.42833423   0.72422160
912.00  -4.46470628   0.72898311
914.00  -4.50115576   0.73376529
916.00  -4.53768267   0.73856818
918.00  -4.57428698   0.74339183
920.00  -4.61096869   0.74823627
922.00  -4.64772778   0.75310154
924.00  -4.68456423   0.75798770
926.00  -4.72147803   0.76289479
928.00  -4.75846916   0.76782284
930.00  -4.79553760   0.77277190
932.00  -4.83268334   0.77774201
934.00  -4.86990637   0.78273322
936.00  -4.90720666   0.78774557
938.00  -4.94458420   0.79277910
940.00  -4.98203898   0.79783386
942.00  -5.01957098   0.80290988
944.00  -5.05718018   0.80800721
946.00  -5.09486657   0.81312590
948.00  -5.13263012   0.81826598
950.00  -5.17047084   0.82342751
952.00  -5.20838869   0.82861051
954.00  -5.24638366   0.83381504
956.00  -5.28445574   0.83904113
958.00  -5.32260491   0.84428884
960.00  -5.36083115   0.84955819
962.00  -5.39913445   0.85484925
964.00  -5.43751480   0.86016204
966.00  -5.47597216   0.86549661
968.00  -5.51450654   0.87085300
970.00  -5.55311790   0.87623126
972.00  -5.59180624   0.88163143
974.00  -5.63057154   0.88705355
976.00  -5.66941378   0.89249766
978.00  -5.70833294   0.89796381
980.00  -5.74732902   0.90345203
982.00  -5.78640199   0.90896238
984.00  -5.82555183   0.91449489
986.00  -5.86477853   0.92004961
988.00  -5.90408207   0.92562658
990.00  -5.94346244   0.93122584
992.00  -5.98291961   0.93684743
994.00  -6.02245358   0.94249140
996.00  -6.06206432   0.94815778
998.00  -6.10175182   0.95384663
1000.00  -6.14151606   0.95955798
1002.00  -6.18135703   0.96529188
1004.00  -6.22127470   0.97104836
1006.00  -6.26126906   0.97682747
1008.00  -6.30134009   0.98262926
1010.00  -6.34148778   0.98845376
1012.00  -6.38171211   0.99430102
1014.00  -6.42201306   1.00017108
1016.00  -6.46239061   1.00606398
1018.00  -6.50284476   1.01197977
1020.00  -6.54337547   1.01791848
1022.00  -6.58398273   1.02388016
1024.00  -6.62466653   1.02986485
1026.00  -6.66542684   1.03587259
1028.00  -6.70626366   1.04190343
1030.00  -6.74717696   1.04795741
1032.00  -6.78816673   1.05403456
1034.00  -6.82923294   1.06013494
1036.00  -6.87037559   1.06625858
1038.00  -6.91159465   1.07240552
1040.00  -6.95289010   1.07857582
1042.00  -6.99426193   1.08476950
1044.00  -7.03571013   1.09098661
1046.00  -7.07723466   1.09722720
1048.00  -7.11883552   1.10349131
1050.00  -7.16051269   1.10977897
1052.00  -7.20226615   1.11609023
1054.00  -7.24409588   1.12242514
1056.00  -7.28600187   1.12878373
1058.00  -7.32798409   1.13516604
1060.00  -7.37004253   1.14157212
1062.00  -7.41217717   1.14800201
1064.00  -7.45438799   1.15445575
1066.00  -7.49667498   1.16093339
1068.00  -7.53903812   1.16743496
1070.00  -7.58147738   1.17396050
1072.00  -7.62399276   1.18051007
1074.00  -7.66658423   1.18708370
1076.00  -7.70925177   1.19368142
1078.00  -7.75199537   1.20030329
1080.00  -7.79481501   1.20694935
1082.00  -7.83771067   1.21361964
1084.00  -7.88068233   1.22031419
1086.00  -7.92372997   1.22703305
1088.00  -7.96685358   1.23377627
1090.00  -8.01005314   1.24054388
1092.00  -8.05332863   1.24733593
1094.00  -8.09668003   1.25415245
1096.00  -8.14010732   1.26099349
1098.00  -8.18361048   1.26785910
1100.00  -8.22718950   1.27474930
1102.00  -8.27084435   1.28166415
1104.00  -8.31457503   1.28860368
1106.00  -8.35838150   1.29556794
1108.00  -8.40226376   1.30255697
1110.00  -8.44622177   1.30957081
1112.00  -8.49025554   1.31660950
1114.00  -8.53436502   1.32367308
1116.00  -8.57855022   1.33076160
1118.00  -8.62281110   1.33787509
1120.00  -8.66714765   1.34501360
1122.00  -8.71155985   1.35217716
1124.00  -8.75604769   1.35936583
1126.00  -8.80061113   1.36657963
1128.00  -8.84525017   1.37381862
1130.00  -8.88996479   1.38108283
1132.00  -8.93475496   1.38837231
1134.00  -8.97962067   1.39568709
1136.00  -9.02456189   1.40302722
1138.00  -9.06957862   1.41039273
1140.00  -9.11467082   1.41778368
1142.00  -9.15983849   1.42520010
1144.00  -9.20508160   1.43264203
1146.00  -9.25040013   1.44010951
1148.00  -9.29579406   1.44760259
1150.00  -9.34126338   1.45512130
1152.00  -9.38680807   1.46266569
1154.00  -9.43242810   1.47023580
1156.00  -9.47812345   1.47783166
1158.00  -9.52389412   1.48545333
1160.00  -9.56974007   1.49310083
1162.00  -9.61566129   1.50077422
1164.00  -9.66165776   1.50847353
1166.00  -9.70772946   1.51619881
1168.00  -9.75387637   1.52395009
1170.00  -9.80009847   1.53172741
1172.00  -9.84639574   1.53953082
1174.00  -9.89276817   1.54736036
1176.00  -9.93921572   1.55521607
1178.00  -9.98573839   1.56309798
1180.00 -10.03233616   1.57100615
1182.00 -10.07900899   1.57894061
1184.00 -10.12575688   1.58690140
1186.00 -10.17257980   1.59488856
1188.00 -10.21947774   1.60290214
1190.00 -10.26645067   1.61094216
1192.00 -10.31349858   1.61900869
1194.00 -10.36062144   1.62710175
1196.00 -10.40781923   1.63522138
1198.00 -10.45509194   1.64336764
1200.00 -10.50243955   1.65154055
1202.00 -10.54986203   1.65974016
1204.00 -10.59735936   1.66796650
1206.00 -10.64493153   1.67621963
1208.00 -10.69257852   1.68449958
1210.00 -10.74030030   1.69280639
1212.00 -10.78809686   1.70114010
1214.00 -10.83596817   1.70950075
1216.00 -10.88391421   1.71788838
1218.00 -10.93193497   1.72630304
1220.00 -10.98003042   1.73474476
1222.00 -11.02820055   1.74321358
1224.00 -11.07644533   1.75170955
1226.00 -11.12476475   1.76023270
1228.00 -11.17315878   1.76878308
1230.00 -11.22162740   1.77736072
1232.00 -11.27017059   1.78596567
1234.00 -11.31878833   1.79459796
1236.00 -11.36748061   1.80325764
1238.00 -11.41624740   1.81194475
1240.00 -11.46508867   1.82065933
1242.00 -11.51400442   1.82940141
1244.00 -11.56299462   1.83817104
1246.00 -11.61205924   1.84696825
1248.00 -11.66119828   1.85579310
1250.00 -11.71041170   1.86464561
1252.00 -11.75969949   1.87352584
1254.00 -11.80906162   1.88243381
1256.00 -11.85849808   1.89136957
1258.00 -11.90800885   1.90033315
1260.00 -11.95759390   1.90932461
1262.00 -12.00725321   1.91834398
1264.00 -12.05698676   1.92739129
1266.00 -12.10679454   1.93646660
1268.00 -12.15667652   1.94556993
1270.00 -12.20663267   1.95470133
1272.00 -12.25666299   1.96386084
1274.00 -12.30676744   1.97304850
1276.00 -12.35694601   1.98226435
1278.00 -12.40719867   1.99150843
1280.00 -12.45752541   2.00078078
1282.00 -12.50792620   2.01008144
1284.00 -12.55840103   2.01941044
1286.00 -12.60894986   2.02876784
1288.00 -12.65957269   2.03815366
1290.00 -12.71026948   2.04756795
1292.00 -12.76104022   2.05701075
1294.00 -12.81188489   2.06648209
1296.00 -12.86280347   2.07598202
1298.00 -12.91379592   2.08551058
1300.00 -12.96486224   2.09506781
1302.00 -13.01600240   2.10465374
1304.00 -13.06721638   2.11426842
1306.00 -13.11850416   2.12391189
1308.00 -13.16986571   2.13358418
1310.00 -13.22130102   2.14328534
1312.00 -13.27281007   2.15301540
1314.00 -13.32439282   2.16277440
1316.00 -13.37604927   2.17256239
1318.00 -13.42777939   2.18237940
1320.00 -13.47958315   2.19222548
1322.00 -13.53146054   2.20210065
1324.00 -13.58341153   2.21200497
1326.00 -13.63543610   2.22193847
1328.00 -13.68753424   2.23190120
1330.00 -13.73970591   2.24189318
1332.00 -13.79195110   2.25191446
1334.00 -13.84426979   2.26196508
1336.00 -13.89666195   2.27204507
1338.00 -13.94912756   2.28215449
1340.00 -14.00166660   2.29229336
1342.00 -14.05427905   2.30246173
1344.00 -14.10696488   2.31265963
1346.00 -14.15972408   2.32288711
1348.00 -14.21255662   2.33314420
1350.00 -14.26546248   2.34343095
1352.00 -14.31844163   2.35374739
1354.00 -14.37149406   2.36409356
1356.00 -14.42461975   2.37446950
1358.00 -14.47781867   2.38487525
1360.00 -14.53109079   2.39531084
1362.00 -14.58443610   2.40577633
1364.00 -14.63785458   2.41627174
1366.00 -14.69134620   2.42679712
1368.00 -14.74491094   2.43735251
1370.00 -14.79854878   2.44793794
1372.00 -14.85225969   2.45855345
1374.00 -14.90604366   2.46919908
1376.00 -14.95990065   2.47987487
1378.00 -15.01383066   2.49058087
1380.00 -15.06783365   2.50131710
1382.00 -15.12190960   2.51208361
1384.00 -15.17605850   2.52288044
1386.00 -15.23028031   2.53370762
1388.00 -15.28457502   2.54456520
1390.00 -15.33894260   2.55545321
1392.00 -15.39338304   2.56637169
1394.00 -15.44789630   2.57732068
1396.00 -15.50248236   2.58830022
1398.00 -15.55714121   2.59931035
1400.00 -15.61187282   2.61035111
1402.00 -15.66667717   2.62142253
1404.00 -15.72155423   2.63252465
1406.00 -15.77650398   2.64365752
1408.00 -15.83152640   2.65482117
1410.00 -15.88662146   2.66601563
1412.00 -15.94178915   2.67724096
1414.00 -15.99702944   2.68849718
1416.00 -16.05234231   2.69978434
1418.00 -16.10772773   2.71110248
1420.00 -16.16318569   2.72245162
1422.00 -16.21871615   2.73383182
1424.00 -16.27431909   2.74524310
1426.00 -16.32999450   2.75668551
1428.00 -16.38574235   2.76815909
1430.00 -16.44156261   2.77966388
1432.00 -16.49745527   2.79119990
1434.00 -16.55342029   2.80276721
1436.00 -16.60945767   2.81436584
1438.00 -16.66556736   2.82599582
1440.00 -16.72174936   2.83765720
1442.00 -16.77800363   2.84935002
1444.00 -16.83433016   2.86107430
1446.00 -16.89072891   2.87283010
1448.00 -16.94719987   2.88461745
1450.00 -17.00374302   2.89643638
1452.00 -17.06035833   2.90828694
1454.00 -17.11704577   2.92016916
1456.00 -17.17380533   2.93208309
1458.00 -17.23063697   2.94402875
1460.00 -17.28754068   2.95600619
1462.00 -17.34451644   2.96801545
1464.00 -17.40156421   2.98005656
1466.00 -17.45868398   2.99212956
1468.00 -17.51587572   3.00423449
1470.00 -17.57313941   3.01637139
1472.00 -17.63047502   3.02854029
1474.00 -17.68788254   3.04074124
1476.00 -17.74536193   3.05297426
1478.00 -17.80291317   3.06523941
1480.00 -17.86053625   3.07753671
1482.00 -17.91823113   3.08986621
1484.00 -17.97599779   3.10222794
1486.00 -18.03383621   3.11462195
1488.00 -18.09174637   3.12704826
1490.00 -18.14972823   3.13950691
1492.00 -18.20778178   3.15199795
1494.00 -18.26590700   3.16452141
1496.00 -18.32410385   3.17707733
1498.00 -18.38237232   3.18966574
1500.00 -18.44071238   3.20228669
1502.00 -18.49912400   3.21494021
1504.00 -18.55760717   3.22762634
1506.00 -18.61616185   3.24034512
1508.00 -18.67478803   3.25309658
1510.00 -18.73348568   3.26588076
1512.00 -18.79225478   3.27869770
1514.00 -18.85109530   3.29154744
1516.00 -18.91000721   3.30443001
1518.00 -18.96899050   3.31734545
1520.00 -19.02804514   3.33029381
1522.00 -19.08717110   3.34327511
1524.00 -19.14636836   3.35628939
1526.00 -19.20563690   3.36933669
1528.00 -19.26497668   3.38241706
1530.00 -19.32438770   3.39553051
1532.00 -19.38386992   3.40867710
1534.00 -19.44342332   3.42185686
1536.00 -19.50304787   3.43506983
1538.00 -19.56274355   3.44831605
1540.00 -19.62251033   3.46159554
1542.00 -19.68234820   3.47490835
1544.00 -19.74225712   3.48825452
1546.00 -19.80223707   3.50163408
1548.00 -19.86228803   3.51504708
1550.00 -19.92240997   3.52849354
1552.00 -19.98260287   3.54197350
1554.00 -20.04286669   3.55548701
1556.00 -20.10320143   3.56903409
1558.00 -20.16360705   3.58261479
1560.00 -20.22408353   3.59622914
1562.00 -20.28463084   3.60987718
1564.00 -20.34524896   3.62355895
1566.00 -20.40593786   3.63727447
1568.00 -20.46669752   3.65102380
1570.00 -20.52752792   3.66480697
1572.00 -20.58842902   3.67862401
1574.00 -20.64940081   3.69247496
1576.00 -20.71044326   3.70635985
1578.00 -20.77155634   3.72027873
1580.00 -20.83274003   3.73423163
1582.00 -20.89399430   3.74821859
1584.00 -20.95531913   3.76223964
1586.00 -21.01671450   3.77629482
1588.00 -21.07818037   3.79038417
1590.00 -21.13971673   3.80450772
1592.00 -21.20132355   3.81866551
1594.00 -21.26300079   3.83285758
1596.00 -21.32474845   3.84708396
1598.00 -21.38656649   3.86134469
1600.00 -21.44845489   3.87563981
1602.00 -21.51041361   3.88996935
1604.00 -21.57244265   3.90433335
1606.00 -21.63454197   3.91873185
1608.00 -21.69671154   3.93316488
1610.00 -21.75895134   3.94763247
1612.00 -21.82126135   3.96213468
1614.00 -21.88364153   3.97667152
1616.00 -21.94609188   3.99124304
1618.00 -22.00861235   4.00584927
1620.00 -22.07120292   4.02049026
1622.00 -22.13386357   4.03516603
1624.00 -22.19659427   4.04987662
1626.00 -22.25939500   4.06462207
1628.00 -22.32226573   4.07940241
1630.00 -22.38520644   4.09421769
1632.00 -22.44821709   4.10906793
1634.00 -22.51129767   4.12395318
1636.00 -22.57444815   4.13887347
1638.00 -22.63766850   4.15382883
1640.00 -22.70095869   4.16881930
1642.00 -22.76431871   4.18384492
1644.00 -22.82774852   4.19890572
1646.00 -22.89124810   4.21400174
1648.00 -22.95481743   4.22913302
1650.00 -23.01845647   4.24429959
1652.00 -23.08216521   4.25950148
1654.00 -23.14594361   4.27473874
1656.00 -23.20979165   4.29001140
1658.00 -23.27370930   4.30531949
1660.00 -23.33769654   4.32066305
1662.00 -23.40175334   4.33604212
1664.00 -23.46587968   4.35145673
1666.00 -23.53007553   4.36690691
1668.00 -23.59434086   4.38239271
1670.00 -23.65867565   4.39791416
1672.00 -23.72307987   4.41347129
1674.00 -23.78755350   4.42906415
1676.00 -23.85209650   4.44469275
1678.00 -23.91670886   4.46035715
1680.00 -23.98139054   4.47605738
1682.00 -24.04614153   4.49179347
1684.00 -24.11096179   4.50756546
1686.00 -24.17585129   4.52337338
1688.00 -24.24081002   4.53921727
1690.00 -24.30583794   4.55509716
1692.00 -24.37093504   4.57101309
1694.00 -24.43610127   4.58696510
1696.00 -24.50133662   4.60295322
1698.00 -24.56664106   4.61897748
1700.00 -24.63201456   4.63503793
1702.00 -24.69745710   4.65113459
1704.00 -24.76296865   4.66726750
1706.00 -24.82854918   4.68343670
1708.00 -24.89419867   4.69964222
1710.00 -24.95991709   4.71588410
1712.00 -25.02570441   4.73216237
1714.00 -25.09156061   4.74847707
1716.00 -25.15748566   4.76482823
1718.00 -25.22347954   4.78121589
1720.00 -25.28954221   4.79764009
1722.00 -25.35567365   4.81410085
1724.00 -25.42187384   4.83059821
1726.00 -25.48814274   4.84713221
1728.00 -25.55448033   4.86370289
1730.00 -25.62088659   4.88031027
1732.00 -25.68736148   4.89695439
1734.00 -25.75390499   4.91363529
1736.00 -25.82051707   4.93035301
1738.00 -25.88719771   4.94710757
1740.00 -25.95394688   4.96389902
1742.00 -26.02076455   4.98072738
1744.00 -26.08765070   4.99759269
1746.00 -26.15460530   5.01449499
1748.00 -26.22162831   5.03143431
1750.00 -26.28871972   5.04841069
1752.00 -26.35587950   5.06542416
1754.00 -26.42310762   5.08247475
1756.00 -26.49040405   5.09956251
1758.00 -26.55776876   5.11668746
1760.00 -26.62520174   5.13384963
1762.00 -26.69270294   5.15104908
1764.00 -26.76027235   5.16828582
1766.00 -26.82790994   5.18555989
1768.00 -26.89561568   5.20287133
1770.00 -26.96338954   5.22022017
1772.00 -27.03123149   5.23760645
1774.00 -27.09914151   5.25503020
1776.00 -27.16711958   5.27249145
1778.00 -27.23516565   5.28999024
1780.00 -27.30327971   5.30752661
1782.00 -27.37146173   5.32510059
1784.00 -27.43971169   5.34271220
1786.00 -27.50802954   5.36036150
1788.00 -27.57641527   5.37804850
1790.00 -27.64486885   5.39577325
1792.00 -27.71339025   5.41353578
1794.00 -27.78197945   5.43133612
1796.00 -27.85063641   5.44917431
1798.00 -27.91936111   5.46705039
1800.00 -27.98815352   5.48496437
1802.00 -28.05701362   5.50291631
1804.00 -28.12594137   5.52090623
1806.00 -28.19493675   5.53893417
1808.00 -28.26399972   5.55700016
1810.00 -28.33313028   5.57510424
1812.00 -28.40232837   5.59324644
1814.00 -28.47159399   5.61142679
1816.00 -28.54092709   5.62964533
1818.00 -28.61032766   5.64790209
1820.00 -28.67979566   5.66619710
1822.00 -28.74933106   5.68453041
1824.00 -28.81893385   5.70290204
1826.00 -28.88860398   5.72131202
1828.00 -28.95834144   5.73976040
1830.00 -29.02814619   5.75824720
1832.00 -29.09801821   5.77677245
1834.00 -29.16795747   5.79533620
1836.00 -29.23796393   5.81393848
1838.00 -29.30803759   5.83257931
1840.00 -29.37817839   5.85125873
1842.00 -29.44838632   5.86997678
1844.00 -29.51866136   5.88873349
1846.00 -29.58900346   5.90752890
1848.00 -29.65941260   5.92636303
1850.00 -29.72988876   5.94523592
1852.00 -29.80043191   5.96414760
1854.00 -29.87104201   5.98309811
1856.00 -29.94171904   6.00208749
1858.00 -30.01246298   6.02111575
1860.00 -30.08327379   6.04018294
1862.00 -30.15415144   6.05928909
1864.00 -30.22509591   6.07843424
1866.00 -30.29610717   6.09761841
1868.00 -30.36718519   6.11684164
1870.00 -30.43832994   6.13610397
1872.00 -30.50954140   6.15540542
1874.00 -30.58081953   6.17474603
1876.00 -30.65216431   6.19412584
1878.00 -30.72357571   6.21354487
1880.00 -30.79505369   6.23300316
1882.00 -30.86659824   6.25250074
1884.00 -30.93820932   6.27203765
1886.00 -31.00988691   6.29161391
1888.00 -31.08163097   6.31122957
1890.00 -31.15344148   6.33088465
1892.00 -31.22531841   6.35057919
1894.00 -31.29726173   6.37031321
1896.00 -31.36927141   6.39008676
1898.00 -31.44134743   6.40989987
1900.00 -31.51348975   6.42975256
1902.00 -31.58569834   6.44964488
1904.00 -31.65797319   6.46957685
1906.00 -31.73031425   6.48954850
1908.00 -31.80272150   6.50955988
1910.00 -31.87519491   6.52961101
1912.00 -31.94773445   6.54970192
1914.00 -32.02034010   6.56983265
1916.00 -32.09301183   6.59000323
1918.00 -32.16574959   6.61021370
1920.00 -32.23855338   6.63046408
1922.00 -32.31142315   6.65075440
1924.00 -32.38435889   6.67108471
1926.00 -32.45736055   6.69145503
1928.00 -32.53042812   6.71186540
1930.00 -32.60356156   6.73231584
1932.00 -32.67676084   6.75280639
1934.00 -32.75002593   6.77333709
1936.00 -32.82335681   6.79390796
1938.00 -32.89675345   6.81451904
1940.00 -32.97021582   6.83517036
1942.00 -33.04374388   6.85586195
1944.00 -33.11733762   6.87659385
1946.00 -33.19099699   6.89736608
1948.00 -33.26472198   6.91817868
1950.00 -33.33851255   6.93903168
1952.00 -33.41236867   6.95992512
1954.00 -33.48629031   6.98085902
1956.00 -33.56027745   7.00183341
1958.00 -33.63433005   7.02284834
1960.00 -33.70844809   7.04390383
1962.00 -33.78263154   7.06499991
1964.00 -33.85688036   7.08613662
1966.00 -33.93119453   7.10731398
1968.00 -34.00557403   7.12853204
1970.00 -34.08001881   7.14979081
1972.00 -34.15452885   7.17109034
1974.00 -34.22910412   7.19243065
1976.00 -34.30374459   7.21381179
1978.00 -34.37845024   7.23523377
1980.00 -34.45322102   7.25669663
1982.00 -34.52805692   7.27820040
1984.00 -34.60295791   7.29974512
1986.00 -34.67792395   7.32133081
1988.00 -34.75295501   7.34295751
1990.00 -34.82805107   7.36462525
1992.00 -34.90321209   7.38633406
1994.00 -34.97843805   7.40808397
1996.00 -35.05372891   7.42987502
1998.00 -35.12908466   7.45170723
2000.00 -35.20450525   7.47358064
2002.00 -35.27999065   7.49549528
2004.00 -35.35554085   7.51745118
2006.00 -35.43115580   7.53944837
2008.00 -35.50683548   7.56148688
2010.00 -35.58257986   7.58356675
2012.00 -35.65838891   7.60568800
2014.00 -35.73426260   7.62785067
2016.00 -35.81020089   7.65005479
2018.00 -35.88620377   7.67230039
2020.00 -35.96227120   7.69458750
2022.00 -36.03840314   7.71691615
2024.00 -36.11459958   7.73928638
2026.00 -36.19086048   7.76169821
2028.00 -36.26718580   7.78415168
2030.00 -36.34357553   7.80664681
2032.00 -36.42002963   7.82918364
2034.00 -36.49654807   7.85176220
2036.00 -36.57313082   7.87438252
2038.00 -36.64977785   7.89704464
2040.00 -36.72648913   7.91974857
2042.00 -36.80326463   7.94249436
2044.00 -36.88010432   7.96528203
2046.00 -36.95700817   7.98811162
2048.00 -37.03397615   8.01098315
2050.00 -37.11100823   8.03389666
2052.00 -37.18810438   8.05685218
2054.00 -37.26526458   8.07984974
2056.00 -37.34248878   8.10288936
2058.00 -37.41977696   8.12597109
2060.00 -37.49712909   8.14909495
2062.00 -37.57454514   8.17226096
2064.00 -37.65202508   8.19546918
2066.00 -37.72956888   8.21871961
2068.00 -37.80717651   8.24201230
2070.00 -37.88484793   8.26534727
2072.00 -37.96258312   8.28872456
2074.00 -38.04038205   8.31214419
2076.00 -38.11824469   8.33560620
2078.00 -38.19617101   8.35911061
2080.00 -38.27416097   8.38265746
2082.00 -38.35221454   8.40624678
2084.00 -38.43033171   8.42987860
2086.00 -38.50851243   8.45355294
2088.00 -38.58675667   8.47726984
2090.00 -38.66506441   8.50102933
2092.00 -38.74343561   8.52483145
2094.00 -38.82187025   8.54867621
2096.00 -38.90036828   8.57256365
2098.00 -38.97892969   8.59649379
2100.00 -39.05755445   8.62046668
2102.00 -39.13624251   8.64448234
2104.00 -39.21499386   8.66854080
2106.00 -39.29380845   8.69264210
2108.00 -39.37268626   8.71678625
2110.00 -39.45162727   8.74097329
2112.00 -39.53063143   8.76520325
2114.00 -39.60969872   8.78947617
2116.00 -39.68882910   8.81379206
2118.00 -39.76802256   8.83815097
2120.00 -39.84727904   8.86255291
2122.00 -39.92659854   8.88699793
2124.00 -40.00598100   8.91148605
2126.00 -40.08542641   8.93601729
2128.00 -40.16493473   8.96059170
2130.00 -40.24450594   8.98520930
2132.00 -40.32413999   9.00987011
2134.00 -40.40383686   9.03457418
2136.00 -40.48359653   9.05932153
2138.00 -40.56341895   9.08411218
2140.00 -40.64330409   9.10894617
2142.00 -40.72325194   9.13382354
2144.00 -40.80326245   9.15874429
2146.00 -40.88333559   9.18370848
2148.00 -40.96347134   9.20871612
2150.00 -41.04366966   9.23376725
2152.00 -41.12393052   9.25886190
2154.00 -41.20425389   9.28400009
2156.00 -41.28463975   9.30918186
2158.00 -41.36508805   9.33440723
2160.00 -41.44559876   9.35967623
2162.00 -41.52617187   9.38498890
2164.00 -41.60680732   9.41034526
2166.00 -41.68750511   9.43574534
2168.00 -41.76826518   9.46118917
2170.00 -41.84908752   9.48667678
2172.00 -41.92997209   9.51220820
2174.00 -42.01091885   9.53778346
2176.00 -42.09192779   9.56340259
2178.00 -42.17299886   9.58906561
2180.00 -42.25413204   9.61477257
2182.00 -42.33532729   9.64052347
2184.00 -42.41658459   9.66631836
2186.00 -42.49790389   9.69215727
2188.00 -42.57928518   9.71804021
2190.00 -42.66072842   9.74396723
2192.00 -42.74223357   9.76993835
2194.00 -42.82380062   9.79595359
2196.00 -42.90542951   9.82201300
2198.00 -42.98712023   9.84811659
2200.00 -43.06887275   9.87426440
2202.00 -43.15068702   9.90045645
2204.00 -43.23256303   9.92669278
2206.00 -43.31450073   9.95297340
2208.00 -43.39650010   9.97929836
2210.00 -43.47856110  10.00566768
2212.00 -43.56068371  10.03208139
2214.00 -43.64286789  10.05853951
2216.00 -43.72511361  10.08504208
2218.00 -43.80742084  10.11158912
2220.00 -43.88978955  10.13818067
2222.00 -43.97221970  10.16481674
2224.00 -44.05471127  10.19149738
2226.00 -44.13726422  10.21822261
2228.00 -44.21987852  10.24499245
2230.00 -44.30255414  10.27180694
2232.00 -44.38529105  10.29866610
2234.00 -44.46808922  10.32556996
2236.00 -44.55094861  10.35251855
2238.00 -44.63386919  10.37951190
2240.00 -44.71685094  10.40655004
2242.00 -44.79989381  10.43363300
2244.00 -44.88299778  10.46076079
2246.00 -44.96616282  10.48793346
2248.00 -45.04938889  10.51515103
2250.00 -45.13267596  10.54241353
2252.00 -45.21602400  10.56972098
2254.00 -45.29943299  10.59707342
2256.00 -45.38290288  10.62447087
2258.00 -45.46643364  10.65191336
2260.00 -45.55002525  10.67940091
2262.00 -45.63367767  10.70693357
2264.00 -45.71739086  10.73451135
2266.00 -45.80116481  10.76213428
2268.00 -45.88499947  10.78980239
2270.00 -45.96889481  10.81751571
2272.00 -46.05285081  10.84527426
2274.00 -46.13686742  10.87307808
2276.00 -46.22094462  10.90092719
2278.00 -46.30508238  10.92882162
2280.00 -46.38928066  10.95676140
2282.00 -46.47353943  10.98474655
2284.00 -46.55785866  11.01277711
2286.00 -46.64223832  11.04085309
2288.00 -46.72667838  11.06897453
2290.00 -46.81117880  11.09714146
2292.00 -46.89573954  11.12535390
2294.00 -46.98036059  11.15361188
2296.00 -47.06504190  11.18191543
2298.00 -47.14978345  11.21026457
2300.00 -47.23458520  11.23865934
2302.00 -47.31944712  11.26709975
2304.00 -47.40436918  11.29558585
2306.00 -47.48935135  11.32411765
2308.00 -47.57439358  11.35269518
2310.00 -47.65949586  11.38131847
2312.00 -47.74465815  11.40998755
2314.00 -47.82988042  11.43870245
2316.00 -47.91516263  11.46746318
2318.00 -48.00050475  11.49626979
2320.00 -48.08590675  11.52512229
2322.00 -48.17136860  11.55402071
2324.00 -48.25689026  11.58296508
2326.00 -48.34247170  11.61195543
2328.00 -48.42811290  11.64099179
2330.00 -48.51381382  11.67007418
2332.00 -48.59957441  11.69920262
2334.00 -48.68539467  11.72837715
2336.00 -48.77127454  11.75759780
2338.00 -48.85721400  11.78686458
2340.00 -48.94321302  11.81617753
2342.00 -49.02927156  11.84553667
2344.00 -49.11538959  11.87494204
2346.00 -49.20156708  11.90439364
2348.00 -49.28780400  11.93389153
2350.00 -49.37410030  11.96343571
2352.00 -49.46045597  11.99302622
2354.00 -49.54687097  12.02266309
2356.00 -49.63334526  12.05234633
2358.00 -49.71987882  12.08207598
2360.00 -49.80647160  12.11185207
2362.00 -49.89312358  12.14167462
2364.00 -49.97983473  12.17154365
2366.00 -50.06660501  12.20145920
2368.00 -50.15343439  12.23142129
2370.00 -50.24032284  12.26142994
2372.00 -50.32727032  12.29148519
2374.00 -50.41427680  12.32158705
2376.00 -50.50134225  12.35173556
2378.00 -50.58846664  12.38193075
2380.00 -50.67564993  12.41217263
2382.00 -50.76289209  12.44246124
2384.00 -50.85019309  12.47279660
2386.00 -50.93755289  12.50317873
2388.00 -51.02497147  12.53360767
2390.00 -51.11244878  12.56408344
2392.00 -51.19998480  12.59460607
2394.00 -51.28757950  12.62517557
2396.00 -51.37523284  12.65579199
2398.00 -51.46294478  12.68645534
2400.00 -51.55071530  12.71716565
2402.00 -51.63854436  12.74792295
2404.00 -51.72643193  12.77872726
2406.00 -51.81437798  12.80957860
2408.00 -51.90238247  12.84047702
2410.00 -51.99044537  12.87142252
2412.00 -52.07856665  12.90241514
2414.00 -52.16674627  12.93345490
2416.00 -52.25498420  12.96454183
2418.00 -52.34328042  12.99567595
2420.00 -52.43163487  13.02685729
2422.00 -52.52004755  13.05808588
2424.00 -52.60851840  13.08936173
2426.00 -52.69704739  13.12068489
2428.00 -52.78563450  13.15205537
2430.00 -52.87427969  13.18347319
2432.00 -52.96298293  13.21493839
2434.00 -53.05174418  13.24645098
2436.00 -53.14056341  13.27801101
2438.00 -53.22944059  13.30961848
2440.00 -53.31837568  13.34127343
2442.00 -53.40736866  13.37297588
2444.00 -53.49641948  13.40472585
2446.00 -53.58552812  13.43652338
2448.00 -53.67469454  13.46836848
2450.00 -53.76391871  13.50026119
2452.00 -53.85320059  13.53220153
2454.00 -53.94254016  13.56418951
2456.00 -54.03193737  13.59622518
2458.00 -54.12139220  13.62830855
2460.00 -54.21090462  13.66043965
2462.00 -54.30047458  13.69261851
2464.00 -54.39010206  13.72484514
2466.00 -54.47978702  13.75711958
2468.00 -54.56952942  13.78944185
2470.00 -54.65932925  13.82181197
2472.00 -54.74918646  13.85422997
2474.00 -54.83910101  13.88669588
2476.00 -54.92907289  13.91920972
2478.00 -55.01910204  13.95177151
2480.00 -55.10918844  13.98438128
2482.00 -55.19933206  14.01703906
2484.00 -55.28953286  14.04974486
2486.00 -55.37979081  14.08249872
2488.00 -55.47010588  14.11530066
2490.00 -55.56047802  14.14815070
2492.00 -55.65090722  14.18104888
2494.00 -55.74139343  14.21399520
2496.00 -55.83193662  14.24698970
2498.00 -55.92253675  14.28003241
2500.00 -56.01319381  14.31312334
2502.00 -56.10390774  14.34626252
2504.00 -56.19467852  14.37944999
2506.00 -56.28550611  14.41268575
2508.00 -56.37639048  14.44596983
2510.00 -56.46733160  14.47930227
2512.00 -56.55832944  14.51268308
2514.00 -56.64938395  14.54611230
2516.00 -56.74049510  14.57958993
2518.00 -56.83166287  14.61311601
2520.00 -56.92288722  14.64669057
2522.00 -57.01416811  14.68031362
2524.00 -57.10550552  14.71398519
2526.00 -57.19689940  14.74770531
2528.00 -57.28834972  14.78147399
2530.00 -57.37985645  14.81529127
2532.00 -57.47141956  14.84915717
2534.00 -57.56303901  14.88307171
2536.00 -57.65471477  14.91703492
2538.00 -57.74644681  14.95104681
2540.00 -57.83823509  14.98510742
2542.00 -57.93007957  15.01921677
2544.00 -58.02198023  15.05337488
2546.00 -58.11393703  15.08758178
2548.00 -58.20594993  15.12183748
2550.00 -58.29801891  15.15614202
2552.00 -58.39014392  15.19049542
2554.00 -58.48232494  15.22489770
2556.00 -58.57456193  15.25934889
2558.00 -58.66685486  15.29384901
2560.00 -58.75920369  15.32839808
2562.00 -58.85160839  15.36299612
2564.00 -58.94406892  15.39764317
2566.00 -59.03658526  15.43233924
2568.00 -59.12915736  15.46708436
2570.00 -59.22178519  15.50187855
2572.00 -59.31446873  15.53672184
2574.00 -59.40720793  15.57161425
2576.00 -59.50000276  15.60655579
2578.00 -59.59285319  15.64154651
2580.00 -59.68575919  15.67658641
2582.00 -59.77872071  15.71167553
2584.00 -59.87173773  15.74681388
2586.00 -59.96481021  15.78200150
2588.00 -60.05793812  15.81723840
2590.00 -60.15112142  15.85252460
2592.00 -60.24436008  15.88786013
2594.00 -60.33765407  15.92324502
2596.00 -60.43100335  15.95867928
2598.00 -60.52440788  15.99416295
2600.00 -60.61786764  16.02969603
2602.00 -60.71138259  16.06527857
2604.00 -60.80495269  16.10091057
2606.00 -60.89857792  16.13659206
2608.00 -60.99225823  16.17232307
2610.00 -61.08599359  16.20810362
2612.00 -61.17978397  16.24393373
2614.00 -61.27362934  16.27981343
2616.00 -61.36752966  16.31574273
2618.00 -61.46148489  16.35172166
2620.00 -61.55549500  16.38775025
2622.00 -61.64955996  16.42382851
2624.00 -61.74367974  16.45995648
2626.00 -61.83785429  16.49613416
2628.00 -61.93208359  16.53236159
2630.00 -62.02636760  16.56863879
2632.00 -62.12070628  16.60496578
2634.00 -62.21509961  16.64134258
2636.00 -62.30954755  16.67776921
2638.00 -62.40405006  16.71424571
2640.00 -62.49860710  16.75077209
2642.00 -62.59321866  16.78734837
2644.00 -62.68788468  16.82397458
2646.00 -62.78260514  16.86065073
2648.00 -62.87738000  16.89737686
2650.00 -62.97220923  16.93415298
2652.00 -63.06709279  16.97097912
2654.00 -63.16203065  17.00785530
2656.00 -63.25702278  17.04478153
2658.00 -63.35206914  17.08175786
2660.00 -63.44716969  17.11878428
2662.00 -63.54232440  17.15586084
2664.00 -63.63753324  17.19298755
2666.00 -63.73279617  17.23016443
2668.00 -63.82811316  17.26739150
2670.00 -63.92348418  17.30466879
2672.00 -64.01890918  17.34199633
2674.00 -64.11438814  17.37937412
2676.00 -64.20992101  17.41680220
2678.00 -64.30550778  17.45428058
2680.00 -64.40114839  17.49180929
2682.00 -64.49684282  17.52938835
2684.00 -64.59259104  17.56701778
2686.00 -64.68839300  17.60469761
2688.00 -64.78424867  17.64242785
2690.00 -64.88015803  17.68020853
2692.00 -64.97612102  17.71803967
2694.00 -65.07213763  17.75592130
2696.00 -65.16820781  17.79385342
2698.00 -65.26433153  17.83183607
2700.00 -65.36050876  17.86986927
2702.00 -65.45673946  17.90795304
2704.00 -65.55302359  17.94608739
2706.00 -65.64936113  17.98427236
2708.00 -65.74575203  18.02250796
2710.00 -65.84219627  18.06079422
2712.00 -65.93869380  18.09913116
2714.00 -66.03524460  18.13751879
2716.00 -66.13184863  18.17595714
2718.00 -66.22850585  18.21444624
2720.00 -66.32521623  18.25298610
2722.00 -66.42197974  18.29157674
2724.00 -66.51879633  18.33021819
2726.00 -66.61566598  18.36891046
2728.00 -66.71258865  18.40765359
2730.00 -66.80956431  18.44644758
2732.00 -66.90659292  18.48529247
2734.00 -67.00367444  18.52418827
2736.00 -67.10080885  18.56313500
2738.00 -67.19799610  18.60213269
2740.00 -67.29523616  18.64118135
2742.00 -67.39252901  18.68028102
2744.00 -67.48987459  18.71943170
2746.00 -67.58727288  18.75863342
2748.00 -67.68472385  18.79788620
2750.00 -67.78222745  18.83719006
2752.00 -67.87978366  18.87654503
2754.00 -67.97739243  18.91595112
2756.00 -68.07505374  18.95540836
2758.00 -68.17276755  18.99491676
2760.00 -68.27053382  19.03447635
2762.00 -68.36835252  19.07408714
2764.00 -68.46622362  19.11374917
2766.00 -68.56414707  19.15346244
2768.00 -68.66212285  19.19322698
2770.00 -68.76015092  19.23304282
2772.00 -68.85823125  19.27290996
2774.00 -68.95636379  19.31282844
2776.00 -69.05454852  19.35279828
2778.00 -69.15278539  19.39281948
2780.00 -69.25107439  19.43289208
2782.00 -69.34941546  19.47301609
2784.00 -69.44780858  19.51319154
2786.00 -69.54625371  19.55341845
2788.00 -69.64475081  19.59369683
2790.00 -69.74329986  19.63402671
2792.00 -69.84190080  19.67440811
2794.00 -69.94055362  19.71484104
2796.00 -70.03925828  19.75532553
2798.00 -70.13801473  19.79586161
2800.00 -70.23682295  19.83644928
2802.00 -70.33568290  19.87708857
2804.00 -70.43459455  19.91777949
2806.00 -70.53355786  19.95852208
2808.00 -70.63257279  19.99931635
2810.00 -70.73163931  20.04016232
2812.00 -70.83075738  20.08106001
2814.00 -70.92992698  20.12200944
2816.00 -71.02914806  20.16301063
2818.00 -71.12842059  20.20406360
2820.00 -71.22774454  20.24516837
2822.00 -71.32711986  20.28632496
2824.00 -71.42654653  20.32753339
2826.00 -71.52602451  20.36879368
2828.00 -71.62555376  20.41010586
2830.00 -71.72513426  20.45146993
2832.00 -71.82476595  20.49288593
2834.00 -71.92444882  20.53435386
2836.00 -72.02418282  20.57587375
2838.00 -72.12396791  20.61744563
2840.00 -72.22380407  20.65906950
2842.00 -72.32369126  20.70074539
2844.00 -72.42362944  20.74247332
2846.00 -72.52361858  20.78425331
2848.00 -72.62365865  20.82608538
2850.00 -72.72374960  20.86796955
2852.00 -72.82389140  20.90990583
2854.00 -72.92408402  20.95189425
2856.00 -73.02432742  20.99393483
2858.00 -73.12462157  21.03602758
2860.00 -73.22496642  21.07817253
2862.00 -73.32536196  21.12036969
2864.00 -73.42580814  21.16261909
2866.00 -73.52630492  21.20492074
2868.00 -73.62685227  21.24727466
2870.00 -73.72745016  21.28968088
2872.00 -73.82809854  21.33213940
2874.00 -73.92879739  21.37465026
2876.00 -74.02954667  21.41721347
2878.00 -74.13034635  21.45982905
2880.00 -74.23119638  21.50249702
2882.00 -74.33209674  21.54521739
2884.00 -74.43304738  21.58799019
2886.00 -74.53404828  21.63081544
2888.00 -74.63509939  21.67369315
2890.00 -74.73620069  21.71662334
2892.00 -74.83735213  21.75960604
2894.00 -74.93855369  21.80264126
2896.00 -75.03980532  21.84572902
2898.00 -75.14110699  21.88886935
2900.00 -75.24245866  21.93206225
2902.00 -75.34386031  21.97530774
2904.00 -75.44531189  22.01860586
2906.00 -75.54681337  22.06195661
2908.00 -75.64836471  22.10536001
2910.00 -75.74996588  22.14881608
2912.00 -75.85161685  22.19232485
2914.00 -75.95331757  22.23588633
2916.00 -76.05506801  22.27950053
2918.00 -76.15686814  22.32316749
2920.00 -76.25871792  22.36688721
2922.00 -76.36061732  22.41065971
2924.00 -76.46256630  22.45448502
2926.00 -76.56456482  22.49836315
2928.00 -76.66661285  22.54229411
2930.00 -76.76871036  22.58627794
2932.00 -76.87085730  22.63031464
2934.00 -76.97305365  22.67440424
2936.00 -77.07529936  22.71854676
2938.00 -77.17759441  22.76274220
2940.00 -77.27993875  22.80699060
2942.00 -77.38233236  22.85129196
2944.00 -77.48477519  22.89564632
2946.00 -77.58726720  22.94005367
2948.00 -77.68980838  22.98451405
2950.00 -77.79239867  23.02902747
2952.00 -77.89503805  23.07359395
2954.00 -77.99772647  23.11821351
2956.00 -78.10046391  23.16288617
2958.00 -78.20325032  23.20761194
2960.00 -78.30608567  23.25239084
2962.00 -78.40896993  23.29722289
2964.00 -78.51190307  23.34210811
2966.00 -78.61488503  23.38704651
2968.00 -78.71791579  23.43203812
2970.00 -78.82099532  23.47708295
2972.00 -78.92412358  23.52218102
2974.00 -79.02730052  23.56733235
2976.00 -79.13052613  23.61253695
2978.00 -79.23380035  23.65779485
2980.00 -79.33712316  23.70310605
2982.00 -79.44049452  23.74847059
2984.00 -79.54391439  23.79388847
2986.00 -79.64738275  23.83935971
2988.00 -79.75089954  23.88488433
2990.00 -79.85446475  23.93046236
2992.00 -79.95807832  23.97609380
2994.00 -80.06174023  24.02177867
2996.00 -80.16545044  24.06751700
2998.00 -80.26920892  24.11330879
3000.00 -80.37301562  24.15915407
3002.00 -80.47687052  24.20505286
3004.00 -80.58077358  24.25100517
3006.00 -80.68472475  24.29701101
3008.00 -80.78872402  24.34307041
3010.00 -80.89277133  24.38918339
3012.00 -80.99686666  24.43534995
3014.00 -81.10100997  24.48157012
3016.00 -81.20520123  24.52784392
3018.00 -81.30944039  24.57417136
3020.00 -81.41372742  24.62055246
3022.00 -81.51806229  24.66698723
3024.00 -81.62244496  24.71347570
3026.00 -81.72687539  24.76001788
3028.00 -81.83135356  24.80661379
3030.00 -81.93587942  24.85326344
3032.00 -82.04045293  24.89996686
3034.00 -82.14507407  24.94672405
3036.00 -82.24974280  24.99353504
3038.00 -82.35445907  25.04039984
3040.00 -82.45922286  25.08731847
3042.00 -82.56403413  25.13429094
3044.00 -82.66889284  25.18131728
3046.00 -82.77379896  25.22839750
3048.00 -82.87875245  25.27553162
3050.00 -82.98375328  25.32271965
3052.00 -83.08880141  25.36996161
3054.00 -83.19389680  25.41725751
3056.00 -83.29903942  25.46460738
3058.00 -83.40422923  25.51201123
3060.00 -83.50946621  25.55946908
3062.00 -83.61475030  25.60698094
3064.00 -83.72008147  25.65454682
3066.00 -83.82545970  25.70216676
3068.00 -83.93088494  25.74984076
3070.00 -84.03635716  25.79756883
3072.00 -84.14187632  25.84535101
3074.00 -84.24744239  25.89318729
3076.00 -84.35305533  25.94107770
3078.00 -84.45871510  25.98902226
3080.00 -84.56442167  26.03702098
3082.00 -84.67017500  26.08507387
3084.00 -84.77597506  26.13318096
3086.00 -84.88182182  26.18134226
3088.00 -84.98771522  26.22955778
3090.00 -85.09365525  26.27782755
3092.00 -85.19964186  26.32615157
3094.00 -85.30567502  26.37452987
3096.00 -85.41175469  26.42296246
3098.00 -85.51788084  26.47144936
3100.00 -85.62405342  26.51999057
3102.00 -85.73027241  26.56858613
3104.00 -85.83653777  26.61723604
3106.00 -85.94284947  26.66594032
3108.00 -86.04920745  26.71469899
3110.00 -86.15561170  26.76351206
3112.00 -86.26206218  26.81237954
3114.00 -86.36855884  26.86130146
3116.00 -86.47510165  26.91027783
3118.00 -86.58169059  26.95930867
3120.00 -86.68832560  27.00839398
3122.00 -86.79500666  27.05753380
3124.00 -86.90173373  27.10672812
3126.00 -87.00850677  27.15597697
3128.00 -87.11532575  27.20528037
3130.00 -87.22219063  27.25463833
3132.00 -87.32910137  27.30405086
3134.00 -87.43605795  27.35351798
3136.00 -87.54306032  27.40303970
3138.00 -87.65010845  27.45261605
3140.00 -87.75720230  27.50224704
3142.00 -87.86434183  27.55193267
3144.00 -87.97152701  27.60167298
3146.00 -88.07875781  27.65146797
3148.00 -88.18603419  27.70131765
3150.00 -88.29335611  27.75122205
3152.00 -88.40072353  27.80118118
3154.00 -88.50813642  27.85119505
3156.00 -88.61559475  27.90126368
3158.00 -88.72309848  27.95138709
3160.00 -88.83064757  28.00156528
3162.00 -88.93824198  28.05179829
3164.00 -89.04588169  28.10208611
3166.00 -89.15356664  28.15242876
3168.00 -89.26129682  28.20282627
3170.00 -89.36907218  28.25327864
3172.00 -89.47689268  28.30378589
3174.00 -89.58475830  28.35434803
3176.00 -89.69266899  28.40496509
3178.00 -89.80062471  28.45563707
3180.00 -89.90862544  28.50636399
3182.00 -90.01667114  28.55714586
3184.00 -90.12476176  28.60798271
3186.00 -90.23289728  28.65887453
3188.00 -90.34107766  28.70982136
3190.00 -90.44930286  28.76082320
3192.00 -90.55757284  28.81188007
3194.00 -90.66588758  28.86299198
3196.00 -90.77424702  28.91415895
3198.00 -90.88265115  28.96538099
3200.00 -90.99109992  29.01665812
3202.00 -91.09959329  29.06799035
3204.00 -91.20813124  29.11937770
3206.00 -91.31671371  29.17082018
3208.00 -91.42534069  29.22231780
3210.00 -91.53401212  29.27387058
3212.00 -91.64272799  29.32547854
3214.00 -91.75148824  29.37714168
3216.00 -91.86029284  29.42886003
3218.00 -91.96914176  29.48063359
3220.00 -92.07803497  29.53246239
3222.00 -92.18697241  29.58434643
3224.00 -92.29595407  29.63628573
3226.00 -92.40497990  29.68828031
3228.00 -92.51404987  29.74033017
3230.00 -92.62316394  29.79243534
3232.00 -92.73232207  29.84459582
3234.00 -92.84152423  29.89681163
3236.00 -92.95077039  29.94908279
3238.00 -93.06006050  30.00140931
3240.00 -93.16939453  30.05379120
3242.00 -93.27877245  30.10622847
3244.00 -93.38819421  30.15872115
3246.00 -93.49765979  30.21126924
3248.00 -93.60716914  30.26387276
3250.00 -93.71672223  30.31653173
3252.00 -93.82631903  30.36924615
3254.00 -93.93595949  30.42201604
3256.00 -94.04564359  30.47484142
3258.00 -94.15537128  30.52772229
3260.00 -94.26514253  30.58065867
3262.00 -94.37495731  30.63365058
3264.00 -94.48481557  30.68669803
3266.00 -94.59471728  30.73980103
3268.00 -94.70466241  30.79295960
3270.00 -94.81465092  30.84617375
3272.00 -94.92468277  30.89944349
3274.00 -95.03475793  30.95276884
3276.00 -95.14487636  31.00614981
3278.00 -95.25503802  31.05958642
3280.00 -95.36524288  31.11307867
3282.00 -95.47549090  31.16662658
3284.00 -95.58578205  31.22023017
3286.00 -95.69611629  31.27388944
3288.00 -95.80649359  31.32760442
3290.00 -95.91691390  31.38137511
3292.00 -96.02737719  31.43520153
3294.00 -96.13788343  31.48908369
3296.00 -96.24843258  31.54302160
3298.00 -96.35902460  31.59701528
3300.00 -96.46965946  31.65106475
3302.00 -96.58033712  31.70517000
3304.00 -96.69105754  31.75933107
3306.00 -96.80182069  31.81354795
3308.00 -96.91262654  31.86782067
3310.00 -97.02347504  31.92214923
3312.00 -97.13436616  31.97653365
3314.00 -97.24529987  32.03097395
3316.00 -97.35627612  32.08547013
3318.00 -97.46729489  32.14002221
3320.00 -97.57835613  32.19463019
3322.00 -97.68945982  32.24929411
3324.00 -97.80060590  32.30401396
3326.00 -97.91179435  32.35878976
3328.00 -98.02302514  32.41362152
3330.00 -98.13429822  32.46850926
3332.00 -98.24561355  32.52345298
3334.00 -98.35697111  32.57845271
3336.00 -98.46837086  32.63350845
3338.00 -98.57981276  32.68862021
3340.00 -98.69129677  32.74378802
3342.00 -98.80282286  32.79901187
3344.00 -98.91439099  32.85429179
3346.00 -99.02600113  32.90962779
3348.00 -99.13765324  32.96501987
3350.00 -99.24934728  33.02046806
3352.00 -99.36108322  33.07597236
3354.00 -99.47286102  33.13153278
3356.00 -99.58468064  33.18714935
3358.00 -99.69654205  33.24282206
3360.00 -99.80844522  33.29855094
3362.00 -99.92039010  33.35433600
3364.00 -100.03237667  33.41017724
3366.00 -100.14440487  33.46607468
3368.00 -100.25647469  33.52202834
3370.00 -100.36858607  33.57803822
3372.00 -100.48073900  33.63410433
3374.00 -100.59293342  33.69022670
3376.00 -100.70516931  33.74640533
3378.00 -100.81744662  33.80264023
3380.00 -100.92976532  33.85893141
3382.00 -101.04212538  33.91527890
3384.00 -101.15452676  33.97168269
3386.00 -101.26696942  34.02814280
3388.00 -101.37945333  34.08465925
3390.00 -101.49197844  34.14123204
3392.00 -101.60454473  34.19786119
3394.00 -101.71715216  34.25454671
3396.00 -101.82980069  34.31128861
3398.00 -101.94249029  34.36808690
3400.00 -102.05522092  34.42494160
3402.00 -102.16799253  34.48185271
3404.00 -102.28080511  34.53882026
3406.00 -102.39365861  34.59584424
3408.00 -102.50655299  34.65292467
3410.00 -102.61948822  34.71006157
3412.00 -102.73246426  34.76725494
3414.00 -102.84548108  34.82450479
3416.00 -102.95853864  34.88181115
3418.00 -103.07163690  34.93917401
3420.00 -103.18477583  34.99659340
3422.00 -103.29795540  35.05406932
3424.00 -103.41117556  35.11160178
3426.00 -103.52443627  35.16919079
3428.00 -103.63773751  35.22683638
3430.00 -103.75107924  35.28453854
3432.00 -103.86446142  35.34229729
3434.00 -103.97788401  35.40011264
3436.00 -104.09134698  35.45798461
3438.00 -104.20485030  35.51591320
3440.00 -104.31839392  35.57389842
3442.00 -104.43197781  35.63194029
3444.00 -104.54560193  35.69003881
3446.00 -104.65926625  35.74819401
3448.00 -104.77297073  35.80640588
3450.00 -104.88671534  35.86467444
3452.00 -105.00050004  35.92299971
3454.00 -105.11432479  35.98138169
3456.00 -105.22818956  36.03982039
3458.00 -105.34209430  36.09831582
3460.00 -105.45603900  36.15686801
3462.00 -105.57002360  36.21547694
3464.00 -105.68404807  36.27414265
3466.00 -105.79811238  36.33286513
3468.00 -105.91221649  36.39164441
3470.00 -106.02636036  36.45048048
3472.00 -106.14054396  36.50937336
3474.00 -106.25476725  36.56832307
3476.00 -106.36903020  36.62732960
3478.00 -106.48333277  36.68639299
3480.00 -106.59767492  36.74551322
3482.00 -106.71205661  36.80469032
3484.00 -106.82647782  36.86392429
3486.00 -106.94093850  36.92321515
3488.00 -107.05543862  36.98256291
3490.00 -107.16997815  37.04196757
3492.00 -107.28455704  37.10142915
3494.00 -107.39917526  37.16094766
3496.00 -107.51383277  37.22052311
3498.00 -107.62852954  37.28015550
3500.00 -107.74326553  37.33984486
3502.00 -107.85804071  37.39959118
3504.00 -107.97285504  37.45939448
3506.00 -108.08770848  37.51925478
3508.00 -108.20260099  37.57917207
3510.00 -108.31753255  37.63914638
3512.00 -108.43250312  37.69917770
3514.00 -108.54751265  37.75926606
3516.00 -108.66256111  37.81941146
3518.00 -108.77764847  37.87961391
3520.00 -108.89277469  37.93987343
3522.00 -109.00793974  38.00019001
3524.00 -109.12314357  38.06056368
3526.00 -109.23838616  38.12099444
3528.00 -109.35366746  38.18148230
3530.00 -109.46898744  38.24202728
3532.00 -109.58434607  38.30262938
3534.00 -109.69974330  38.36328860
3536.00 -109.81517910  38.42400498
3538.00 -109.93065344  38.48477850
3540.00 -110.04616628  38.54560918
3542.00 -110.16171758  38.60649704
3544.00 -110.27730731  38.66744208
3546.00 -110.39293543  38.72844431
3548.00 -110.50860190  38.78950374
3550.00 -110.62430669  38.85062038
3552.00 -110.74004977  38.91179425
3554.00 -110.85583109  38.97302534
3556.00 -110.97165062  39.03431367
3558.00 -111.08750832  39.09565926
3560.00 -111.20340417  39.15706210
3562.00 -111.31933811  39.21852221
3564.00 -111.43531012  39.28003960
3566.00 -111.55132017  39.34161427
3568.00 -111.66736820  39.40324625
3570.00 -111.78345419  39.46493553
3572.00 -111.89957811  39.52668213
3574.00 -112.01573991  39.58848605
3576.00 -112.13193956  39.65034731
3578.00 -112.24817702  39.71226591
3580.00 -112.36445226  39.77424187
3582.00 -112.48076524  39.83627519
3584.00 -112.59711593  39.89836588
3586.00 -112.71350429  39.96051396
3588.00 -112.82993027  40.02271942
3590.00 -112.94639386  40.08498229
3592.00 -113.06289501  40.14730256
3594.00 -113.17943368  40.20968026
3596.00 -113.29600984  40.27211538
3598.00 -113.41262345  40.33460793
3600.00 -113.52927448  40.39715794
3602.00 -113.64596289  40.45976540
3604.00 -113.76268865  40.52243032
3606.00 -113.87945171  40.58515271
3608.00 -113.99625205  40.64793259
3610.00 -114.11308962  40.71076996
3612.00 -114.22996439  40.77366482
3614.00 -114.34687633  40.83661720
3616.00 -114.46382540  40.89962709
3618.00 -114.58081155  40.96269451
3620.00 -114.69783477  41.02581946
3622.00 -114.81489500  41.08900196
3624.00 -114.93199222  41.15224201
3626.00 -115.04912639  41.21553962
3628.00 -115.16629747  41.27889481
3630.00 -115.28350542  41.34230757
3632.00 -115.40075022  41.40577791
3634.00 -115.51803182  41.46930586
3636.00 -115.63535019  41.53289141
3638.00 -115.75270529  41.59653457
3640.00 -115.87009708  41.66023535
3642.00 -115.98752554  41.72399376
3644.00 -116.10499062  41.78780981
3646.00 -116.22249229  41.85168351
3648.00 -116.34003051  41.91561486
3650.00 -116.45760525  41.97960388
3652.00 -116.57521646  42.04365057
3654.00 -116.69286413  42.10775494
3656.00 -116.81054820  42.17191700
3658.00 -116.92826864  42.23613676
3660.00 -117.04602542  42.30041422
3662.00 -117.16381849  42.36474940
3664.00 -117.28164784  42.42914229
3666.00 -117.39951341  42.49359292
3668.00 -117.51741517  42.55810129
3670.00 -117.63535309  42.62266740
3672.00 -117.75332713  42.68729127
3674.00 -117.87133726  42.75197290
3676.00 -117.98938343  42.81671230
3678.00 -118.10746562  42.88150948
3680.00 -118.22558378  42.94636444
3682.00 -118.34373789  43.01127721
3684.00 -118.46192789  43.07624777
3686.00 -118.58015377  43.14127614
3688.00 -118.69841548  43.20636234
3690.00 -118.81671299  43.27150636
3692.00 -118.93504626  43.33670821
3694.00 -119.05341525  43.40196791
3696.00 -119.17181994  43.46728545
3698.00 -119.29026027  43.53266085
3700.00 -119.40873623  43.59809412
3702.00 -119.52724776  43.66358526
3704.00 -119.64579484  43.72913429
3706.00 -119.76437743  43.79474120
3708.00 -119.88299550  43.86040601
3710.00 -120.00164900  43.92612872
3712.00 -120.12033791  43.99190934
3714.00 -120.23906218  44.05774788
3716.00 -120.35782178  44.12364435
3718.00 -120.47661667  44.18959875
3720.00 -120.59544683  44.25561109
3722.00 -120.71431220  44.32168138
3724.00 -120.83321277  44.38780963
3726.00 -120.95214848  44.45399584
3728.00 -121.07111931  44.52024003
3730.00 -121.19012522  44.58654219
3732.00 -121.30916617  44.65290233
3734.00 -121.42824213  44.71932048
3736.00 -121.54735306  44.78579662
3738.00 -121.66649893  44.85233076
3740.00 -121.78567970  44.91892293
3742.00 -121.90489533  44.98557311
3744.00 -122.02414579  45.05228133
3746.00 -122.14343104  45.11904758
3748.00 -122.26275105  45.18587187
3750.00 -122.38210578  45.25275421
3752.00 -122.50149519  45.31969462
3754.00 -122.62091925  45.38669308
3756.00 -122.74037793  45.45374962
3758.00 -122.85987118  45.52086424
3760.00 -122.97939898  45.58803694
3762.00 -123.09896128  45.65526773
3764.00 -123.21855805  45.72255663
3766.00 -123.33818926  45.78990363
3768.00 -123.45785487  45.85730874
3770.00 -123.57755483  45.92477198
3772.00 -123.69728913  45.99229334
3774.00 -123.81705772  46.05987283
3776.00 -123.93686056  46.12751047
3778.00 -124.05669762  46.19520625
3780.00 -124.17656886  46.26296018
3782.00 -124.29647426  46.33077228
3784.00 -124.41641376  46.39864254
3786.00 -124.53638735  46.46657098
3788.00 -124.65639497  46.53455759
3790.00 -124.77643660  46.60260240
3792.00 -124.89651220  46.67070540
3794.00 -125.01662173  46.73886659
3796.00 -125.13676516  46.80708600
3798.00 -125.25694246  46.87536361
3800.00 -125.37715357  46.94369945
3802.00 -125.49739848  47.01209351
3804.00 -125.61767715  47.08054581
3806.00 -125.73798954  47.14905634
3808.00 -125.85833560  47.21762512
3810.00 -125.97871532  47.28625215
3812.00 -126.09912865  47.35493743
3814.00 -126.21957556  47.42368098
3816.00 -126.34005600  47.49248280
3818.00 -126.46056996  47.56134290
3820.00 -126.58111738  47.63026128
3822.00 -126.70169823  47.69923795
3824.00 -126.82231249  47.76827291
3826.00 -126.94296011  47.83736617
3828.00 -127.06364105  47.90651774
3830.00 -127.18435529  47.97572763
3832.00 -127.30510278  48.04499583
3834.00 -127.42588349  48.11432235
3836.00 -127.54669738  48.18370721
3838.00 -127.66754443  48.25315041
3840.00 -127.78842459  48.32265195
3842.00 -127.90933782  48.39221183
3844.00 -128.03028410  48.46183007
3846.00 -128.15126339  48.53150668
3848.00 -128.27227564  48.60124165
3850.00 -128.39332083  48.67103499
3852.00 -128.51439892  48.74088671
3854.00 -128.63550987  48.81079681
3856.00 -128.75665365  48.88076530
3858.00 -128.87783023  48.95079219
3860.00 -128.99903956  49.02087748
3862.00 -129.12028162  49.09102117
3864.00 -129.24155636  49.16122328
3866.00 -129.36286375  49.23148380
3868.00 -129.48420375  49.30180275
3870.00 -129.60557634  49.37218013
3872.00 -129.72698146  49.44261594
3874.00 -129.84841910  49.51311019
3876.00 -129.96988921  49.58366288
3878.00 -130.09139176  49.65427403
3880.00 -130.21292671  49.72494363
3882.00 -130.33449402  49.79567170
3884.00 -130.45609367  49.86645823
3886.00 -130.57772561  49.93730324
3888.00 -130.69938981  50.00820672
3890.00 -130.82108623  50.07916868
3892.00 -130.94281485  50.15018914
3894.00 -131.06457561  50.22126808
3896.00 -131.18636850  50.29240553
3898.00 -131.30819347  50.36360148
3900.00 -131.43005048  50.43485594
3902.00 -131.55193951  50.50616891
3904.00 -131.67386051  50.57754041
3906.00 -131.79581345  50.64897042
3908.00 -131.91779829  50.72045897
3910.00 -132.03981501  50.79200605
3912.00 -132.16186356  50.86361167
3914.00 -132.28394391  50.93527584
3916.00 -132.40605602  51.00699855
3918.00 -132.52819986  51.07877982
3920.00 -132.65037539  51.15061965
3922.00 -132.77258258  51.22251805
3924.00 -132.89482139  51.29447501
3926.00 -133.01709179  51.36649055
3928.00 -133.13939373  51.43856466
3930.00 -133.26172720  51.51069736
3932.00 -133.38409214  51.58288865
3934.00 -133.50648853  51.65513853
3936.00 -133.62891632  51.72744701
3938.00 -133.75137549  51.79981409
3940.00 -133.87386600  51.87223978
3942.00 -133.99638782  51.94472409
3944.00 -134.11894090  52.01726700
3946.00 -134.24152521  52.08986854
3948.00 -134.36414072  52.16252871
3950.00 -134.48678739  52.23524751
3952.00 -134.60946519  52.30802494
3954.00 -134.73217408  52.38086101
3956.00 -134.85491402  52.45375572
3958.00 -134.97768499  52.52670908
3960.00 -135.10048694  52.59972110
3962.00 -135.22331984  52.67279177
3964.00 -135.34618365  52.74592111
3966.00 -135.46907835  52.81910911
3968.00 -135.59200389  52.89235578
3970.00 -135.71496023  52.96566112
3972.00 -135.83794736  53.03902514
3974.00 -135.96096522  53.11244785
3976.00 -136.08401378  53.18592924
3978.00 -136.20709301  53.25946933
3980.00 -136.33020287  53.33306811
3982.00 -136.45334333  53.40672559
3984.00 -136.57651435  53.48044178
3986.00 -136.69971590  53.55421667
3988.00 -136.82294794  53.62805027
3990.00 -136.94621044  53.70194260
3992.00 -137.06950336  53.77589364
3994.00 -137.19282666  53.84990340
3996.00 -137.31618032  53.92397190
3998.00 -137.43956429  53.99809912
4000.00 -137.56297854  54.07228509
4002.00 -137.68642304  54.14652979
4004.00 -137.80989774  54.22083323
4006.00 -137.93340263  54.29519543
4008.00 -138.05693765  54.36961637
4010.00 -138.18050277  54.44409608
4012.00 -138.30409797  54.51863454
4014.00 -138.42772320  54.59323176
4016.00 -138.55137843  54.66788775
4018.00 -138.67506362  54.74260251
4020.00 -138.79877875  54.81737604
4022.00 -138.92252376  54.89220836
4024.00 -139.04629864  54.96709945
4026.00 -139.17010334  55.04204933
4028.00 -139.29393783  55.11705800
4030.00 -139.41780207  55.19212546
4032.00 -139.54169603  55.26725171
4034.00 -139.66561967  55.34243677
4036.00 -139.78957297  55.41768063
4038.00 -139.91355587  55.49298329
4040.00 -140.03756835  55.56834476
4042.00 -140.16161038  55.64376505
4044.00 -140.28568192  55.71924415
4046.00 -140.40978292  55.79478208
4048.00 -140.53391337  55.87037882
4050.00 -140.65807322  55.94603440
4052.00 -140.78226244  56.02174880
4054.00 -140.90648099  56.09752204
4056.00 -141.03072884  56.17335411
4058.00 -141.15500595  56.24924502
4060.00 -141.27931229  56.32519478
4062.00 -141.40364782  56.40120338
4064.00 -141.52801251  56.47727083
4066.00 -141.65240633  56.55339713
4068.00 -141.77682923  56.62958229
4070.00 -141.90128119  56.70582631
4072.00 -142.02576216  56.78212919
4074.00 -142.15027212  56.85849093
4076.00 -142.27481103  56.93491154
4078.00 -142.39937885  57.01139102
4080.00 -142.52397555  57.08792938
4082.00 -142.64860109  57.16452661
4084.00 -142.77325545  57.24118272
4086.00 -142.89793857  57.31789771
4088.00 -143.02265044  57.39467159
4090.00 -143.14739101  57.47150436
4092.00 -143.27216025  57.54839602
4094.00 -143.39695812  57.62534657
4096.00 -143.52178459  57.70235601
4098.00 -143.64663963  57.77942436
4100.00 -143.77152320  57.85655161
4102.00 -143.89643526  57.93373776
4104.00 -144.02137579  58.01098283
4106.00 -144.14634474  58.08828680
4108.00 -144.27134208  58.16564968
4110.00 -144.39636777  58.24307148
4112.00 -144.52142179  58.32055220
4114.00 -144.64650409  58.39809183
4116.00 -144.77161465  58.47569039
4118.00 -144.89675342  58.55334788
4120.00 -145.02192038  58.63106429
4122.00 -145.14711548  58.70883964
4124.00 -145.27233869  58.78667392
4126.00 -145.39758998  58.86456713
4128.00 -145.52286932  58.94251928
4130.00 -145.64817666  59.02053037
4132.00 -145.77351198  59.09860040
4134.00 -145.89887523  59.17672938
4136.00 -146.02426639  59.25491730
4138.00 -146.14968542  59.33316417
4140.00 -146.27513229  59.41147000
4142.00 -146.40060695  59.48983478
4144.00 -146.52610938  59.56825851
4146.00 -146.65163954  59.64674121
4148.00 -146.77719740  59.72528286
4150.00 -146.90278291  59.80388347
4152.00 -147.02839606  59.88254305
4154.00 -147.15403680  59.96126160
4156.00 -147.27970509  60.04003912
4158.00 -147.40540091  60.11887560
4160.00 -147.53112421  60.19777106
4162.00 -147.65687497  60.27672550
4164.00 -147.78265315  60.35573891
4166.00 -147.90845872  60.43481130
4168.00 -148.03429163  60.51394267
4170.00 -148.16015186  60.59313302
4172.00 -148.28603937  60.67238236
4174.00 -148.41195412  60.75169068
4176.00 -148.53789609  60.83105799
4178.00 -148.66386523  60.91048430
4180.00 -148.78986152  60.98996959
4182.00 -148.91588491  61.06951388
4184.00 -149.04193538  61.14911716
4186.00 -149.16801289  61.22877944
4188.00 -149.29411740  61.30850072
4190.00 -149.42024888  61.38828099
4192.00 -149.54640730  61.46812027
4194.00 -149.67259262  61.54801856
4196.00 -149.79880480  61.62797585
4198.00 -149.92504382  61.70799214
4200.00 -150.05130964  61.78806745
4202.00 -150.17760221  61.86820176
4204.00 -150.30392152  61.94839508
4206.00 -150.43026752  62.02864742
4208.00 -150.55664018  62.10895877
4210.00 -150.68303947  62.18932914
4212.00 -150.80946535  62.26975853
4214.00 -150.93591778  62.35024693
4216.00 -151.06239674  62.43079436
4218.00 -151.18890218  62.51140080
4220.00 -151.31543408  62.59206627
4222.00 -151.44199240  62.67279076
4224.00 -151.56857710  62.75357428
4226.00 -151.69518815  62.83441682
4228.00 -151.82182552  62.91531839
4230.00 -151.94848917  62.99627899
4232.00 -152.07517907  63.07729862
4234.00 -152.20189518  63.15837728
4236.00 -152.32863747  63.23951498
4238.00 -152.45540591  63.32071170
4240.00 -152.58220045  63.40196747
4242.00 -152.70902108  63.48328226
4244.00 -152.83586774  63.56465610
4246.00 -152.96274041  63.64608897
4248.00 -153.08963905  63.72758088
4250.00 -153.21656363  63.80913183
4252.00 -153.34351412  63.89074182
4254.00 -153.47049048  63.97241085
4256.00 -153.59749267  64.05413893
4258.00 -153.72452067  64.13592605
4260.00 -153.85157443  64.21777221
4262.00 -153.97865393  64.29967742
4264.00 -154.10575913  64.38164167
4266.00 -154.23288999  64.46366497
4268.00 -154.36004648  64.54574732
4270.00 -154.48722857  64.62788872
4272.00 -154.61443622  64.71008917
4274.00 -154.74166940  64.79234866
4276.00 -154.86892808  64.87466721
4278.00 -154.99621222  64.95704481
4280.00 -155.12352178  65.03948145
4282.00 -155.25085673  65.12197716
4284.00 -155.37821705  65.20453191
4286.00 -155.50560268  65.28714572
4288.00 -155.63301361  65.36981858
4290.00 -155.76044979  65.45255050
4292.00 -155.88791119  65.53534147
4294.00 -156.01539778  65.61819150
4296.00 -156.14290953  65.70110058
4298.00 -156.27044639  65.78406872
4300.00 -156.39800834  65.86709592
4302.00 -156.52559535  65.95018217
4304.00 -156.65320736  66.03332748
4306.00 -156.78084437  66.11653185
4308.00 -156.90850632  66.19979528
4310.00 -157.03619319  66.28311777
4312.00 -157.16390493  66.36649932
4314.00 -157.29164153  66.44993992
4316.00 -157.41940294  66.53343959
4318.00 -157.54718913  66.61699831
4320.00 -157.67500007  66.70061610
4322.00 -157.80283571  66.78429294
4324.00 -157.93069604  66.86802885
4326.00 -158.05858101  66.95182381
4328.00 -158.18649059  67.03567784
4330.00 -158.31442474  67.11959092
4332.00 -158.44238344  67.20356307
4334.00 -158.57036664  67.28759428
4336.00 -158.69837432  67.37168455
4338.00 -158.82640644  67.45583388
4340.00 -158.95446297  67.54004227
4342.00 -159.08254387  67.62430972
4344.00 -159.21064911  67.70863623
4346.00 -159.33877865  67.79302180
4348.00 -159.46693247  67.87746643
4350.00 -159.59511052  67.96197012
4352.00 -159.72331278  68.04653287
4354.00 -159.85153921  68.13115469
4356.00 -159.97978977  68.21583556
4358.00 -160.10806444  68.30057549
4360.00 -160.23636317  68.38537448
4362.00 -160.36468594  68.47023253
4364.00 -160.49303271  68.55514963
4366.00 -160.62140345  68.64012580
4368.00 -160.74979812  68.72516102
4370.00 -160.87821670  68.81025531
4372.00 -161.00665913  68.89540864
4374.00 -161.13512541  68.98062104
4376.00 -161.26361548  69.06589249
4378.00 -161.39212931  69.15122300
4380.00 -161.52066688  69.23661256
4382.00 -161.64922814  69.32206118
4384.00 -161.77781307  69.40756885
4386.00 -161.90642164  69.49313558
4388.00 -162.03505379  69.57876136
4390.00 -162.16370951  69.66444619
4392.00 -162.29238876  69.75019008
4394.00 -162.42109151  69.83599302
4396.00 -162.54981772  69.92185500
4398.00 -162.67856736  70.00777604
4400.00 -162.80734040  70.09375613
4402.00 -162.93613679  70.17979527
4404.00 -163.06495652  70.26589345
4406.00 -163.19379954  70.35205069
4408.00 -163.32266582  70.43826696
4410.00 -163.45155533  70.52454229
4412.00 -163.58046803  70.61087666
4414.00 -163.70940389  70.69727008
4416.00 -163.83836289  70.78372253
4418.00 -163.96734497  70.87023403
4420.00 -164.09635012  70.95680458
4422.00 -164.22537829  71.04343416
4424.00 -164.35442945  71.13012278
4426.00 -164.48350358  71.21687044
4428.00 -164.61260063  71.30367714
4430.00 -164.74172058  71.39054288
4432.00 -164.87086338  71.47746765
4434.00 -165.00002902  71.56445146
4436.00 -165.12921744  71.65149430
4438.00 -165.25842862  71.73859618
4440.00 -165.38766253  71.82575708
4442.00 -165.51691914  71.91297702
4444.00 -165.64619840  72.00025598
4446.00 -165.77550029  72.08759397
4448.00 -165.90482477  72.17499099
4450.00 -166.03417181  72.26244704
4452.00 -166.16354138  72.34996211
4454.00 -166.29293344  72.43753620
4456.00 -166.42234796  72.52516931
4458.00 -166.55178490  72.61286145
4460.00 -166.68124424  72.70061260
4462.00 -166.81072594  72.78842278
4464.00 -166.94022996  72.87629196
4466.00 -167.06975628  72.96422017
4468.00 -167.19930486  73.05220739
4470.00 -167.32887566  73.14025362
4472.00 -167.45846866  73.22835886
4474.00 -167.58808382  73.31652311
4476.00 -167.71772110  73.40474637
4478.00 -167.84738048  73.49302863
4480.00 -167.97706192  73.58136990
4482.00 -168.10676539  73.66977017
4484.00 -168.23649085  73.75822945
4486.00 -168.36623828  73.84674772
4488.00 -168.49600763  73.93532499
4490.00 -168.62579887  74.02396126
4492.00 -168.75561198  74.11265653
4494.00 -168.88544692  74.20141079
4496.00 -169.01530365  74.29022404
4498.00 -169.14518215  74.37909628
4500.00 -169.27508237  74.46802750
4502.00 -169.40500430  74.55701772
4504.00 -169.53494788  74.64606692
4506.00 -169.66491310  74.73517510
4508.00 -169.79489991  74.82434227
4510.00 -169.92490829  74.91356841
4512.00 -170.05493819  75.00285353
4514.00 -170.18498960  75.09219763
4516.00 -170.31506247  75.18160070
4518.00 -170.44515678  75.27106274
4520.00 -170.57527248  75.36058375
4522.00 -170.70540955  75.45016373
4524.00 -170.83556796  75.53980267
4526.00 -170.96574766  75.62950058
4528.00 -171.09594864  75.71925745
4530.00 -171.22617084  75.80907328
4532.00 -171.35641425  75.89894807
4534.00 -171.48667883  75.98888181
4536.00 -171.61696454  76.07887451
4538.00 -171.74727136  76.16892616
4540.00 -171.87759925  76.25903676
4542.00 -172.00794817  76.34920630
4544.00 -172.13831810  76.43943479
4546.00 -172.26870900  76.52972222
4548.00 -172.39912084  76.62006859
4550.00 -172.52955359  76.71047390
4552.00 -172.66000721  76.80093814
4554.00 -172.79048167  76.89146132
4556.00 -172.92097694  76.98204343
4558.00 -173.05149298  77.07268447
4560.00 -173.18202977  77.16338444
4562.00 -173.31258726  77.25414332
4564.00 -173.44316543  77.34496114
4566.00 -173.57376425  77.43583786
4568.00 -173.70438367  77.52677351
4570.00 -173.83502368  77.61776807
4572.00 -173.96568423  77.70882154
4574.00 -174.09636530  77.79993393
4576.00 -174.22706684  77.89110521
4578.00 -174.35778883  77.98233541
4580.00 -174.48853124  78.07362450
4582.00 -174.61929403  78.16497249
4584.00 -174.75007718  78.25637938
4586.00 -174.88088063  78.34784517
4588.00 -175.01170438  78.43936984
4590.00 -175.14254837  78.53095341
4592.00 -175.27341259  78.62259586
4594.00 -175.40429699  78.71429719
4596.00 -175.53520155  78.80605740
4598.00 -175.66612622  78.89787649
4600.00 -175.79707099  78.98975446
4602.00 -175.92803582  79.08169129
4604.00 -176.05902067  79.17368700
4606.00 -176.19002551  79.26574157
4608.00 -176.32105031  79.35785501
4610.00 -176.45209503  79.45002731
4612.00 -176.58315965  79.54225846
4614.00 -176.71424414  79.63454847
4616.00 -176.84534845  79.72689733
4618.00 -176.97647256  79.81930505
4620.00 -177.10761643  79.91177160
4622.00 -177.23878004  80.00429700
4624.00 -177.36996335  80.09688124
4626.00 -177.50116632  80.18952432
4628.00 -177.63238893  80.28222623
4630.00 -177.76363114  80.37498698
4632.00 -177.89489292  80.46780655
4634.00 -178.02617424  80.56068494
4636.00 -178.15747506  80.65362216
4638.00 -178.28879536  80.74661819
4640.00 -178.42013510  80.83967305
4642.00 -178.55149424  80.93278671
4644.00 -178.68287277  81.02595918
4646.00 -178.81427063  81.11919046
4648.00 -178.94568781  81.21248054
4650.00 -179.07712427  81.30582942
4652.00 -179.20857998  81.39923709
4654.00 -179.34005490  81.49270356
4656.00 -179.47154900  81.58622882
4658.00 -179.60306225  81.67981286
4660.00 -179.73459462  81.77345569
4662.00 -179.86614608  81.86715729
4664.00 -179.99771659  81.96091767
4666.00 -180.12930613  82.05473683
4668.00 -180.26091465  82.14861475
4670.00 -180.39254213  82.24255144
4672.00 -180.52418853  82.33654689
4674.00 -180.65585383  82.43060109
4676.00 -180.78753799  82.52471406
4678.00 -180.91924098  82.61888577
4680.00 -181.05096277  82.71311624
4682.00 -181.18270332  82.80740544
4684.00 -181.31446260  82.90175339
4686.00 -181.44624058  82.99616008
4688.00 -181.57803723  83.09062549
4690.00 -181.70985252  83.18514964
4692.00 -181.84168641  83.27973252
4694.00 -181.97353888  83.37437411
4696.00 -182.10540989  83.46907443
4698.00 -182.23729940  83.56383346
4700.00 -182.36920739  83.65865120
4702.00 -182.50113383  83.75352765
4704.00 -182.63307867  83.84846280
4706.00 -182.76504190  83.94345666
4708.00 -182.89702348  84.03850920
4710.00 -183.02902337  84.13362045
4712.00 -183.16104155  84.22879037
4714.00 -183.29307798  84.32401899
4716.00 -183.42513264  84.41930628
4718.00 -183.55720548  84.51465225
4720.00 -183.68929648  84.61005690
4722.00 -183.82140560  84.70552021
4724.00 -183.95353282  84.80104219
4726.00 -184.08567810  84.89662283
4728.00 -184.21784141  84.99226212
4730.00 -184.35002272  85.08796007
4732.00 -184.48222199  85.18371666
4734.00 -184.61443920  85.27953191
4736.00 -184.74667431  85.37540579
4738.00 -184.87892730  85.47133830
4740.00 -185.01119812  85.56732945
4742.00 -185.14348675  85.66337923
4744.00 -185.27579316  85.75948763
4746.00 -185.40811731  85.85565465
4748.00 -185.54045917  85.95188029
4750.00 -185.67281871  86.04816454
4752.00 -185.80519591  86.14450739
4754.00 -185.93759072  86.24090885
4756.00 -186.07000311  86.33736891
4758.00 -186.20243306  86.43388756
4760.00 -186.33488053  86.53046480
4762.00 -186.46734550  86.62710063
4764.00 -186.59982792  86.72379503
4766.00 -186.73232777  86.82054802
4768.00 -186.86484502  86.91735957
4770.00 -186.99737963  87.01422970
4772.00 -187.12993157  87.11115838
4774.00 -187.26250082  87.20814563
4776.00 -187.39508733  87.30519143
4778.00 -187.52769108  87.40229578
4780.00 -187.66031204  87.49945868
4782.00 -187.79295018  87.59668012
4784.00 -187.92560546  87.69396009
4786.00 -188.05827785  87.79129860
4788.00 -188.19096733  87.88869563
4790.00 -188.32367385  87.98615119
4792.00 -188.45639739  88.08366527
4794.00 -188.58913792  88.18123785
4796.00 -188.72189540  88.27886895
4798.00 -188.85466980  88.37655855
4800.00 -188.98746110  88.47430665
4802.00 -189.12026926  88.57211325
4804.00 -189.25309425  88.66997833
4806.00 -189.38593604  88.76790190
4808.00 -189.51879459  88.86588396
4810.00 -189.65166989  88.96392448
4812.00 -189.78456188  89.06202348
4814.00 -189.91747055  89.16018095
4816.00 -190.05039586  89.25839687
4818.00 -190.18333778  89.35667125
4820.00 -190.31629628  89.45500409
4822.00 -190.44927132  89.55339537
4824.00 -190.58226289  89.65184509
4826.00 -190.71527094  89.75035325
4828.00 -190.84829544  89.84891984
4830.00 -190.98133637  89.94754485
4832.00 -191.11439368  90.04622829
4834.00 -191.24746736  90.14497015
4836.00 -191.38055737  90.24377041
4838.00 -191.51366368  90.34262909
4840.00 -191.64678625  90.44154616
4842.00 -191.77992506  90.54052164
4844.00 -191.91308008  90.63955550
4846.00 -192.04625127  90.73864775
4848.00 -192.17943860  90.83779838
4850.00 -192.31264204  90.93700739
4852.00 -192.44586156  91.03627477
4854.00 -192.57909714  91.13560052
4856.00 -192.71234873  91.23498462
4858.00 -192.84561631  91.33442708
4860.00 -192.97889984  91.43392789
4862.00 -193.11219930  91.53348705
4864.00 -193.24551466  91.63310454
4866.00 -193.37884588  91.73278037
4868.00 -193.51219293  91.83251453
4870.00 -193.64555578  91.93230702
4872.00 -193.77893440  92.03215782
4874.00 -193.91232876  92.13206693
4876.00 -194.04573883  92.23203435
4878.00 -194.17916458  92.33206007
4880.00 -194.31260598  92.43214409
4882.00 -194.44606299  92.53228640
4884.00 -194.57953559  92.63248700
4886.00 -194.71302374  92.73274588
4888.00 -194.84652741  92.83306303
4890.00 -194.98004658  92.93343845
4892.00 -195.11358121  93.03387214
4894.00 -195.24713126  93.13436408
4896.00 -195.38069672  93.23491428
4898.00 -195.51427755  93.33552272
4900.00 -195.64787372  93.43618941
4902.00 -195.78148519  93.53691433
4904.00 -195.91511194  93.63769748
4906.00 -196.04875394  93.73853885
4908.00 -196.18241115  93.83943845
4910.00 -196.31608355  93.94039626
4912.00 -196.44977111  94.04141227
4914.00 -196.58347378  94.14248649
4916.00 -196.71719155  94.24361890
4918.00 -196.85092438  94.34480951
4920.00 -196.98467224  94.44605830
4922.00 -197.11843510  94.54736526
4924.00 -197.25221294  94.64873040
4926.00 -197.38600571  94.75015371
4928.00 -197.51981339  94.85163518
4930.00 -197.65363595  94.95317481
4932.00 -197.78747336  95.05477258
4934.00 -197.92132558  95.15642850
4936.00 -198.05519259  95.25814255
4938.00 -198.18907436  95.35991474
4940.00 -198.32297086  95.46174505
4942.00 -198.45688204  95.56363348
4944.00 -198.59080790  95.66558003
4946.00 -198.72474838  95.76758469
4948.00 -198.85870348  95.86964744
4950.00 -198.99267314  95.97176830
4952.00 -199.12665735  96.07394724
4954.00 -199.26065607  96.17618426
4956.00 -199.39466927  96.27847937
4958.00 -199.52869692  96.38083254
4960.00 -199.66273899  96.48324378
4962.00 -199.79679546  96.58571309
4964.00 -199.93086628  96.68824044
4966.00 -200.06495144  96.79082584
4968.00 -200.19905089  96.89346928
4970.00 -200.33316462  96.99617076
4972.00 -200.46729258  97.09893026
4974.00 -200.60143475  97.20174779
4976.00 -200.73559110  97.30462333
4978.00 -200.86976160  97.40755688
4980.00 -201.00394622  97.51054844
4982.00 -201.13814492  97.61359799
4984.00 -201.27235768  97.71670553
4986.00 -201.40658447  97.81987106
4988.00 -201.54082526  97.92309456
4990.00 -201.67508001  98.02637604
4992.00 -201.80934870  98.12971548
4994.00 -201.94363129  98.23311288
4996.00 -202.07792777  98.33656824
4998.00 -202.21223808  98.44008153
5000.00 -202.34656222  98.54365277
