wavelength(nm)         real         imag
100.00   3.87656599   0.00022393
102.00   3.87561934   0.00023764
104.00   3.87465396   0.00025189
106.00   3.87366984   0.00026671
108.00   3.87266698   0.00028209
110.00   3.87164539   0.00029805
112.00   3.87060506   0.00031460
114.00   3.86954599   0.00033176
116.00   3.86846819   0.00034953
118.00   3.86737165   0.00036792
120.00   3.86625638   0.00038694
122.00   3.86512237   0.00040661
124.00   3.86396963   0.00042694
126.00   3.86279816   0.00044793
128.00   3.86160795   0.00046959
130.00   3.86039902   0.00049195
132.00   3.85917135   0.00051500
134.00   3.85792495   0.00053877
136.00   3.85665982   0.00056325
138.00   3.85537595   0.00058846
140.00   3.85407336   0.00061442
142.00   3.85275205   0.00064113
144.00   3.85141200   0.00066860
146.00   3.85005322   0.00069684
148.00   3.84867572   0.00072587
150.00   3.84727949   0.00075569
152.00   3.84586454   0.00078632
154.00   3.84443086   0.00081776
156.00   3.84297846   0.00085003
158.00   3.84150733   0.00088314
160.00   3.84001748   0.00091710
162.00   3.83850890   0.00095192
164.00   3.83698161   0.00098760
166.00   3.83543559   0.00102417
168.00   3.83387085   0.00106163
170.00   3.83228739   0.00109999
172.00   3.83068522   0.00113927
174.00   3.82906432   0.00117947
176.00   3.82742471   0.00122060
178.00   3.82576638   0.00126268
180.00   3.82408933   0.00130571
182.00   3.82239357   0.00134971
184.00   3.82067909   0.00139469
186.00   3.81894590   0.00144065
188.00   3.81719399   0.00148762
190.00   3.81542338   0.00153559
192.00   3.81363405   0.00158459
194.00   3.81182601   0.00163461
196.00   3.80999926   0.00168568
198.00   3.80815379   0.00173779
200.00   3.80628963   0.00179098
202.00   3.80440675   0.00184523
204.00   3.80250516   0.00190057
206.00   3.80058487   0.00195700
208.00   3.79864588   0.00201454
210.00   3.79668818   0.00207320
212.00   3.79471177   0.00213298
214.00   3.79271667   0.00219391
216.00   3.79070286   0.00225598
218.00   3.78867035   0.00231921
220.00   3.78661914   0.00238361
222.00   3.78454923   0.00244919
224.00   3.78246062   0.00251596
226.00   3.78035332   0.00258393
228.00   3.77822732   0.00265312
230.00   3.77608262   0.00272353
232.00   3.77391923   0.00279517
234.00   3.77173714   0.00286806
236.00   3.76953637   0.00294221
238.00   3.76731690   0.00301762
240.00   3.76507874   0.00309431
242.00   3.76282189   0.00317228
244.00   3.76054635   0.00325156
246.00   3.75825212   0.00333214
248.00   3.75593921   0.00341405
250.00   3.75360761   0.00349728
252.00   3.75125732   0.00358186
254.00   3.74888835   0.00366778
256.00   3.74650070   0.00375507
258.00   3.74409437   0.00384373
260.00   3.74166936   0.00393378
262.00   3.73922566   0.00402522
264.00   3.73676329   0.00411807
266.00   3.73428224   0.00421233
268.00   3.73178252   0.00430802
270.00   3.72926412   0.00440515
272.00   3.72672704   0.00450372
274.00   3.72417130   0.00460376
276.00   3.72159688   0.00470526
278.00   3.71900379   0.00480824
280.00   3.71639202   0.00491271
282.00   3.71376160   0.00501869
284.00   3.71111250   0.00512618
286.00   3.70844474   0.00523519
288.00   3.70575831   0.00534573
290.00   3.70305322   0.00545782
292.00   3.70032947   0.00557146
294.00   3.69758705   0.00568666
296.00   3.69482597   0.00580345
298.00   3.69204624   0.00592182
300.00   3.68924785   0.00604178
302.00   3.68643080   0.00616336
304.00   3.68359509   0.00628655
306.00   3.68074073   0.00641138
308.00   3.67786772   0.00653784
310.00   3.67497606   0.00666595
312.00   3.67206574   0.00679573
314.00   3.66913678   0.00692718
316.00   3.66618917   0.00706031
318.00   3.66322291   0.00719513
320.00   3.66023801   0.00733166
322.00   3.65723446   0.00746990
324.00   3.65421227   0.00760987
326.00   3.65117144   0.00775157
328.00   3.64811197   0.00789502
330.00   3.64503386   0.00804023
332.00   3.64193712   0.00818720
334.00   3.63882173   0.00833596
336.00   3.63568772   0.00848650
338.00   3.63253506   0.00863884
340.00   3.62936378   0.00879299
342.00   3.62617387   0.00894897
344.00   3.62296533   0.00910677
346.00   3.61973816   0.00926642
348.00   3.61649236   0.00942792
350.00   3.61322794   0.00959129
352.00   3.60994490   0.00975652
354.00   3.60664323   0.00992365
356.00   3.60332294   0.01009267
358.00   3.59998404   0.01026359
360.00   3.59662651   0.01043643
362.00   3.59325037   0.01061120
364.00   3.58985562   0.01078791
366.00   3.58644225   0.01096656
368.00   3.58301027   0.01114718
370.00   3.57955968   0.01132976
372.00   3.57609048   0.01151433
374.00   3.57260268   0.01170088
376.00   3.56909626   0.01188944
378.00   3.56557125   0.01208001
380.00   3.56202763   0.01227260
382.00   3.55846541   0.01246723
384.00   3.55488459   0.01266390
386.00   3.55128518   0.01286263
388.00   3.54766716   0.01306342
390.00   3.54403055   0.01326628
392.00   3.54037535   0.01347124
394.00   3.53670156   0.01367829
396.00   3.53300918   0.01388744
398.00   3.52929821   0.01409872
400.00   3.52556865   0.01431213
402.00   3.52182051   0.01452767
404.00   3.51805378   0.01474536
406.00   3.51426847   0.01496522
408.00   3.51046458   0.01518725
410.00   3.50664211   0.01541146
412.00   3.50280107   0.01563786
414.00   3.49894145   0.01586646
416.00   3.49506326   0.01609728
418.00   3.49116649   0.01633032
420.00   3.48725116   0.01656560
422.00   3.48331725   0.01680312
424.00   3.47936478   0.01704290
426.00   3.47539375   0.01728494
428.00   3.47140415   0.01752926
430.00   3.46739599   0.01777587
432.00   3.46336927   0.01802478
434.00   3.45932399   0.01827600
436.00   3.45526016   0.01852953
438.00   3.45117777   0.01878540
440.00   3.44707683   0.01904360
442.00   3.44295734   0.01930416
444.00   3.43881929   0.01956708
446.00   3.43466271   0.01983237
448.00   3.43048757   0.02010005
450.00   3.42629389   0.02037011
452.00   3.42208167   0.02064258
454.00   3.41785091   0.02091747
456.00   3.41360162   0.02119478
458.00   3.40933378   0.02147453
460.00   3.40504741   0.02175672
462.00   3.40074251   0.02204137
464.00   3.39641908   0.02232848
466.00   3.39207712   0.02261807
468.00   3.38771663   0.02291016
470.00   3.38333762   0.02320474
472.00   3.37894008   0.02350183
474.00   3.37452402   0.02380143
476.00   3.37008945   0.02410357
478.00   3.36563635   0.02440826
480.00   3.36116474   0.02471549
482.00   3.35667462   0.02502528
484.00   3.35216599   0.02533765
486.00   3.34763884   0.02565260
488.00   3.34309319   0.02597014
490.00   3.33852903   0.02629029
492.00   3.33394637   0.02661305
494.00   3.32934521   0.02693843
496.00   3.32472555   0.02726646
498.00   3.32008739   0.02759712
500.00   3.31543073   0.02793045
502.00   3.31075559   0.02826644
504.00   3.30606194   0.02860511
506.00   3.30134981   0.02894647
508.00   3.29661920   0.02929052
510.00   3.29187009   0.02963729
512.00   3.28710251   0.02998677
514.00   3.28231644   0.03033899
516.00   3.27751190   0.03069394
518.00   3.27268887   0.03105165
520.00   3.26784737   0.03141212
522.00   3.26298740   0.03177536
524.00   3.25810896   0.03214138
526.00   3.25321205   0.03251020
528.00   3.24829667   0.03288182
530.00   3.24336283   0.03325625
532.00   3.23841053   0.03363351
534.00   3.23343976   0.03401360
536.00   3.22845054   0.03439654
538.00   3.22344286   0.03478233
540.00   3.21841673   0.03517099
542.00   3.21337215   0.03556253
544.00   3.20830912   0.03595695
546.00   3.20322764   0.03635428
548.00   3.19812772   0.03675451
550.00   3.19300935   0.03715765
552.00   3.18787255   0.03756373
554.00   3.18271730   0.03797275
556.00   3.17754362   0.03838472
558.00   3.17235151   0.03879965
560.00   3.16714096   0.03921755
562.00   3.16191199   0.03963843
564.00   3.15666459   0.04006230
566.00   3.15139876   0.04048917
568.00   3.14611452   0.04091906
570.00   3.14081185   0.04135197
572.00   3.13549076   0.04178791
574.00   3.13015126   0.04222690
576.00   3.12479335   0.04266895
578.00   3.11941702   0.04311405
580.00   3.11402229   0.04356224
582.00   3.10860915   0.04401350
584.00   3.10317761   0.04446787
586.00   3.09772767   0.04492534
588.00   3.09225933   0.04538593
590.00   3.08677259   0.04584964
592.00   3.08126745   0.04631650
594.00   3.07574393   0.04678650
596.00   3.07020201   0.04725966
598.00   3.06464171   0.04773599
600.00   3.05906303   0.04821550
602.00   3.05346596   0.04869819
604.00   3.04785051   0.04918409
606.00   3.04221669   0.04967320
608.00   3.03656449   0.05016553
610.00   3.03089392   0.05066109
612.00   3.02520497   0.05115990
614.00   3.01949767   0.05166195
616.00   3.01377199   0.05216727
618.00   3.00802795   0.05267586
620.00   3.00226556   0.05318774
622.00   2.99648480   0.05370291
624.00   2.99068569   0.05422138
626.00   2.98486823   0.05474316
628.00   2.97903242   0.05526828
630.00   2.97317826   0.05579672
632.00   2.96730576   0.05632852
634.00   2.96141491   0.05686366
636.00   2.95550572   0.05740218
638.00   2.94957820   0.05794407
640.00   2.94363234   0.05848935
642.00   2.93766815   0.05903802
644.00   2.93168563   0.05959011
646.00   2.92568479   0.06014561
648.00   2.91966562   0.06070454
650.00   2.91362812   0.06126691
652.00   2.90757231   0.06183273
654.00   2.90149819   0.06240200
656.00   2.89540574   0.06297475
658.00   2.88929499   0.06355098
660.00   2.88316593   0.06413070
662.00   2.87701856   0.06471392
664.00   2.87085289   0.06530065
666.00   2.86466892   0.06589090
668.00   2.85846665   0.06648468
670.00   2.85224609   0.06708200
672.00   2.84600723   0.06768288
674.00   2.83975009   0.06828732
676.00   2.83347465   0.06889533
678.00   2.82718093   0.06950693
680.00   2.82086893   0.07012212
682.00   2.81453866   0.07074091
684.00   2.80819010   0.07136332
686.00   2.80182327   0.07198936
688.00   2.79543818   0.07261902
690.00   2.78903481   0.07325234
692.00   2.78261318   0.07388930
694.00   2.77617328   0.07452994
696.00   2.76971513   0.07517425
698.00   2.76323872   0.07582224
700.00   2.75674406   0.07647394
702.00   2.75023114   0.07712934
704.00   2.74369998   0.07778845
706.00   2.73715057   0.07845130
708.00   2.73058292   0.07911788
710.00   2.72399702   0.07978821
712.00   2.71739290   0.08046229
714.00   2.71077053   0.08114015
716.00   2.70412994   0.08182178
718.00   2.69747112   0.08250721
720.00   2.69079407   0.08319643
722.00   2.68409880   0.08388946
724.00   2.67738531   0.08458632
726.00   2.67065360   0.08528700
728.00   2.66390368   0.08599152
730.00   2.65713555   0.08669989
732.00   2.65034921   0.08741213
734.00   2.64354466   0.08812823
736.00   2.63672191   0.08884822
738.00   2.62988097   0.08957209
740.00   2.62302182   0.09029987
742.00   2.61614448   0.09103156
744.00   2.60924896   0.09176717
746.00   2.60233524   0.09250672
748.00   2.59540334   0.09325020
750.00   2.58845326   0.09399764
752.00   2.58148500   0.09474905
754.00   2.57449857   0.09550442
756.00   2.56749396   0.09626378
758.00   2.56047119   0.09702713
760.00   2.55343024   0.09779449
762.00   2.54637114   0.09856586
764.00   2.53929387   0.09934125
766.00   2.53219845   0.10012068
768.00   2.52508487   0.10090415
770.00   2.51795314   0.10169168
772.00   2.51080327   0.10248327
774.00   2.50363524   0.10327894
776.00   2.49644908   0.10407869
778.00   2.48924478   0.10488254
780.00   2.48202234   0.10569049
782.00   2.47478177   0.10650256
784.00   2.46752307   0.10731876
786.00   2.46024624   0.10813909
788.00   2.45295129   0.10896356
790.00   2.44563822   0.10979220
792.00   2.43830704   0.11062500
794.00   2.43095774   0.11146197
796.00   2.42359033   0.11230314
798.00   2.41620481   0.11314850
800.00   2.40880119   0.11399806
802.00   2.40137947   0.11485185
804.00   2.39393964   0.11570986
806.00   2.38648173   0.11657211
808.00   2.37900572   0.11743860
810.00   2.37151163   0.11830936
812.00   2.36399945   0.11918438
814.00   2.35646919   0.12006368
816.00   2.34892085   0.12094727
818.00   2.34135443   0.12183515
820.00   2.33376994   0.12272735
822.00   2.32616739   0.12362386
824.00   2.31854677   0.12452470
826.00   2.31090808   0.12542988
828.00   2.30325134   0.12633941
830.00   2.29557654   0.12725329
832.00   2.28788369   0.12817155
834.00   2.28017279   0.12909418
836.00   2.27244385   0.13002121
838.00   2.26469686   0.13095263
840.00   2.25693184   0.13188846
842.00   2.24914878   0.13282871
844.00   2.24134768   0.13377339
846.00   2.23352856   0.13472251
848.00   2.22569141   0.13567608
850.00   2.21783624   0.13663411
852.00   2.20996305   0.13759661
854.00   2.20207185   0.13856359
856.00   2.19416263   0.13953505
858.00   2.18623540   0.14051102
860.00   2.17829017   0.14149150
862.00   2.17032694   0.14247649
864.00   2.16234571   0.14346602
866.00   2.15434648   0.14446009
868.00   2.14632926   0.14545870
870.00   2.13829406   0.14646188
872.00   2.13024087   0.14746963
874.00   2.12216970   0.14848195
876.00   2.11408055   0.14949887
878.00   2.10597342   0.15052039
880.00   2.09784833   0.15154651
882.00   2.08970527   0.15257726
884.00   2.08154424   0.15361263
886.00   2.07336526   0.15465265
888.00   2.06516831   0.15569732
890.00   2.05695342   0.15674664
892.00   2.04872057   0.15780064
894.00   2.04046978   0.15885932
896.00   2.03220105   0.15992268
898.00   2.02391437   0.16099075
900.00   2.01560976   0.16206353
902.00   2.00728722   0.16314102
904.00   1.99894675   0.16422325
906.00   1.99058836   0.16531022
908.00   1.98221204   0.16640193
910.00   1.97381781   0.16749841
912.00   1.96540566   0.16859966
914.00   1.95697560   0.16970568
916.00   1.94852763   0.17081650
918.00   1.94006177   0.17193211
920.00   1.93157800   0.17305254
922.00   1.92307633   0.17417778
924.00   1.91455678   0.17530786
926.00   1.90601933   0.17644277
928.00   1.89746400   0.17758253
930.00   1.88889079   0.17872715
932.00   1.88029970   0.17987664
934.00   1.87169074   0.18103101
936.00   1.86306390   0.18219027
938.00   1.85441920   0.18335443
940.00   1.84575664   0.18452350
942.00   1.83707621   0.18569748
944.00   1.82837793   0.18687640
946.00   1.81966180   0.18806025
948.00   1.81092783   0.18924905
950.00   1.80217600   0.19044281
952.00   1.79340634   0.19164154
954.00   1.78461884   0.19284525
956.00   1.77581350   0.19405394
958.00   1.76699034   0.19526763
960.00   1.75814935   0.19648633
962.00   1.74929054   0.19771005
964.00   1.74041391   0.19893880
966.00   1.73151947   0.20017258
968.00   1.72260722   0.20141141
970.00   1.71367716   0.20265530
972.00   1.70472929   0.20390425
974.00   1.69576363   0.20515828
976.00   1.68678018   0.20641740
978.00   1.67777893   0.20768161
980.00   1.66875989   0.20895093
982.00   1.65972307   0.21022537
984.00   1.65066847   0.21150493
986.00   1.64159610   0.21278963
988.00   1.63250595   0.21407948
990.00   1.62339804   0.21537448
992.00   1.61427236   0.21667464
994.00   1.60512892   0.21797998
996.00   1.59596772   0.21929051
998.00   1.58678877   0.22060623
1000.00   1.57759207   0.22192715
1002.00   1.56837763   0.22325329
1004.00   1.55914545   0.22458465
1006.00   1.54989553   0.22592125
1008.00   1.54062787   0.22726309
1010.00   1.53134249   0.22861019
1012.00   1.52203939   0.22996254
1014.00   1.51271856   0.23132017
1016.00   1.50338001   0.23268309
1018.00   1.49402375   0.23405129
1020.00   1.48464979   0.23542480
1022.00   1.47525811   0.23680362
1024.00   1.46584874   0.23818777
1026.00   1.45642167   0.23957724
1028.00   1.44697691   0.24097206
1030.00   1.43751445   0.24237222
1032.00   1.42803432   0.24377775
1034.00   1.41853650   0.24518865
1036.00   1.40902100   0.24660493
1038.00   1.39948783   0.24802660
1040.00   1.38993699   0.24945367
1042.00   1.38036849   0.25088615
1044.00   1.37078233   0.25232405
1046.00   1.36117851   0.25376737
1048.00   1.35155704   0.25521614
1050.00   1.34191792   0.25667035
1052.00   1.33226115   0.25813003
1054.00   1.32258674   0.25959517
1056.00   1.31289470   0.26106578
1058.00   1.30318503   0.26254189
1060.00   1.29345773   0.26402349
1062.00   1.28371280   0.26551060
1064.00   1.27395026   0.26700323
1066.00   1.26417010   0.26850138
1068.00   1.25437232   0.27000507
1070.00   1.24455695   0.27151430
1072.00   1.23472396   0.27302908
1074.00   1.22487338   0.27454944
1076.00   1.21500521   0.27607536
1078.00   1.20511944   0.27760687
1080.00   1.19521609   0.27914398
1082.00   1.18529516   0.28068669
1084.00   1.17535664   0.28223501
1086.00   1.16540056   0.28378895
1088.00   1.15542690   0.28534852
1090.00   1.14543568   0.28691374
1092.00   1.13542690   0.28848461
1094.00   1.12540057   0.29006114
1096.00   1.11535668   0.29164334
1098.00   1.10529524   0.29323122
1100.00   1.09521626   0.29482479
1102.00   1.08511973   0.29642406
1104.00   1.07500568   0.29802904
1106.00   1.06487409   0.29963974
1108.00   1.05472498   0.30125617
1110.00   1.04455834   0.30287833
1112.00   1.03437418   0.30450624
1114.00   1.02417251   0.30613991
1116.00   1.01395334   0.30777935
1118.00   1.00371665   0.30942456
1120.00   0.99346247   0.31107556
1122.00   0.98319079   0.31273235
1124.00   0.97290161   0.31439495
1126.00   0.96259495   0.31606337
1128.00   0.95227081   0.31773760
1130.00   0.94192919   0.31941767
1132.00   0.93157009   0.32110359
1134.00   0.92119352   0.32279536
1136.00   0.91079949   0.32449299
1138.00   0.90038799   0.32619649
1140.00   0.88995904   0.32790587
1142.00   0.87951263   0.32962114
1144.00   0.86904878   0.33134232
1146.00   0.85856748   0.33306940
1148.00   0.84806874   0.33480240
1150.00   0.83755257   0.33654134
1152.00   0.82701897   0.33828621
1154.00   0.81646794   0.34003703
1156.00   0.80589949   0.34179380
1158.00   0.79531363   0.34355655
1160.00   0.78471035   0.34532527
1162.00   0.77408966   0.34709997
1164.00   0.76345157   0.34888067
1166.00   0.75279608   0.35066738
1168.00   0.74212319   0.35246010
1170.00   0.73143291   0.35425884
1172.00   0.72072525   0.35606362
1174.00   0.71000021   0.35787444
1176.00   0.69925779   0.35969132
1178.00   0.68849800   0.36151425
1180.00   0.67772084   0.36334326
1182.00   0.66692632   0.36517834
1184.00   0.65611444   0.36701952
1186.00   0.64528521   0.36886679
1188.00   0.63443862   0.37072018
1190.00   0.62357470   0.37257968
1192.00   0.61269343   0.37444531
1194.00   0.60179482   0.37631708
1196.00   0.59087889   0.37819499
1198.00   0.57994563   0.38007906
1200.00   0.56899504   0.38196930
1202.00   0.55802714   0.38386571
1204.00   0.54704193   0.38576831
1206.00   0.53603941   0.38767709
1208.00   0.52501959   0.38959208
1210.00   0.51398247   0.39151329
1212.00   0.50292805   0.39344071
1214.00   0.49185634   0.39537437
1216.00   0.48076735   0.39731427
1218.00   0.46966108   0.39926041
1220.00   0.45853754   0.40121282
1222.00   0.44739672   0.40317149
1224.00   0.43623864   0.40513645
1226.00   0.42506329   0.40710769
1228.00   0.41387069   0.40908522
1230.00   0.40266084   0.41106907
1232.00   0.39143374   0.41305922
1234.00   0.38018940   0.41505571
1236.00   0.36892782   0.41705852
1238.00   0.35764901   0.41906768
1240.00   0.34635297   0.42108319
1242.00   0.33503971   0.42310507
1244.00   0.32370922   0.42513331
1246.00   0.31236153   0.42716794
1248.00   0.30099662   0.42920895
1250.00   0.28961451   0.43125637
1252.00   0.27821520   0.43331019
1254.00   0.26679870   0.43537043
1256.00   0.25536500   0.43743710
1258.00   0.24391412   0.43951020
1260.00   0.23244606   0.44158975
1262.00   0.22096083   0.44367576
1264.00   0.20945842   0.44576823
1266.00   0.19793885   0.44786717
1268.00   0.18640212   0.44997259
1270.00   0.17484823   0.45208451
1272.00   0.16327718   0.45420293
1274.00   0.15168900   0.45632786
1276.00   0.14008367   0.45845930
1278.00   0.12846120   0.46059728
1280.00   0.11682160   0.46274179
1282.00   0.10516487   0.46489285
1284.00   0.09349103   0.46705047
1286.00   0.08180006   0.46921466
1288.00   0.07009198   0.47138541
1290.00   0.05836680   0.47356276
1292.00   0.04662451   0.47574669
1294.00   0.03486512   0.47793723
1296.00   0.02308865   0.48013438
1298.00   0.01129508   0.48233815
1300.00  -0.00051557   0.48454855
1302.00  -0.01234330   0.48676559
1304.00  -0.02418810   0.48898928
1306.00  -0.03604997   0.49121963
1308.00  -0.04792890   0.49345664
1310.00  -0.05982489   0.49570033
1312.00  -0.07173793   0.49795071
1314.00  -0.08366802   0.50020778
1316.00  -0.09561516   0.50247155
1318.00  -0.10757933   0.50474203
1320.00  -0.11956053   0.50701924
1322.00  -0.13155877   0.50930318
1324.00  -0.14357402   0.51159385
1326.00  -0.15560630   0.51389128
1328.00  -0.16765559   0.51619546
1330.00  -0.17972188   0.51850641
1332.00  -0.19180518   0.52082414
1334.00  -0.20390548   0.52314866
1336.00  -0.21602277   0.52547996
1338.00  -0.22815705   0.52781807
1340.00  -0.24030831   0.53016300
1342.00  -0.25247655   0.53251475
1344.00  -0.26466176   0.53487332
1346.00  -0.27686394   0.53723874
1348.00  -0.28908308   0.53961101
1350.00  -0.30131918   0.54199013
1352.00  -0.31357223   0.54437612
1354.00  -0.32584223   0.54676899
1356.00  -0.33812917   0.54916875
1358.00  -0.35043305   0.55157539
1360.00  -0.36275386   0.55398895
1362.00  -0.37509160   0.55640941
1364.00  -0.38744625   0.55883679
1366.00  -0.39981783   0.56127111
1368.00  -0.41220631   0.56371237
1370.00  -0.42461170   0.56616057
1372.00  -0.43703400   0.56861573
1374.00  -0.44947319   0.57107786
1376.00  -0.46192926   0.57354697
1378.00  -0.47440223   0.57602305
1380.00  -0.48689207   0.57850614
1382.00  -0.49939879   0.58099622
1384.00  -0.51192238   0.58349332
1386.00  -0.52446284   0.58599744
1388.00  -0.53702015   0.58850858
1390.00  -0.54959432   0.59102677
1392.00  -0.56218533   0.59355200
1394.00  -0.57479319   0.59608429
1396.00  -0.58741789   0.59862365
1398.00  -0.60005942   0.60117007
1400.00  -0.61271778   0.60372359
1402.00  -0.62539296   0.60628419
1404.00  -0.63808496   0.60885190
1406.00  -0.65079378   0.61142671
1408.00  -0.66351940   0.61400865
1410.00  -0.67626182   0.61659771
1412.00  -0.68902103   0.61919391
1414.00  -0.70179704   0.62179726
1416.00  -0.71458983   0.62440776
1418.00  -0.72739941   0.62702543
1420.00  -0.74022576   0.62965026
1422.00  -0.75306887   0.63228228
1424.00  -0.76592876   0.63492149
1426.00  -0.77880540   0.63756790
1428.00  -0.79169880   0.64022151
1430.00  -0.80460894   0.64288235
1432.00  -0.81753583   0.64555041
1434.00  -0.83047945   0.64822570
1436.00  -0.84343981   0.65090824
1438.00  -0.85641689   0.65359803
1440.00  -0.86941070   0.65629508
1442.00  -0.88242122   0.65899940
1444.00  -0.89544846   0.66171100
1446.00  -0.90849239   0.66442989
1448.00  -0.92155303   0.66715607
1450.00  -0.93463037   0.66988956
1452.00  -0.94772439   0.67263037
1454.00  -0.96083510   0.67537850
1456.00  -0.97396248   0.67813395
1458.00  -0.98710654   0.68089675
1460.00  -1.00026726   0.68366690
1462.00  -1.01344465   0.68644441
1464.00  -1.02663869   0.68922929
1466.00  -1.03984939   0.69202154
1468.00  -1.05307673   0.69482117
1470.00  -1.06632071   0.69762820
1472.00  -1.07958132   0.70044264
1474.00  -1.09285857   0.70326448
1476.00  -1.10615244   0.70609374
1478.00  -1.11946292   0.70893043
1480.00  -1.13279002   0.71177456
1482.00  -1.14613373   0.71462613
1484.00  -1.15949404   0.71748516
1486.00  -1.17287094   0.72035165
1488.00  -1.18626444   0.72322562
1490.00  -1.19967452   0.72610706
1492.00  -1.21310118   0.72899600
1494.00  -1.22654442   0.73189243
1496.00  -1.24000422   0.73479637
1498.00  -1.25348059   0.73770783
1500.00  -1.26697351   0.74062681
1502.00  -1.28048299   0.74355332
1504.00  -1.29400901   0.74648738
1506.00  -1.30755157   0.74942898
1508.00  -1.32111067   0.75237815
1510.00  -1.33468630   0.75533488
1512.00  -1.34827845   0.75829919
1514.00  -1.36188712   0.76127109
1516.00  -1.37551230   0.76425058
1518.00  -1.38915400   0.76723767
1520.00  -1.40281219   0.77023237
1522.00  -1.41648688   0.77323469
1524.00  -1.43017805   0.77624465
1526.00  -1.44388572   0.77926223
1528.00  -1.45760986   0.78228747
1530.00  -1.47135048   0.78532036
1532.00  -1.48510756   0.78836091
1534.00  -1.49888111   0.79140913
1536.00  -1.51267111   0.79446503
1538.00  -1.52647756   0.79752863
1540.00  -1.54030046   0.80059992
1542.00  -1.55413980   0.80367891
1544.00  -1.56799557   0.80676562
1546.00  -1.58186777   0.80986006
1548.00  -1.59575639   0.81296222
1550.00  -1.60966143   0.81607213
1552.00  -1.62358288   0.81918978
1554.00  -1.63752073   0.82231519
1556.00  -1.65147499   0.82544837
1558.00  -1.66544564   0.82858932
1560.00  -1.67943267   0.83173806
1562.00  -1.69343609   0.83489458
1564.00  -1.70745589   0.83805891
1566.00  -1.72149205   0.84123105
1568.00  -1.73554458   0.84441100
1570.00  -1.74961348   0.84759878
1572.00  -1.76369872   0.85079439
1574.00  -1.77780031   0.85399785
1576.00  -1.79191825   0.85720915
1578.00  -1.80605252   0.86042832
1580.00  -1.82020312   0.86365536
1582.00  -1.83437004   0.86689027
1584.00  -1.84855329   0.87013307
1586.00  -1.86275284   0.87338376
1588.00  -1.87696871   0.87664235
1590.00  -1.89120087   0.87990885
1592.00  -1.90544934   0.88318328
1594.00  -1.91971409   0.88646563
1596.00  -1.93399512   0.88975591
1598.00  -1.94829244   0.89305414
1600.00  -1.96260602   0.89636033
1602.00  -1.97693588   0.89967447
1604.00  -1.99128199   0.90299659
1606.00  -2.00564436   0.90632668
1608.00  -2.02002297   0.90966476
1610.00  -2.03441783   0.91301083
1612.00  -2.04882893   0.91636491
1614.00  -2.06325626   0.91972700
1616.00  -2.07769981   0.92309711
1618.00  -2.09215958   0.92647525
1620.00  -2.10663557   0.92986143
1622.00  -2.12112776   0.93325565
1624.00  -2.13563615   0.93665792
1626.00  -2.15016075   0.94006826
1628.00  -2.16470153   0.94348666
1630.00  -2.17925849   0.94691315
1632.00  -2.19383163   0.95034772
1634.00  -2.20842095   0.95379039
1636.00  -2.22302643   0.95724117
1638.00  -2.23764807   0.96070005
1640.00  -2.25228586   0.96416706
1642.00  -2.26693981   0.96764219
1644.00  -2.28160989   0.97112546
1646.00  -2.29629611   0.97461688
1648.00  -2.31099847   0.97811645
1650.00  -2.32571694   0.98162418
1652.00  -2.34045154   0.98514009
1654.00  -2.35520224   0.98866417
1656.00  -2.36996906   0.99219644
1658.00  -2.38475197   0.99573690
1660.00  -2.39955098   0.99928557
1662.00  -2.41436607   1.00284245
1664.00  -2.42919725   1.00640755
1666.00  -2.44404451   1.00998088
1668.00  -2.45890783   1.01356244
1670.00  -2.47378722   1.01715225
1672.00  -2.48868267   1.02075032
1674.00  -2.50359417   1.02435664
1676.00  -2.51852171   1.02797124
1678.00  -2.53346530   1.03159411
1680.00  -2.54842492   1.03522527
1682.00  -2.56340057   1.03886472
1684.00  -2.57839223   1.04251247
1686.00  -2.59339992   1.04616854
1688.00  -2.60842361   1.04983292
1690.00  -2.62346331   1.05350563
1692.00  -2.63851900   1.05718668
1694.00  -2.65359069   1.06087607
1696.00  -2.66867836   1.06457381
1698.00  -2.68378201   1.06827991
1700.00  -2.69890164   1.07199438
1702.00  -2.71403723   1.07571723
1704.00  -2.72918878   1.07944846
1706.00  -2.74435628   1.08318808
1708.00  -2.75953974   1.08693610
1710.00  -2.77473913   1.09069254
1712.00  -2.78995446   1.09445738
1714.00  -2.80518573   1.09823066
1716.00  -2.82043291   1.10201236
1718.00  -2.83569601   1.10580251
1720.00  -2.85097503   1.10960111
1722.00  -2.86626995   1.11340816
1724.00  -2.88158077   1.11722368
1726.00  -2.89690748   1.12104768
1728.00  -2.91225008   1.12488015
1730.00  -2.92760856   1.12872112
1732.00  -2.94298291   1.13257058
1734.00  -2.95837313   1.13642855
1736.00  -2.97377922   1.14029503
1738.00  -2.98920116   1.14417004
1740.00  -3.00463894   1.14805358
1742.00  -3.02009258   1.15194565
1744.00  -3.03556205   1.15584627
1746.00  -3.05104734   1.15975544
1748.00  -3.06654847   1.16367318
1750.00  -3.08206541   1.16759949
1752.00  -3.09759816   1.17153437
1754.00  -3.11314672   1.17547784
1756.00  -3.12871108   1.17942991
1758.00  -3.14429124   1.18339058
1760.00  -3.15988718   1.18735986
1762.00  -3.17549890   1.19133776
1764.00  -3.19112639   1.19532428
1766.00  -3.20676965   1.19931944
1768.00  -3.22242868   1.20332324
1770.00  -3.23810345   1.20733569
1772.00  -3.25379398   1.21135680
1774.00  -3.26950025   1.21538657
1776.00  -3.28522226   1.21942502
1778.00  -3.30096000   1.22347215
1780.00  -3.31671346   1.22752797
1782.00  -3.33248264   1.23159249
1784.00  -3.34826753   1.23566572
1786.00  -3.36406813   1.23974766
1788.00  -3.37988442   1.24383832
1790.00  -3.39571640   1.24793771
1792.00  -3.41156408   1.25204584
1794.00  -3.42742743   1.25616271
1796.00  -3.44330645   1.26028834
1798.00  -3.45920114   1.26442273
1800.00  -3.47511149   1.26856589
1802.00  -3.49103750   1.27271782
1804.00  -3.50697915   1.27687854
1806.00  -3.52293644   1.28104806
1808.00  -3.53890937   1.28522637
1810.00  -3.55489792   1.28941349
1812.00  -3.57090210   1.29360943
1814.00  -3.58692189   1.29781419
1816.00  -3.60295730   1.30202779
1818.00  -3.61900830   1.30625022
1820.00  -3.63507490   1.31048150
1822.00  -3.65115709   1.31472164
1824.00  -3.66725487   1.31897064
1826.00  -3.68336822   1.32322852
1828.00  -3.69949714   1.32749527
1830.00  -3.71564163   1.33177090
1832.00  -3.73180167   1.33605544
1834.00  -3.74797726   1.34034887
1836.00  -3.76416840   1.34465122
1838.00  -3.78037508   1.34896248
1840.00  -3.79659729   1.35328267
1842.00  -3.81283502   1.35761179
1844.00  -3.82908827   1.36194985
1846.00  -3.84535704   1.36629687
1848.00  -3.86164130   1.37065284
1850.00  -3.87794107   1.37501777
1852.00  -3.89425634   1.37939168
1854.00  -3.91058708   1.38377456
1856.00  -3.92693331   1.38816643
1858.00  -3.94329501   1.39256730
1860.00  -3.95967218   1.39697717
1862.00  -3.97606480   1.40139606
1864.00  -3.99247288   1.40582396
1866.00  -4.00889641   1.41026089
1868.00  -4.02533538   1.41470685
1870.00  -4.04178978   1.41916185
1872.00  -4.05825961   1.42362590
1874.00  -4.07474486   1.42809901
1876.00  -4.09124552   1.43258118
1878.00  -4.10776159   1.43707243
1880.00  -4.12429307   1.44157275
1882.00  -4.14083993   1.44608216
1884.00  -4.15740219   1.45060067
1886.00  -4.17397982   1.45512828
1888.00  -4.19057283   1.45966500
1890.00  -4.20718121   1.46421084
1892.00  -4.22380495   1.46876581
1894.00  -4.24044404   1.47332990
1896.00  -4.25709849   1.47790314
1898.00  -4.27376827   1.48248553
1900.00  -4.29045339   1.48707707
1902.00  -4.30715384   1.49167778
1904.00  -4.32386961   1.49628766
1906.00  -4.34060069   1.50090671
1908.00  -4.35734709   1.50553496
1910.00  -4.37410878   1.51017240
1912.00  -4.39088577   1.51481903
1914.00  -4.40767805   1.51947488
1916.00  -4.42448561   1.52413995
1918.00  -4.44130844   1.52881423
1920.00  -4.45814655   1.53349775
1922.00  -4.47499991   1.53819051
1924.00  -4.49186853   1.54289252
1926.00  -4.50875240   1.54760378
1928.00  -4.52565151   1.55232430
1930.00  -4.54256586   1.55705409
1932.00  -4.55949543   1.56179316
1934.00  -4.57644023   1.56654151
1936.00  -4.59340024   1.57129916
1938.00  -4.61037546   1.57606610
1940.00  -4.62736588   1.58084235
1942.00  -4.64437150   1.58562791
1944.00  -4.66139230   1.59042280
1946.00  -4.67842828   1.59522701
1948.00  -4.69547944   1.60004056
1950.00  -4.71254577   1.60486346
1952.00  -4.72962726   1.60969570
1954.00  -4.74672390   1.61453731
1956.00  -4.76383569   1.61938828
1958.00  -4.78096262   1.62424862
1960.00  -4.79810469   1.62911835
1962.00  -4.81526188   1.63399747
1964.00  -4.83243419   1.63888598
1966.00  -4.84962162   1.64378389
1968.00  -4.86682416   1.64869121
1970.00  -4.88404179   1.65360796
1972.00  -4.90127452   1.65853412
1974.00  -4.91852233   1.66346972
1976.00  -4.93578522   1.66841477
1978.00  -4.95306319   1.67336925
1980.00  -4.97035622   1.67833320
1982.00  -4.98766432   1.68330660
1984.00  -5.00498746   1.68828948
1986.00  -5.02232565   1.69328183
1988.00  -5.03967888   1.69828367
1990.00  -5.05704714   1.70329500
1992.00  -5.07443043   1.70831582
1994.00  -5.09182874   1.71334615
1996.00  -5.10924205   1.71838600
1998.00  -5.12667038   1.72343537
2000.00  -5.14411370   1.72849426
2002.00  -5.16157201   1.73356270
2004.00  -5.17904530   1.73864067
2006.00  -5.19653357   1.74372819
2008.00  -5.21403682   1.74882527
2010.00  -5.23155502   1.75393192
2012.00  -5.24908818   1.75904814
2014.00  -5.26663630   1.76417393
2016.00  -5.28419935   1.76930931
2018.00  -5.30177734   1.77445429
2020.00  -5.31937026   1.77960887
2022.00  -5.33697811   1.78477305
2024.00  -5.35460086   1.78994685
2026.00  -5.37223853   1.79513027
2028.00  -5.38989110   1.80032332
2030.00  -5.40755856   1.80552601
2032.00  -5.42524091   1.81073834
2034.00  -5.44293814   1.81596033
2036.00  -5.46065025   1.82119197
2038.00  -5.47837722   1.82643327
2040.00  -5.49611905   1.83168425
2042.00  -5.51387573   1.83694491
2044.00  -5.53164726   1.84221526
2046.00  -5.54943363   1.84749530
2048.00  -5.56723484   1.85278504
2050.00  -5.58505086   1.85808449
2052.00  -5.60288171   1.86339366
2054.00  -5.62072736   1.86871255
2056.00  -5.63858782   1.87404117
2058.00  -5.65646308   1.87937952
2060.00  -5.67435313   1.88472762
2062.00  -5.69225796   1.89008547
2064.00  -5.71017757   1.89545308
2066.00  -5.72811194   1.90083046
2068.00  -5.74606108   1.90621760
2070.00  -5.76402498   1.91161453
2072.00  -5.78200362   1.91702124
2074.00  -5.79999700   1.92243775
2076.00  -5.81800512   1.92786406
2078.00  -5.83602797   1.93330017
2080.00  -5.85406553   1.93874610
2082.00  -5.87211781   1.94420185
2084.00  -5.89018480   1.94966744
2086.00  -5.90826648   1.95514285
2088.00  -5.92636286   1.96062811
2090.00  -5.94447392   1.96612322
2092.00  -5.96259966   1.97162819
2094.00  -5.98074007   1.97714302
2096.00  -5.99889514   1.98266772
2098.00  -6.01706487   1.98820230
2100.00  -6.03524925   1.99374676
2102.00  -6.05344827   1.99930112
2104.00  -6.07166193   2.00486538
2106.00  -6.08989022   2.01043954
2108.00  -6.10813313   2.01602361
2110.00  -6.12639065   2.02161760
2112.00  -6.14466278   2.02722153
2114.00  -6.16294951   2.03283538
2116.00  -6.18125084   2.03845917
2118.00  -6.19956675   2.04409292
2120.00  -6.21789724   2.04973661
2122.00  -6.23624230   2.05539027
2124.00  -6.25460192   2.06105390
2126.00  -6.27297610   2.06672750
2128.00  -6.29136484   2.07241108
2130.00  -6.30976811   2.07810466
2132.00  -6.32818592   2.08380823
2134.00  -6.34661827   2.08952180
2136.00  -6.36506513   2.09524538
2138.00  -6.38352651   2.10097898
2140.00  -6.40200239   2.10672260
2142.00  -6.42049278   2.11247625
2144.00  -6.43899766   2.11823994
2146.00  -6.45751702   2.12401367
2148.00  -6.47605087   2.12979745
2150.00  -6.49459918   2.13559129
2152.00  -6.51316196   2.14139520
2154.00  -6.53173920   2.14720917
2156.00  -6.55033089   2.15303323
2158.00  -6.56893702   2.15886737
2160.00  -6.58755759   2.16471160
2162.00  -6.60619259   2.17056593
2164.00  -6.62484200   2.17643036
2166.00  -6.64350584   2.18230491
2168.00  -6.66218407   2.18818957
2170.00  -6.68087671   2.19408436
2172.00  -6.69958375   2.19998928
2174.00  -6.71830516   2.20590434
2176.00  -6.73704096   2.21182955
2178.00  -6.75579113   2.21776491
2180.00  -6.77455566   2.22371043
2182.00  -6.79333454   2.22966612
2184.00  -6.81212778   2.23563197
2186.00  -6.83093536   2.24160801
2188.00  -6.84975727   2.24759424
2190.00  -6.86859351   2.25359065
2192.00  -6.88744408   2.25959727
2194.00  -6.90630895   2.26561409
2196.00  -6.92518813   2.27164112
2198.00  -6.94408161   2.27767838
2200.00  -6.96298938   2.28372586
2202.00  -6.98191144   2.28978357
2204.00  -7.00084777   2.29585153
2206.00  -7.01979837   2.30192973
2208.00  -7.03876323   2.30801818
2210.00  -7.05774235   2.31411689
2212.00  -7.07673572   2.32022587
2214.00  -7.09574333   2.32634512
2216.00  -7.11476517   2.33247465
2218.00  -7.13380123   2.33861447
2220.00  -7.15285152   2.34476457
2222.00  -7.17191601   2.35092498
2224.00  -7.19099471   2.35709570
2226.00  -7.21008761   2.36327672
2228.00  -7.22919470   2.36946807
2230.00  -7.24831596   2.37566974
2232.00  -7.26745141   2.38188174
2234.00  -7.28660102   2.38810408
2236.00  -7.30576479   2.39433677
2238.00  -7.32494271   2.40057981
2240.00  -7.34413478   2.40683321
2242.00  -7.36334098   2.41309697
2244.00  -7.38256132   2.41937110
2246.00  -7.40179578   2.42565561
2248.00  -7.42104436   2.43195051
2250.00  -7.44030704   2.43825580
2252.00  -7.45958383   2.44457148
2254.00  -7.47887471   2.45089757
2256.00  -7.49817967   2.45723407
2258.00  -7.51749872   2.46358098
2260.00  -7.53683184   2.46993832
2262.00  -7.55617902   2.47630609
2264.00  -7.57554026   2.48268430
2266.00  -7.59491555   2.48907294
2268.00  -7.61430488   2.49547204
2270.00  -7.63370824   2.50188160
2272.00  -7.65312564   2.50830161
2274.00  -7.67255705   2.51473209
2276.00  -7.69200248   2.52117305
2278.00  -7.71146191   2.52762449
2280.00  -7.73093534   2.53408642
2282.00  -7.75042276   2.54055885
2284.00  -7.76992416   2.54704177
2286.00  -7.78943954   2.55353520
2288.00  -7.80896889   2.56003914
2290.00  -7.82851219   2.56655361
2292.00  -7.84806946   2.57307860
2294.00  -7.86764066   2.57961412
2296.00  -7.88722581   2.58616018
2298.00  -7.90682488   2.59271679
2300.00  -7.92643789   2.59928395
2302.00  -7.94606480   2.60586167
2304.00  -7.96570563   2.61244995
2306.00  -7.98536035   2.61904880
2308.00  -8.00502897   2.62565823
2310.00  -8.02471148   2.63227824
2312.00  -8.04440787   2.63890884
2314.00  -8.06411812   2.64555004
2316.00  -8.08384224   2.65220184
2318.00  -8.10358022   2.65886425
2320.00  -8.12333205   2.66553727
2322.00  -8.14309772   2.67222092
2324.00  -8.16287722   2.67891519
2326.00  -8.18267055   2.68562010
2328.00  -8.20247770   2.69233564
2330.00  -8.22229865   2.69906184
2332.00  -8.24213342   2.70579868
2334.00  -8.26198198   2.71254618
2336.00  -8.28184433   2.71930435
2338.00  -8.30172046   2.72607319
2340.00  -8.32161036   2.73285271
2342.00  -8.34151403   2.73964291
2344.00  -8.36143147   2.74644380
2346.00  -8.38136265   2.75325538
2348.00  -8.40130757   2.76007767
2350.00  -8.42126624   2.76691067
2352.00  -8.44123863   2.77375438
2354.00  -8.46122474   2.78060881
2356.00  -8.48122457   2.78747397
2358.00  -8.50123810   2.79434986
2360.00  -8.52126533   2.80123649
2362.00  -8.54130625   2.80813387
2364.00  -8.56136086   2.81504200
2366.00  -8.58142914   2.82196089
2368.00  -8.60151110   2.82889053
2370.00  -8.62160671   2.83583095
2372.00  -8.64171597   2.84278215
2374.00  -8.66183889   2.84974413
2376.00  -8.68197544   2.85671689
2378.00  -8.70212562   2.86370045
2380.00  -8.72228942   2.87069482
2382.00  -8.74246684   2.87769998
2384.00  -8.76265787   2.88471596
2386.00  -8.78286250   2.89174276
2388.00  -8.80308072   2.89878039
2390.00  -8.82331253   2.90582884
2392.00  -8.84355791   2.91288813
2394.00  -8.86381686   2.91995827
2396.00  -8.88408938   2.92703925
2398.00  -8.90437545   2.93413109
2400.00  -8.92467507   2.94123379
2402.00  -8.94498823   2.94834735
2404.00  -8.96531492   2.95547179
2406.00  -8.98565514   2.96260711
2408.00  -9.00600887   2.96975331
2410.00  -9.02637611   2.97691041
2412.00  -9.04675685   2.98407840
2414.00  -9.06715109   2.99125729
2416.00  -9.08755881   2.99844710
2418.00  -9.10798001   3.00564782
2420.00  -9.12841469   3.01285946
2422.00  -9.14886282   3.02008202
2424.00  -9.16932441   3.02731552
2426.00  -9.18979945   3.03455996
2428.00  -9.21028793   3.04181534
2430.00  -9.23078985   3.04908168
2432.00  -9.25130519   3.05635897
2434.00  -9.27183394   3.06364722
2436.00  -9.29237611   3.07094644
2438.00  -9.31293168   3.07825664
2440.00  -9.33350064   3.08557781
2442.00  -9.35408299   3.09290997
2444.00  -9.37467872   3.10025313
2446.00  -9.39528782   3.10760728
2448.00  -9.41591028   3.11497243
2450.00  -9.43654610   3.12234860
2452.00  -9.45719527   3.12973578
2454.00  -9.47785778   3.13713398
2456.00  -9.49853362   3.14454321
2458.00  -9.51922279   3.15196347
2460.00  -9.53992527   3.15939477
2462.00  -9.56064107   3.16683711
2464.00  -9.58137016   3.17429051
2466.00  -9.60211256   3.18175496
2468.00  -9.62286823   3.18923048
2470.00  -9.64363719   3.19671706
2472.00  -9.66441942   3.20421471
2474.00  -9.68521492   3.21172345
2476.00  -9.70602366   3.21924327
2478.00  -9.72684566   3.22677418
2480.00  -9.74768090   3.23431619
2482.00  -9.76852937   3.24186930
2484.00  -9.78939107   3.24943352
2486.00  -9.81026598   3.25700885
2488.00  -9.83115410   3.26459530
2490.00  -9.85205543   3.27219288
2492.00  -9.87296995   3.27980159
2494.00  -9.89389765   3.28742143
2496.00  -9.91483854   3.29505242
2498.00  -9.93579259   3.30269456
2500.00  -9.95675981   3.31034785
2502.00  -9.97774018   3.31801230
2504.00  -9.99873370   3.32568792
2506.00 -10.01974036   3.33337470
2508.00 -10.04076016   3.34107267
2510.00 -10.06179307   3.34878181
2512.00 -10.08283911   3.35650215
2514.00 -10.10389825   3.36423368
2516.00 -10.12497049   3.37197640
2518.00 -10.14605583   3.37973034
2520.00 -10.16715425   3.38749548
2522.00 -10.18826575   3.39527184
2524.00 -10.20939032   3.40305942
2526.00 -10.23052796   3.41085823
2528.00 -10.25167864   3.41866827
2530.00 -10.27284237   3.42648955
2532.00 -10.29401915   3.43432208
2534.00 -10.31520895   3.44216585
2536.00 -10.33641177   3.45002088
2538.00 -10.35762761   3.45788718
2540.00 -10.37885646   3.46576473
2542.00 -10.40009831   3.47365357
2544.00 -10.42135315   3.48155367
2546.00 -10.44262098   3.48946507
2548.00 -10.46390178   3.49738775
2550.00 -10.48519554   3.50532172
2552.00 -10.50650227   3.51326700
2554.00 -10.52782196   3.52122358
2556.00 -10.54915458   3.52919147
2558.00 -10.57050015   3.53717068
2560.00 -10.59185864   3.54516121
2562.00 -10.61323005   3.55316306
2564.00 -10.63461438   3.56117625
2566.00 -10.65601162   3.56920078
2568.00 -10.67742175   3.57723665
2570.00 -10.69884477   3.58528388
2572.00 -10.72028068   3.59334245
2574.00 -10.74172945   3.60141239
2576.00 -10.76319110   3.60949369
2578.00 -10.78466560   3.61758637
2580.00 -10.80615296   3.62569042
2582.00 -10.82765316   3.63380585
2584.00 -10.84916619   3.64193267
2586.00 -10.87069205   3.65007088
2588.00 -10.89223073   3.65822049
2590.00 -10.91378222   3.66638151
2592.00 -10.93534651   3.67455393
2594.00 -10.95692360   3.68273777
2596.00 -10.97851348   3.69093303
2598.00 -11.00011614   3.69913971
2600.00 -11.02173157   3.70735782
2602.00 -11.04335976   3.71558737
2604.00 -11.06500071   3.72382836
2606.00 -11.08665441   3.73208080
2608.00 -11.10832085   3.74034469
2610.00 -11.13000002   3.74862004
2612.00 -11.15169192   3.75690685
2614.00 -11.17339653   3.76520513
2616.00 -11.19511385   3.77351488
2618.00 -11.21684387   3.78183611
2620.00 -11.23858659   3.79016882
2622.00 -11.26034199   3.79851302
2624.00 -11.28211007   3.80686872
2626.00 -11.30389082   3.81523592
2628.00 -11.32568423   3.82361462
2630.00 -11.34749029   3.83200483
2632.00 -11.36930900   3.84040656
2634.00 -11.39114035   3.84881981
2636.00 -11.41298432   3.85724458
2638.00 -11.43484092   3.86568089
2640.00 -11.45671013   3.87412873
2642.00 -11.47859195   3.88258811
2644.00 -11.50048636   3.89105905
2646.00 -11.52239337   3.89954153
2648.00 -11.54431296   3.90803557
2650.00 -11.56624512   3.91654117
2652.00 -11.58818985   3.92505835
2654.00 -11.61014713   3.93358709
2656.00 -11.63211697   3.94212741
2658.00 -11.65409935   3.95067932
2660.00 -11.67609426   3.95924281
2662.00 -11.69810170   3.96781790
2664.00 -11.72012166   3.97640459
2666.00 -11.74215413   3.98500288
2668.00 -11.76419910   3.99361278
2670.00 -11.78625656   4.00223430
2672.00 -11.80832652   4.01086743
2674.00 -11.83040895   4.01951219
2676.00 -11.85250385   4.02816858
2678.00 -11.87461121   4.03683660
2680.00 -11.89673103   4.04551626
2682.00 -11.91886330   4.05420757
2684.00 -11.94100800   4.06291053
2686.00 -11.96316514   4.07162514
2688.00 -11.98533470   4.08035142
2690.00 -12.00751667   4.08908936
2692.00 -12.02971105   4.09783896
2694.00 -12.05191783   4.10660025
2696.00 -12.07413700   4.11537321
2698.00 -12.09636855   4.12415786
2700.00 -12.11861248   4.13295420
2702.00 -12.14086878   4.14176224
2704.00 -12.16313743   4.15058198
2706.00 -12.18541843   4.15941342
2708.00 -12.20771178   4.16825657
2710.00 -12.23001746   4.17711144
2712.00 -12.25233547   4.18597803
2714.00 -12.27466580   4.19485635
2716.00 -12.29700843   4.20374639
2718.00 -12.31936337   4.21264818
2720.00 -12.34173061   4.22156170
2722.00 -12.36411013   4.23048696
2724.00 -12.38650193   4.23942398
2726.00 -12.40890600   4.24837275
2728.00 -12.43132234   4.25733329
2730.00 -12.45375093   4.26630559
2732.00 -12.47619176   4.27528966
2734.00 -12.49864484   4.28428550
2736.00 -12.52111014   4.29329312
2738.00 -12.54358767   4.30231253
2740.00 -12.56607741   4.31134373
2742.00 -12.58857936   4.32038673
2744.00 -12.61109350   4.32944152
2746.00 -12.63361984   4.33850812
2748.00 -12.65615836   4.34758652
2750.00 -12.67870905   4.35667675
2752.00 -12.70127191   4.36577879
2754.00 -12.72384692   4.37489265
2756.00 -12.74643409   4.38401834
2758.00 -12.76903340   4.39315587
2760.00 -12.79164484   4.40230524
2762.00 -12.81426841   4.41146645
2764.00 -12.83690410   4.42063950
2766.00 -12.85955189   4.42982441
2768.00 -12.88221179   4.43902118
2770.00 -12.90488378   4.44822981
2772.00 -12.92756786   4.45745031
2774.00 -12.95026401   4.46668268
2776.00 -12.97297224   4.47592692
2778.00 -12.99569252   4.48518305
2780.00 -13.01842486   4.49445107
2782.00 -13.04116924   4.50373098
2784.00 -13.06392566   4.51302278
2786.00 -13.08669411   4.52232648
2788.00 -13.10947458   4.53164209
2790.00 -13.13226706   4.54096961
2792.00 -13.15507155   4.55030904
2794.00 -13.17788804   4.55966040
2796.00 -13.20071651   4.56902367
2798.00 -13.22355696   4.57839888
2800.00 -13.24640939   4.58778602
2802.00 -13.26927378   4.59718510
2804.00 -13.29215012   4.60659612
2806.00 -13.31503841   4.61601909
2808.00 -13.33793865   4.62545402
2810.00 -13.36085081   4.63490090
2812.00 -13.38377490   4.64435974
2814.00 -13.40671091   4.65383055
2816.00 -13.42965882   4.66331333
2818.00 -13.45261863   4.67280809
2820.00 -13.47559033   4.68231482
2822.00 -13.49857392   4.69183354
2824.00 -13.52156938   4.70136425
2826.00 -13.54457670   4.71090696
2828.00 -13.56759589   4.72046166
2830.00 -13.59062693   4.73002837
2832.00 -13.61366981   4.73960709
2834.00 -13.63672452   4.74919782
2836.00 -13.65979106   4.75880056
2838.00 -13.68286942   4.76841533
2840.00 -13.70595958   4.77804213
2842.00 -13.72906155   4.78768095
2844.00 -13.75217532   4.79733181
2846.00 -13.77530087   4.80699471
2848.00 -13.79843819   4.81666966
2850.00 -13.82158729   4.82635666
2852.00 -13.84474815   4.83605570
2854.00 -13.86792075   4.84576681
2856.00 -13.89110511   4.85548998
2858.00 -13.91430120   4.86522522
2860.00 -13.93750902   4.87497253
2862.00 -13.96072856   4.88473191
2864.00 -13.98395981   4.89450338
2866.00 -14.00720277   4.90428693
2868.00 -14.03045742   4.91408257
2870.00 -14.05372376   4.92389031
2872.00 -14.07700178   4.93371014
2874.00 -14.10029147   4.94354208
2876.00 -14.12359283   4.95338612
2878.00 -14.14690584   4.96324228
2880.00 -14.17023050   4.97311055
2882.00 -14.19356679   4.98299095
2884.00 -14.21691472   4.99288347
2886.00 -14.24027427   5.00278812
2888.00 -14.26364543   5.01270490
2890.00 -14.28702820   5.02263382
2892.00 -14.31042257   5.03257489
2894.00 -14.33382852   5.04252810
2896.00 -14.35724606   5.05249346
2898.00 -14.38067517   5.06247098
2900.00 -14.40411585   5.07246066
2902.00 -14.42756808   5.08246251
2904.00 -14.45103187   5.09247652
2906.00 -14.47450719   5.10250271
2908.00 -14.49799405   5.11254107
2910.00 -14.52149243   5.12259162
2912.00 -14.54500232   5.13265435
2914.00 -14.56852373   5.14272928
2916.00 -14.59205663   5.15281640
2918.00 -14.61560103   5.16291572
2920.00 -14.63915691   5.17302724
2922.00 -14.66272426   5.18315097
2924.00 -14.68630308   5.19328692
2926.00 -14.70989336   5.20343508
2928.00 -14.73349509   5.21359546
2930.00 -14.75710827   5.22376806
2932.00 -14.78073287   5.23395290
2934.00 -14.80436891   5.24414997
2936.00 -14.82801636   5.25435928
2938.00 -14.85167522   5.26458083
2940.00 -14.87534548   5.27481462
2942.00 -14.89902714   5.28506067
2944.00 -14.92272018   5.29531897
2946.00 -14.94642459   5.30558953
2948.00 -14.97014038   5.31587235
2950.00 -14.99386752   5.32616744
2952.00 -15.01760602   5.33647481
2954.00 -15.04135586   5.34679445
2956.00 -15.06511704   5.35712636
2958.00 -15.08888954   5.36747057
2960.00 -15.11267336   5.37782706
2962.00 -15.13646850   5.38819584
2964.00 -15.16027493   5.39857692
2966.00 -15.18409267   5.40897030
2968.00 -15.20792168   5.41937599
2970.00 -15.23176198   5.42979399
2972.00 -15.25561354   5.44022430
2974.00 -15.27947637   5.45066692
2976.00 -15.30335045   5.46112187
2978.00 -15.32723578   5.47158914
2980.00 -15.35113234   5.48206875
2982.00 -15.37504013   5.49256068
2984.00 -15.39895914   5.50306496
2986.00 -15.42288936   5.51358158
2988.00 -15.44683079   5.52411054
2990.00 -15.47078341   5.53465185
2992.00 -15.49474722   5.54520552
2994.00 -15.51872221   5.55577154
2996.00 -15.54270837   5.56634993
2998.00 -15.56670570   5.57694069
3000.00 -15.59071418   5.58754381
3002.00 -15.61473380   5.59815931
3004.00 -15.63876456   5.60878719
3006.00 -15.66280645   5.61942745
3008.00 -15.68685947   5.63008009
3010.00 -15.71092359   5.64074513
3012.00 -15.73499882   5.65142256
3014.00 -15.75908515   5.66211239
3016.00 -15.78318257   5.67281462
3018.00 -15.80729106   5.68352926
3020.00 -15.83141063   5.69425631
3022.00 -15.85554126   5.70499577
3024.00 -15.87968295   5.71574765
3026.00 -15.90383568   5.72651196
3028.00 -15.92799946   5.73728869
3030.00 -15.95217426   5.74807785
3032.00 -15.97636009   5.75887944
3034.00 -16.00055693   5.76969347
3036.00 -16.02476477   5.78051994
3038.00 -16.04898362   5.79135886
3040.00 -16.07321345   5.80221023
3042.00 -16.09745426   5.81307406
3044.00 -16.12170605   5.82395034
3046.00 -16.14596880   5.83483908
3048.00 -16.17024251   5.84574029
3050.00 -16.19452716   5.85665396
3052.00 -16.21882276   5.86758011
3054.00 -16.24312929   5.87851874
3056.00 -16.26744673   5.88946984
3058.00 -16.29177510   5.90043343
3060.00 -16.31611437   5.91140951
3062.00 -16.34046454   5.92239808
3064.00 -16.36482560   5.93339915
3066.00 -16.38919754   5.94441272
3068.00 -16.41358035   5.95543879
3070.00 -16.43797403   5.96647737
3072.00 -16.46237856   5.97752846
3074.00 -16.48679395   5.98859206
3076.00 -16.51122017   5.99966819
3078.00 -16.53565723   6.01075683
3080.00 -16.56010511   6.02185801
3082.00 -16.58456380   6.03297171
3084.00 -16.60903331   6.04409795
3086.00 -16.63351361   6.05523672
3088.00 -16.65800470   6.06638804
3090.00 -16.68250657   6.07755190
3092.00 -16.70701922   6.08872831
3094.00 -16.73154263   6.09991727
3096.00 -16.75607680   6.11111879
3098.00 -16.78062172   6.12233287
3100.00 -16.80517738   6.13355951
3102.00 -16.82974378   6.14479872
3104.00 -16.85432089   6.15605050
3106.00 -16.87890873   6.16731485
3108.00 -16.90350727   6.17859179
3110.00 -16.92811650   6.18988130
3112.00 -16.95273643   6.20118341
3114.00 -16.97736705   6.21249810
3116.00 -17.00200833   6.22382538
3118.00 -17.02666029   6.23516526
3120.00 -17.05132290   6.24651774
3122.00 -17.07599616   6.25788283
3124.00 -17.10068006   6.26926052
3126.00 -17.12537459   6.28065083
3128.00 -17.15007975   6.29205375
3130.00 -17.17479553   6.30346929
3132.00 -17.19952191   6.31489745
3134.00 -17.22425889   6.32633823
3136.00 -17.24900646   6.33779165
3138.00 -17.27376462   6.34925769
3140.00 -17.29853335   6.36073638
3142.00 -17.32331265   6.37222770
3144.00 -17.34810250   6.38373167
3146.00 -17.37290290   6.39524829
3148.00 -17.39771385   6.40677755
3150.00 -17.42253533   6.41831947
3152.00 -17.44736733   6.42987405
3154.00 -17.47220985   6.44144129
3156.00 -17.49706288   6.45302119
3158.00 -17.52192640   6.46461376
3160.00 -17.54680042   6.47621901
3162.00 -17.57168492   6.48783692
3164.00 -17.59657990   6.49946752
3166.00 -17.62148534   6.51111080
3168.00 -17.64640124   6.52276677
3170.00 -17.67132759   6.53443542
3172.00 -17.69626438   6.54611677
3174.00 -17.72121161   6.55781081
3176.00 -17.74616926   6.56951756
3178.00 -17.77113732   6.58123700
3180.00 -17.79611580   6.59296916
3182.00 -17.82110467   6.60471402
3184.00 -17.84610394   6.61647159
3186.00 -17.87111359   6.62824189
3188.00 -17.89613361   6.64002490
3190.00 -17.92116400   6.65182064
3192.00 -17.94620475   6.66362910
3194.00 -17.97125584   6.67545029
3196.00 -17.99631728   6.68728422
3198.00 -18.02138906   6.69913089
3200.00 -18.04647115   6.71099029
3202.00 -18.07156357   6.72286244
3204.00 -18.09666629   6.73474734
3206.00 -18.12177931   6.74664499
3208.00 -18.14690262   6.75855539
3210.00 -18.17203622   6.77047855
3212.00 -18.19718009   6.78241447
3214.00 -18.22233422   6.79436315
3216.00 -18.24749862   6.80632460
3218.00 -18.27267326   6.81829882
3220.00 -18.29785815   6.83028582
3222.00 -18.32305327   6.84228559
3224.00 -18.34825861   6.85429814
3226.00 -18.37347417   6.86632348
3228.00 -18.39869994   6.87836160
3230.00 -18.42393591   6.89041252
3232.00 -18.44918207   6.90247623
3234.00 -18.47443841   6.91455273
3236.00 -18.49970493   6.92664204
3238.00 -18.52498161   6.93874414
3240.00 -18.55026845   6.95085906
3242.00 -18.57556544   6.96298678
3244.00 -18.60087257   6.97512732
3246.00 -18.62618984   6.98728068
3248.00 -18.65151723   6.99944685
3250.00 -18.67685473   7.01162585
3252.00 -18.70220235   7.02381767
3254.00 -18.72756006   7.03602232
3256.00 -18.75292787   7.04823981
3258.00 -18.77830575   7.06047013
3260.00 -18.80369371   7.07271329
3262.00 -18.82909174   7.08496929
3264.00 -18.85449983   7.09723814
3266.00 -18.87991796   7.10951983
3268.00 -18.90534614   7.12181438
3270.00 -18.93078435   7.13412178
3272.00 -18.95623258   7.14644204
3274.00 -18.98169083   7.15877515
3276.00 -19.00715909   7.17112114
3278.00 -19.03263734   7.18347999
3280.00 -19.05812559   7.19585171
3282.00 -19.08362382   7.20823630
3284.00 -19.10913202   7.22063377
3286.00 -19.13465019   7.23304412
3288.00 -19.16017832   7.24546735
3290.00 -19.18571640   7.25790347
3292.00 -19.21126441   7.27035248
3294.00 -19.23682236   7.28281438
3296.00 -19.26239024   7.29528917
3298.00 -19.28796803   7.30777686
3300.00 -19.31355573   7.32027745
3302.00 -19.33915332   7.33279095
3304.00 -19.36476081   7.34531736
3306.00 -19.39037818   7.35785667
3308.00 -19.41600542   7.37040890
3310.00 -19.44164253   7.38297404
3312.00 -19.46728950   7.39555210
3314.00 -19.49294631   7.40814309
3316.00 -19.51861297   7.42074699
3318.00 -19.54428945   7.43336383
3320.00 -19.56997577   7.44599360
3322.00 -19.59567189   7.45863630
3324.00 -19.62137783   7.47129194
3326.00 -19.64709356   7.48396052
3328.00 -19.67281908   7.49664205
3330.00 -19.69855439   7.50933652
3332.00 -19.72429947   7.52204394
3334.00 -19.75005431   7.53476431
3336.00 -19.77581891   7.54749763
3338.00 -19.80159326   7.56024391
3340.00 -19.82737735   7.57300316
3342.00 -19.85317117   7.58577536
3344.00 -19.87897472   7.59856054
3346.00 -19.90478798   7.61135868
3348.00 -19.93061095   7.62416979
3350.00 -19.95644361   7.63699388
3352.00 -19.98228597   7.64983095
3354.00 -20.00813800   7.66268100
3356.00 -20.03399972   7.67554403
3358.00 -20.05987109   7.68842005
3360.00 -20.08575212   7.70130906
3362.00 -20.11164280   7.71421106
3364.00 -20.13754312   7.72712606
3366.00 -20.16345307   7.74005405
3368.00 -20.18937265   7.75299505
3370.00 -20.21530184   7.76594905
3372.00 -20.24124064   7.77891605
3374.00 -20.26718903   7.79189607
3376.00 -20.29314701   7.80488910
3378.00 -20.31911458   7.81789514
3380.00 -20.34509172   7.83091420
3382.00 -20.37107842   7.84394628
3384.00 -20.39707468   7.85699138
3386.00 -20.42308048   7.87004951
3388.00 -20.44909583   7.88312067
3390.00 -20.47512071   7.89620486
3392.00 -20.50115511   7.90930208
3394.00 -20.52719902   7.92241234
3396.00 -20.55325244   7.93553564
3398.00 -20.57931536   7.94867199
3400.00 -20.60538777   7.96182138
3402.00 -20.63146966   7.97498381
3404.00 -20.65756102   7.98815930
3406.00 -20.68366184   8.00134784
3408.00 -20.70977212   8.01454944
3410.00 -20.73589185   8.02776409
3412.00 -20.76202102   8.04099181
3414.00 -20.78815962   8.05423259
3416.00 -20.81430764   8.06748644
3418.00 -20.84046507   8.08075336
3420.00 -20.86663192   8.09403335
3422.00 -20.89280815   8.10732642
3424.00 -20.91899378   8.12063256
3426.00 -20.94518879   8.13395178
3428.00 -20.97139317   8.14728409
3430.00 -20.99760691   8.16062948
3432.00 -21.02383001   8.17398796
3434.00 -21.05006246   8.18735953
3436.00 -21.07630424   8.20074419
3438.00 -21.10255536   8.21414195
3440.00 -21.12881579   8.22755281
3442.00 -21.15508554   8.24097676
3444.00 -21.18136460   8.25441383
3446.00 -21.20765295   8.26786400
3448.00 -21.23395059   8.28132727
3450.00 -21.26025752   8.29480366
3452.00 -21.28657371   8.30829316
3454.00 -21.31289917   8.32179578
3456.00 -21.33923388   8.33531152
3458.00 -21.36557784   8.34884038
3460.00 -21.39193104   8.36238237
3462.00 -21.41829346   8.37593748
3464.00 -21.44466511   8.38950572
3466.00 -21.47104598   8.40308709
3468.00 -21.49743604   8.41668159
3470.00 -21.52383531   8.43028924
3472.00 -21.55024376   8.44391002
3474.00 -21.57666139   8.45754394
3476.00 -21.60308820   8.47119101
3478.00 -21.62952416   8.48485122
3480.00 -21.65596929   8.49852459
3482.00 -21.68242355   8.51221110
3484.00 -21.70888696   8.52591077
3486.00 -21.73535950   8.53962360
3488.00 -21.76184115   8.55334958
3490.00 -21.78833192   8.56708873
3492.00 -21.81483180   8.58084104
3494.00 -21.84134077   8.59460652
3496.00 -21.86785883   8.60838516
3498.00 -21.89438597   8.62217698
3500.00 -21.92092218   8.63598197
3502.00 -21.94746745   8.64980014
3504.00 -21.97402178   8.66363148
3506.00 -22.00058515   8.67747601
3508.00 -22.02715756   8.69133371
3510.00 -22.05373900   8.70520461
3512.00 -22.08032946   8.71908869
3514.00 -22.10692894   8.73298596
3516.00 -22.13353742   8.74689643
3518.00 -22.16015489   8.76082008
3520.00 -22.18678135   8.77475694
3522.00 -22.21341680   8.78870700
3524.00 -22.24006121   8.80267026
3526.00 -22.26671458   8.81664672
3528.00 -22.29337691   8.83063639
3530.00 -22.32004819   8.84463927
3532.00 -22.34672840   8.85865536
3534.00 -22.37341754   8.87268466
3536.00 -22.40011561   8.88672718
3538.00 -22.42682258   8.90078292
3540.00 -22.45353846   8.91485187
3542.00 -22.48026323   8.92893406
3544.00 -22.50699690   8.94302946
3546.00 -22.53373944   8.95713809
3548.00 -22.56049085   8.97125996
3550.00 -22.58725112   8.98539505
3552.00 -22.61402025   8.99954338
3554.00 -22.64079823   9.01370494
3556.00 -22.66758504   9.02787975
3558.00 -22.69438068   9.04206779
3560.00 -22.72118514   9.05626908
3562.00 -22.74799841   9.07048361
3564.00 -22.77482049   9.08471139
3566.00 -22.80165136   9.09895241
3568.00 -22.82849102   9.11320670
3570.00 -22.85533946   9.12747423
3572.00 -22.88219667   9.14175502
3574.00 -22.90906264   9.15604907
3576.00 -22.93593737   9.17035638
3578.00 -22.96282084   9.18467695
3580.00 -22.98971305   9.19901079
3582.00 -23.01661399   9.21335789
3584.00 -23.04352364   9.22771826
3586.00 -23.07044201   9.24209191
3588.00 -23.09736909   9.25647883
3590.00 -23.12430485   9.27087902
3592.00 -23.15124931   9.28529249
3594.00 -23.17820244   9.29971924
3596.00 -23.20516425   9.31415927
3598.00 -23.23213472   9.32861259
3600.00 -23.25911384   9.34307919
3602.00 -23.28610160   9.35755908
3604.00 -23.31309801   9.37205227
3606.00 -23.34010304   9.38655874
3608.00 -23.36711669   9.40107851
3610.00 -23.39413896   9.41561157
3612.00 -23.42116983   9.43015793
3614.00 -23.44820929   9.44471760
3616.00 -23.47525734   9.45929056
3618.00 -23.50231397   9.47387684
3620.00 -23.52937917   9.48847641
3622.00 -23.55645293   9.50308930
3624.00 -23.58353525   9.51771550
3626.00 -23.61062611   9.53235501
3628.00 -23.63772551   9.54700783
3630.00 -23.66483343   9.56167397
3632.00 -23.69194988   9.57635343
3634.00 -23.71907484   9.59104622
3636.00 -23.74620830   9.60575232
3638.00 -23.77335026   9.62047175
3640.00 -23.80050071   9.63520450
3642.00 -23.82765963   9.64995059
3644.00 -23.85482703   9.66471000
3646.00 -23.88200289   9.67948275
3648.00 -23.90918720   9.69426883
3650.00 -23.93637995   9.70906825
3652.00 -23.96358115   9.72388101
3654.00 -23.99079077   9.73870711
3656.00 -24.01800881   9.75354655
3658.00 -24.04523527   9.76839933
3660.00 -24.07247013   9.78326546
3662.00 -24.09971338   9.79814494
3664.00 -24.12696502   9.81303777
3666.00 -24.15422504   9.82794395
3668.00 -24.18149344   9.84286348
3670.00 -24.20877019   9.85779637
3672.00 -24.23605530   9.87274262
3674.00 -24.26334875   9.88770223
3676.00 -24.29065054   9.90267519
3678.00 -24.31796066   9.91766153
3680.00 -24.34527910   9.93266122
3682.00 -24.37260585   9.94767428
3684.00 -24.39994091   9.96270072
3686.00 -24.42728426   9.97774052
3688.00 -24.45463590   9.99279369
3690.00 -24.48199582  10.00786024
3692.00 -24.50936401  10.02294016
3694.00 -24.53674047  10.03803347
3696.00 -24.56412517  10.05314015
3698.00 -24.59151813  10.06826021
3700.00 -24.61891932  10.08339366
3702.00 -24.64632874  10.09854049
3704.00 -24.67374638  10.11370071
3706.00 -24.70117223  10.12887431
3708.00 -24.72860629  10.14406131
3710.00 -24.75604854  10.15926170
3712.00 -24.78349898  10.17447548
3714.00 -24.81095761  10.18970266
3716.00 -24.83842440  10.20494323
3718.00 -24.86589935  10.22019721
3720.00 -24.89338246  10.23546458
3722.00 -24.92087372  10.25074536
3724.00 -24.94837312  10.26603954
3726.00 -24.97588064  10.28134713
3728.00 -25.00339629  10.29666812
3730.00 -25.03092004  10.31200252
3732.00 -25.05845191  10.32735034
3734.00 -25.08599187  10.34271157
3736.00 -25.11353992  10.35808621
3738.00 -25.14109604  10.37347427
3740.00 -25.16866024  10.38887574
3742.00 -25.19623251  10.40429064
3744.00 -25.22381283  10.41971895
3746.00 -25.25140119  10.43516069
3748.00 -25.27899760  10.45061586
3750.00 -25.30660203  10.46608445
3752.00 -25.33421449  10.48156646
3754.00 -25.36183496  10.49706191
3756.00 -25.38946343  10.51257079
3758.00 -25.41709990  10.52809309
3760.00 -25.44474436  10.54362884
3762.00 -25.47239681  10.55917802
3764.00 -25.50005722  10.57474063
3766.00 -25.52772560  10.59031669
3768.00 -25.55540193  10.60590618
3770.00 -25.58308621  10.62150912
3772.00 -25.61077843  10.63712550
3774.00 -25.63847858  10.65275533
3776.00 -25.66618666  10.66839860
3778.00 -25.69390265  10.68405532
3780.00 -25.72162654  10.69972550
3782.00 -25.74935833  10.71540912
3784.00 -25.77709802  10.73110619
3786.00 -25.80484558  10.74681672
3788.00 -25.83260101  10.76254071
3790.00 -25.86036432  10.77827815
3792.00 -25.88813547  10.79402906
3794.00 -25.91591448  10.80979342
3796.00 -25.94370132  10.82557124
3798.00 -25.97149600  10.84136253
3800.00 -25.99929850  10.85716729
3802.00 -26.02710882  10.87298551
3804.00 -26.05492694  10.88881719
3806.00 -26.08275286  10.90466235
3808.00 -26.11058657  10.92052098
3810.00 -26.13842807  10.93639308
3812.00 -26.16627734  10.95227866
3814.00 -26.19413437  10.96817771
3816.00 -26.22199916  10.98409023
3818.00 -26.24987170  11.00001624
3820.00 -26.27775198  11.01595572
3822.00 -26.30563999  11.03190869
3824.00 -26.33353573  11.04787514
3826.00 -26.36143919  11.06385507
3828.00 -26.38935035  11.07984848
3830.00 -26.41726921  11.09585539
3832.00 -26.44519576  11.11187578
3834.00 -26.47313000  11.12790966
3836.00 -26.50107191  11.14395703
3838.00 -26.52902149  11.16001790
3840.00 -26.55697872  11.17609226
3842.00 -26.58494361  11.19218011
3844.00 -26.61291614  11.20828146
3846.00 -26.64089630  11.22439630
3848.00 -26.66888409  11.24052465
3850.00 -26.69687949  11.25666650
3852.00 -26.72488251  11.27282184
3854.00 -26.75289312  11.28899070
3856.00 -26.78091133  11.30517305
3858.00 -26.80893712  11.32136891
3860.00 -26.83697049  11.33757828
3862.00 -26.86501143  11.35380116
3864.00 -26.89305992  11.37003754
3866.00 -26.92111597  11.38628744
3868.00 -26.94917956  11.40255085
3870.00 -26.97725068  11.41882777
3872.00 -27.00532933  11.43511821
3874.00 -27.03341550  11.45142216
3876.00 -27.06150919  11.46773963
3878.00 -27.08961037  11.48407062
3880.00 -27.11771905  11.50041513
3882.00 -27.14583521  11.51677316
3884.00 -27.17395885  11.53314471
3886.00 -27.20208996  11.54952979
3888.00 -27.23022853  11.56592839
3890.00 -27.25837455  11.58234051
3892.00 -27.28652802  11.59876617
3894.00 -27.31468892  11.61520535
3896.00 -27.34285725  11.63165806
3898.00 -27.37103301  11.64812430
3900.00 -27.39921617  11.66460408
3902.00 -27.42740674  11.68109738
3904.00 -27.45560470  11.69760423
3906.00 -27.48381005  11.71412460
3908.00 -27.51202278  11.73065852
3910.00 -27.54024288  11.74720597
3912.00 -27.56847034  11.76376696
3914.00 -27.59670516  11.78034149
3916.00 -27.62494732  11.79692957
3918.00 -27.65319682  11.81353118
3920.00 -27.68145366  11.83014634
3922.00 -27.70971781  11.84677505
3924.00 -27.73798927  11.86341730
3926.00 -27.76626805  11.88007309
3928.00 -27.79455411  11.89674244
3930.00 -27.82284747  11.91342533
3932.00 -27.85114811  11.93012178
3934.00 -27.87945602  11.94683178
3936.00 -27.90777120  11.96355532
3938.00 -27.93609363  11.98029243
3940.00 -27.96442331  11.99704308
3942.00 -27.99276023  12.01380730
3944.00 -28.02110438  12.03058507
3946.00 -28.04945575  12.04737640
3948.00 -28.07781434  12.06418128
3950.00 -28.10618014  12.08099973
3952.00 -28.13455313  12.09783174
3954.00 -28.16293332  12.11467731
3956.00 -28.19132069  12.13153644
3958.00 -28.21971523  12.14840914
3960.00 -28.24811694  12.16529540
3962.00 -28.27652581  12.18219523
3964.00 -28.30494183  12.19910863
3966.00 -28.33336499  12.21603560
3968.00 -28.36179528  12.23297613
3970.00 -28.39023270  12.24993023
3972.00 -28.41867723  12.26689791
3974.00 -28.44712888  12.28387916
3976.00 -28.47558762  12.30087398
3978.00 -28.50405346  12.31788238
3980.00 -28.53252639  12.33490435
3982.00 -28.56100639  12.35193989
3984.00 -28.58949346  12.36898902
3986.00 -28.61798759  12.38605172
3988.00 -28.64648877  12.40312800
3990.00 -28.67499699  12.42021786
3992.00 -28.70351225  12.43732130
3994.00 -28.73203454  12.45443833
3996.00 -28.76056385  12.47156893
3998.00 -28.78910017  12.48871312
4000.00 -28.81764349  12.50587090
4002.00 -28.84619381  12.52304226
4004.00 -28.87475112  12.54022720
4006.00 -28.90331540  12.55742574
4008.00 -28.93188665  12.57463786
4010.00 -28.96046487  12.59186357
4012.00 -28.98905004  12.60910287
4014.00 -29.01764216  12.62635576
4016.00 -29.04624122  12.64362224
4018.00 -29.07484720  12.66090232
4020.00 -29.10346011  12.67819599
4022.00 -29.13207994  12.69550325
4024.00 -29.16070666  12.71282411
4026.00 -29.18934029  12.73015856
4028.00 -29.21798081  12.74750661
4030.00 -29.24662820  12.76486826
4032.00 -29.27528247  12.78224350
4034.00 -29.30394361  12.79963235
4036.00 -29.33261160  12.81703479
4038.00 -29.36128644  12.83445084
4040.00 -29.38996813  12.85188049
4042.00 -29.41865664  12.86932374
4044.00 -29.44735198  12.88678059
4046.00 -29.47605414  12.90425105
4048.00 -29.50476310  12.92173511
4050.00 -29.53347887  12.93923277
4052.00 -29.56220142  12.95674405
4054.00 -29.59093077  12.97426893
4056.00 -29.61966688  12.99180741
4058.00 -29.64840977  13.00935951
4060.00 -29.67715942  13.02692522
4062.00 -29.70591581  13.04450453
4064.00 -29.73467895  13.06209746
4066.00 -29.76344883  13.07970400
4068.00 -29.79222544  13.09732415
4070.00 -29.82100876  13.11495791
4072.00 -29.84979880  13.13260528
4074.00 -29.87859553  13.15026627
4076.00 -29.90739897  13.16794088
4078.00 -29.93620909  13.18562910
4080.00 -29.96502589  13.20333094
4082.00 -29.99384936  13.22104639
4084.00 -30.02267950  13.23877546
4086.00 -30.05151628  13.25651815
4088.00 -30.08035972  13.27427446
4090.00 -30.10920979  13.29204439
4092.00 -30.13806650  13.30982794
4094.00 -30.16692983  13.32762511
4096.00 -30.19579977  13.34543590
4098.00 -30.22467632  13.36326032
4100.00 -30.25355947  13.38109835
4102.00 -30.28244920  13.39895001
4104.00 -30.31134552  13.41681530
4106.00 -30.34024842  13.43469421
4108.00 -30.36915788  13.45258674
4110.00 -30.39807390  13.47049290
4112.00 -30.42699647  13.48841269
4114.00 -30.45592558  13.50634611
4116.00 -30.48486122  13.52429315
4118.00 -30.51380340  13.54225382
4120.00 -30.54275208  13.56022812
4122.00 -30.57170728  13.57821605
4124.00 -30.60066898  13.59621760
4126.00 -30.62963718  13.61423279
4128.00 -30.65861186  13.63226161
4130.00 -30.68759302  13.65030407
4132.00 -30.71658065  13.66836015
4134.00 -30.74557474  13.68642987
4136.00 -30.77457528  13.70451322
4138.00 -30.80358227  13.72261020
4140.00 -30.83259570  13.74072082
4142.00 -30.86161555  13.75884508
4144.00 -30.89064183  13.77698296
4146.00 -30.91967452  13.79513449
4148.00 -30.94871362  13.81329965
4150.00 -30.97775911  13.83147845
4152.00 -31.00681100  13.84967088
4154.00 -31.03586926  13.86787696
4156.00 -31.06493390  13.88609667
4158.00 -31.09400491  13.90433002
4160.00 -31.12308227  13.92257701
4162.00 -31.15216598  13.94083764
4164.00 -31.18125604  13.95911191
4166.00 -31.21035242  13.97739982
4168.00 -31.23945514  13.99570137
4170.00 -31.26856416  14.01401656
4172.00 -31.29767950  14.03234540
4174.00 -31.32680115  14.05068787
4176.00 -31.35592908  14.06904399
4178.00 -31.38506330  14.08741376
4180.00 -31.41420380  14.10579716
4182.00 -31.44335056  14.12419422
4184.00 -31.47250359  14.14260491
4186.00 -31.50166288  14.16102925
4188.00 -31.53082840  14.17946724
4190.00 -31.56000017  14.19791887
4192.00 -31.58917816  14.21638414
4194.00 -31.61836238  14.23486307
4196.00 -31.64755281  14.25335564
4198.00 -31.67674945  14.27186186
4200.00 -31.70595228  14.29038172
4202.00 -31.73516131  14.30891523
4204.00 -31.76437651  14.32746239
4206.00 -31.79359789  14.34602320
4208.00 -31.82282544  14.36459766
4210.00 -31.85205914  14.38318577
4212.00 -31.88129900  14.40178753
4214.00 -31.91054499  14.42040293
4216.00 -31.93979712  14.43903199
4218.00 -31.96905538  14.45767470
4220.00 -31.99831975  14.47633106
4222.00 -32.02759024  14.49500107
4224.00 -32.05686682  14.51368473
4226.00 -32.08614950  14.53238204
4228.00 -32.11543827  14.55109300
4230.00 -32.14473312  14.56981762
4232.00 -32.17403403  14.58855589
4234.00 -32.20334101  14.60730781
4236.00 -32.23265405  14.62607339
4238.00 -32.26197313  14.64485261
4240.00 -32.29129825  14.66364550
4242.00 -32.32062940  14.68245203
4244.00 -32.34996657  14.70127222
4246.00 -32.37930976  14.72010607
4248.00 -32.40865895  14.73895356
4250.00 -32.43801415  14.75781472
4252.00 -32.46737533  14.77668953
4254.00 -32.49674250  14.79557799
4256.00 -32.52611565  14.81448011
4258.00 -32.55549476  14.83339588
4260.00 -32.58487983  14.85232531
4262.00 -32.61427085  14.87126840
4264.00 -32.64366782  14.89022514
4266.00 -32.67307072  14.90919554
4268.00 -32.70247955  14.92817960
4270.00 -32.73189431  14.94717731
4272.00 -32.76131497  14.96618868
4274.00 -32.79074154  14.98521370
4276.00 -32.82017400  15.00425239
4278.00 -32.84961235  15.02330473
4280.00 -32.87905658  15.04237073
4282.00 -32.90850669  15.06145038
4284.00 -32.93796266  15.08054369
4286.00 -32.96742449  15.09965067
4288.00 -32.99689216  15.11877130
4290.00 -33.02636568  15.13790558
4292.00 -33.05584503  15.15705353
4294.00 -33.08533021  15.17621513
4296.00 -33.11482120  15.19539040
4298.00 -33.14431801  15.21457932
4300.00 -33.17382061  15.23378190
4302.00 -33.20332901  15.25299814
4304.00 -33.23284320  15.27222804
4306.00 -33.26236316  15.29147160
4308.00 -33.29188889  15.31072881
4310.00 -33.32142039  15.32999969
4312.00 -33.35095764  15.34928422
4314.00 -33.38050064  15.36858242
4316.00 -33.41004937  15.38789427
4318.00 -33.43960384  15.40721978
4320.00 -33.46916403  15.42655895
4322.00 -33.49872994  15.44591178
4324.00 -33.52830155  15.46527828
4326.00 -33.55787886  15.48465843
4328.00 -33.58746187  15.50405224
4330.00 -33.61705056  15.52345971
4332.00 -33.64664492  15.54288083
4334.00 -33.67624496  15.56231562
4336.00 -33.70585065  15.58176407
4338.00 -33.73546200  15.60122618
4340.00 -33.76507899  15.62070195
4342.00 -33.79470162  15.64019137
4344.00 -33.82432987  15.65969446
4346.00 -33.85396375  15.67921121
4348.00 -33.88360324  15.69874161
4350.00 -33.91324834  15.71828568
4352.00 -33.94289904  15.73784340
4354.00 -33.97255532  15.75741479
4356.00 -34.00221719  15.77699983
4358.00 -34.03188463  15.79659853
4360.00 -34.06155764  15.81621089
4362.00 -34.09123621  15.83583691
4364.00 -34.12092033  15.85547659
4366.00 -34.15060999  15.87512993
4368.00 -34.18030519  15.89479693
4370.00 -34.21000592  15.91447759
4372.00 -34.23971216  15.93417190
4374.00 -34.26942392  15.95387988
4376.00 -34.29914118  15.97360151
4378.00 -34.32886394  15.99333680
4380.00 -34.35859218  16.01308575
4382.00 -34.38832591  16.03284836
4384.00 -34.41806511  16.05262463
4386.00 -34.44780978  16.07241455
4388.00 -34.47755990  16.09221814
4390.00 -34.50731547  16.11203538
4392.00 -34.53707649  16.13186627
4394.00 -34.56684294  16.15171083
4396.00 -34.59661482  16.17156904
4398.00 -34.62639211  16.19144091
4400.00 -34.65617482  16.21132644
4402.00 -34.68596292  16.23122562
4404.00 -34.71575643  16.25113846
4406.00 -34.74555532  16.27106496
4408.00 -34.77535959  16.29100511
4410.00 -34.80516924  16.31095892
4412.00 -34.83498424  16.33092639
4414.00 -34.86480461  16.35090751
4416.00 -34.89463032  16.37090229
4418.00 -34.92446138  16.39091072
4420.00 -34.95429777  16.41093281
4422.00 -34.98413948  16.43096855
4424.00 -35.01398651  16.45101795
4426.00 -35.04383885  16.47108100
4428.00 -35.07369650  16.49115770
4430.00 -35.10355944  16.51124806
4432.00 -35.13342766  16.53135208
4434.00 -35.16330117  16.55146975
4436.00 -35.19317995  16.57160107
4438.00 -35.22306399  16.59174604
4440.00 -35.25295329  16.61190467
4442.00 -35.28284783  16.63207695
4444.00 -35.31274762  16.65226288
4446.00 -35.34265264  16.67246246
4448.00 -35.37256288  16.69267570
4450.00 -35.40247834  16.71290259
4452.00 -35.43239901  16.73314313
4454.00 -35.46232489  16.75339731
4456.00 -35.49225596  16.77366515
4458.00 -35.52219221  16.79394664
4460.00 -35.55213365  16.81424179
4462.00 -35.58208025  16.83455058
4464.00 -35.61203202  16.85487301
4466.00 -35.64198895  16.87520910
4468.00 -35.67195102  16.89555884
4470.00 -35.70191824  16.91592223
4472.00 -35.73189058  16.93629926
4474.00 -35.76186805  16.95668994
4476.00 -35.79185064  16.97709427
4478.00 -35.82183834  16.99751224
4480.00 -35.85183115  17.01794387
4482.00 -35.88182904  17.03838914
4484.00 -35.91183203  17.05884805
4486.00 -35.94184009  17.07932061
4488.00 -35.97185322  17.09980682
4490.00 -36.00187142  17.12030667
4492.00 -36.03189468  17.14082016
4494.00 -36.06192298  17.16134730
4496.00 -36.09195632  17.18188808
4498.00 -36.12199470  17.20244251
4500.00 -36.15203810  17.22301058
4502.00 -36.18208652  17.24359229
4504.00 -36.21213996  17.26418764
4506.00 -36.24219839  17.28479663
4508.00 -36.27226182  17.30541927
4510.00 -36.30233024  17.32605555
4512.00 -36.33240363  17.34670546
4514.00 -36.36248200  17.36736902
4516.00 -36.39256533  17.38804622
4518.00 -36.42265362  17.40873705
4520.00 -36.45274686  17.42944153
4522.00 -36.48284504  17.45015964
4524.00 -36.51294816  17.47089139
4526.00 -36.54305620  17.49163677
4528.00 -36.57316916  17.51239580
4530.00 -36.60328703  17.53316846
4532.00 -36.63340980  17.55395475
4534.00 -36.66353747  17.57475468
4536.00 -36.69367003  17.59556825
4538.00 -36.72380747  17.61639545
4540.00 -36.75394979  17.63723628
4542.00 -36.78409696  17.65809075
4544.00 -36.81424900  17.67895885
4546.00 -36.84440589  17.69984058
4548.00 -36.87456762  17.72073594
4550.00 -36.90473418  17.74164494
4552.00 -36.93490557  17.76256756
4554.00 -36.96508179  17.78350382
4556.00 -36.99526281  17.80445370
4558.00 -37.02544864  17.82541722
4560.00 -37.05563927  17.84639436
4562.00 -37.08583468  17.86738513
4564.00 -37.11603488  17.88838953
4566.00 -37.14623986  17.90940756
4568.00 -37.17644960  17.93043921
4570.00 -37.20666410  17.95148448
4572.00 -37.23688335  17.97254339
4574.00 -37.26710734  17.99361591
4576.00 -37.29733608  18.01470206
4578.00 -37.32756954  18.03580184
4580.00 -37.35780772  18.05691524
4582.00 -37.38805062  18.07804226
4584.00 -37.41829822  18.09918290
4586.00 -37.44855053  18.12033716
4588.00 -37.47880752  18.14150504
4590.00 -37.50906920  18.16268654
4592.00 -37.53933555  18.18388166
4594.00 -37.56960658  18.20509040
4596.00 -37.59988226  18.22631276
4598.00 -37.63016260  18.24754874
4600.00 -37.66044759  18.26879833
4602.00 -37.69073721  18.29006154
4604.00 -37.72103147  18.31133836
4606.00 -37.75133035  18.33262880
4608.00 -37.78163384  18.35393285
4610.00 -37.81194195  18.37525051
4612.00 -37.84225465  18.39658179
4614.00 -37.87257195  18.41792668
4616.00 -37.90289383  18.43928518
4618.00 -37.93322030  18.46065729
4620.00 -37.96355133  18.48204301
4622.00 -37.99388693  18.50344234
4624.00 -38.02422709  18.52485528
4626.00 -38.05457179  18.54628183
4628.00 -38.08492103  18.56772198
4630.00 -38.11527481  18.58917575
4632.00 -38.14563312  18.61064311
4634.00 -38.17599594  18.63212408
4636.00 -38.20636327  18.65361866
4638.00 -38.23673511  18.67512684
4640.00 -38.26711145  18.69664862
4642.00 -38.29749227  18.71818401
4644.00 -38.32787757  18.73973299
4646.00 -38.35826735  18.76129558
4648.00 -38.38866160  18.78287176
4650.00 -38.41906030  18.80446155
4652.00 -38.44946346  18.82606493
4654.00 -38.47987105  18.84768192
4656.00 -38.51028309  18.86931249
4658.00 -38.54069956  18.89095667
4660.00 -38.57112044  18.91261444
4662.00 -38.60154574  18.93428580
4664.00 -38.63197545  18.95597076
4666.00 -38.66240956  18.97766931
4668.00 -38.69284806  18.99938145
4670.00 -38.72329094  19.02110719
4672.00 -38.75373820  19.04284651
4674.00 -38.78418983  19.06459943
4676.00 -38.81464582  19.08636593
4678.00 -38.84510617  19.10814602
4680.00 -38.87557086  19.12993970
4682.00 -38.90603990  19.15174696
4684.00 -38.93651327  19.17356781
4686.00 -38.96699096  19.19540225
4688.00 -38.99747297  19.21725027
4690.00 -39.02795929  19.23911187
4692.00 -39.05844991  19.26098706
4694.00 -39.08894483  19.28287582
4696.00 -39.11944403  19.30477817
4698.00 -39.14994752  19.32669409
4700.00 -39.18045528  19.34862360
4702.00 -39.21096731  19.37056668
4704.00 -39.24148359  19.39252334
4706.00 -39.27200413  19.41449358
4708.00 -39.30252891  19.43647739
4710.00 -39.33305792  19.45847477
4712.00 -39.36359117  19.48048573
4714.00 -39.39412863  19.50251026
4716.00 -39.42467031  19.52454837
4718.00 -39.45521620  19.54660004
4720.00 -39.48576629  19.56866529
4722.00 -39.51632056  19.59074410
4724.00 -39.54687903  19.61283648
4726.00 -39.57744167  19.63494243
4728.00 -39.60800848  19.65706194
4730.00 -39.63857945  19.67919502
4732.00 -39.66915458  19.70134166
4734.00 -39.69973386  19.72350187
4736.00 -39.73031727  19.74567564
4738.00 -39.76090482  19.76786297
4740.00 -39.79149650  19.79006386
4742.00 -39.82209229  19.81227831
4744.00 -39.85269220  19.83450632
4746.00 -39.88329621  19.85674789
4748.00 -39.91390432  19.87900301
4750.00 -39.94451651  19.90127169
4752.00 -39.97513279  19.92355393
4754.00 -40.00575314  19.94584972
4756.00 -40.03637756  19.96815906
4758.00 -40.06700604  19.99048195
4760.00 -40.09763857  20.01281839
4762.00 -40.12827515  20.03516838
4764.00 -40.15891576  20.05753192
4766.00 -40.18956041  20.07990901
4768.00 -40.22020908  20.10229965
4770.00 -40.25086176  20.12470383
4772.00 -40.28151846  20.14712156
4774.00 -40.31217915  20.16955282
4776.00 -40.34284384  20.19199764
4778.00 -40.37351252  20.21445599
4780.00 -40.40418518  20.23692788
4782.00 -40.43486180  20.25941332
4784.00 -40.46554240  20.28191229
4786.00 -40.49622695  20.30442480
4788.00 -40.52691545  20.32695084
4790.00 -40.55760790  20.34949042
4792.00 -40.58830428  20.37204354
4794.00 -40.61900459  20.39461018
4796.00 -40.64970882  20.41719036
4798.00 -40.68041696  20.43978407
4800.00 -40.71112901  20.46239131
4802.00 -40.74184497  20.48501208
4804.00 -40.77256481  20.50764638
4806.00 -40.80328854  20.53029420
4808.00 -40.83401615  20.55295555
4810.00 -40.86474762  20.57563042
4812.00 -40.89548297  20.59831882
4814.00 -40.92622216  20.62102074
4816.00 -40.95696521  20.64373617
4818.00 -40.98771210  20.66646513
4820.00 -41.01846282  20.68920761
4822.00 -41.04921737  20.71196361
4824.00 -41.07997574  20.73473312
4826.00 -41.11073792  20.75751614
4828.00 -41.14150391  20.78031268
4830.00 -41.17227369  20.80312274
4832.00 -41.20304727  20.82594630
4834.00 -41.23382463  20.84878338
4836.00 -41.26460577  20.87163397
4838.00 -41.29539068  20.89449806
4840.00 -41.32617935  20.91737566
4842.00 -41.35697177  20.94026677
4844.00 -41.38776795  20.96317138
4846.00 -41.41856786  20.98608950
4848.00 -41.44937151  21.00902111
4850.00 -41.48017888  21.03196623
4852.00 -41.51098997  21.05492485
4854.00 -41.54180478  21.07789697
4856.00 -41.57262328  21.10088259
4858.00 -41.60344549  21.12388170
4860.00 -41.63427139  21.14689431
4862.00 -41.66510097  21.16992041
4864.00 -41.69593422  21.19296001
4866.00 -41.72677115  21.21601309
4868.00 -41.75761174  21.23907967
4870.00 -41.78845598  21.26215974
4872.00 -41.81930387  21.28525329
4874.00 -41.85015539  21.30836033
4876.00 -41.88101056  21.33148085
4878.00 -41.91186934  21.35461486
4880.00 -41.94273175  21.37776236
4882.00 -41.97359777  21.40092333
4884.00 -42.00446739  21.42409779
4886.00 -42.03534061  21.44728572
4888.00 -42.06621742  21.47048713
4890.00 -42.09709782  21.49370202
4892.00 -42.12798179  21.51693038
4894.00 -42.15886933  21.54017222
4896.00 -42.18976043  21.56342753
4898.00 -42.22065508  21.58669631
4900.00 -42.25155328  21.60997857
4902.00 -42.28245503  21.63327429
4904.00 -42.31336030  21.65658348
4906.00 -42.34426911  21.67990613
4908.00 -42.37518143  21.70324225
4910.00 -42.40609726  21.72659183
4912.00 -42.43701660  21.74995488
4914.00 -42.46793943  21.77333138
4916.00 -42.49886576  21.79672135
4918.00 -42.52979557  21.82012478
4920.00 -42.56072886  21.84354166
4922.00 -42.59166561  21.86697199
4924.00 -42.62260583  21.89041578
4926.00 -42.65354951  21.91387303
4928.00 -42.68449663  21.93734372
4930.00 -42.71544719  21.96082787
4932.00 -42.74640119  21.98432546
4934.00 -42.77735861  22.00783651
4936.00 -42.80831945  22.03136100
4938.00 -42.83928371  22.05489893
4940.00 -42.87025137  22.07845031
4942.00 -42.90122243  22.10201512
4944.00 -42.93219689  22.12559338
4946.00 -42.96317472  22.14918508
4948.00 -42.99415594  22.17279022
4950.00 -43.02514052  22.19640879
4952.00 -43.05612847  22.22004080
4954.00 -43.08711978  22.24368624
4956.00 -43.11811443  22.26734511
4958.00 -43.14911243  22.29101742
4960.00 -43.18011376  22.31470315
4962.00 -43.21111842  22.33840231
4964.00 -43.24212640  22.36211490
4966.00 -43.27313770  22.38584092
4968.00 -43.30415230  22.40958035
4970.00 -43.33517021  22.43333321
4972.00 -43.36619140  22.45709949
4974.00 -43.39721589  22.48087919
4976.00 -43.42824365  22.50467231
4978.00 -43.45927468  22.52847885
4980.00 -43.49030898  22.55229879
4982.00 -43.52134654  22.57613216
4984.00 -43.55238735  22.59997893
4986.00 -43.58343140  22.62383912
4988.00 -43.61447869  22.64771271
4990.00 -43.64552921  22.67159972
4992.00 -43.67658296  22.69550012
4994.00 -43.70763992  22.71941394
4996.00 -43.73870009  22.74334116
4998.00 -43.76976346  22.76728177
5000.00 -43.80083002  22.79123579
