wavelength(nm)         real         imag
100.00   3.74911152   0.00144188
102.00   3.74301620   0.00153013
104.00   3.73680024   0.00162190
106.00   3.73046362   0.00171728
108.00   3.72400635   0.00181632
110.00   3.71742844   0.00191910
112.00   3.71072989   0.00202569
114.00   3.70391070   0.00213614
116.00   3.69697087   0.00225055
118.00   3.68991041   0.00236896
120.00   3.68272932   0.00249146
122.00   3.67542760   0.00261811
124.00   3.66800526   0.00274898
126.00   3.66046230   0.00288414
128.00   3.65279872   0.00302366
130.00   3.64501453   0.00316760
132.00   3.63710973   0.00331604
134.00   3.62908433   0.00346905
136.00   3.62093832   0.00362670
138.00   3.61267171   0.00378904
140.00   3.60428450   0.00395616
142.00   3.59577670   0.00412812
144.00   3.58714832   0.00430500
146.00   3.57839935   0.00448685
148.00   3.56952979   0.00467376
150.00   3.56053966   0.00486578
152.00   3.55142896   0.00506299
154.00   3.54219769   0.00526545
156.00   3.53284586   0.00547325
158.00   3.52337346   0.00568643
160.00   3.51378050   0.00590508
162.00   3.50406700   0.00612927
164.00   3.49423294   0.00635905
166.00   3.48427834   0.00659451
168.00   3.47420321   0.00683571
170.00   3.46400753   0.00708272
172.00   3.45369133   0.00733560
174.00   3.44325460   0.00759443
176.00   3.43269735   0.00785928
178.00   3.42201958   0.00813022
180.00   3.41122129   0.00840730
182.00   3.40030250   0.00869061
184.00   3.38926321   0.00898022
186.00   3.37810342   0.00927618
188.00   3.36682314   0.00957858
190.00   3.35542237   0.00988747
192.00   3.34390111   0.01020294
194.00   3.33225938   0.01052504
196.00   3.32049717   0.01085384
198.00   3.30861450   0.01118943
200.00   3.29661136   0.01153185
202.00   3.28448777   0.01188119
204.00   3.27224372   0.01223751
206.00   3.25987923   0.01260089
208.00   3.24739429   0.01297138
210.00   3.23478892   0.01334906
212.00   3.22206312   0.01373400
214.00   3.20921690   0.01412627
216.00   3.19625025   0.01452593
218.00   3.18316319   0.01493306
220.00   3.16995573   0.01534772
222.00   3.15662786   0.01576998
224.00   3.14317959   0.01619992
226.00   3.12961094   0.01663759
228.00   3.11592190   0.01708308
230.00   3.10211248   0.01753644
232.00   3.08818269   0.01799775
234.00   3.07413253   0.01846708
236.00   3.05996202   0.01894449
238.00   3.04567115   0.01943005
240.00   3.03125993   0.01992384
242.00   3.01672837   0.02042592
244.00   3.00207648   0.02093636
246.00   2.98730425   0.02145522
248.00   2.97241171   0.02198259
250.00   2.95739885   0.02251852
252.00   2.94226568   0.02306309
254.00   2.92701221   0.02361636
256.00   2.91163844   0.02417841
258.00   2.89614438   0.02474930
260.00   2.88053004   0.02532910
262.00   2.86479543   0.02591788
264.00   2.84894055   0.02651570
266.00   2.83296540   0.02712265
268.00   2.81687001   0.02773878
270.00   2.80065436   0.02836416
272.00   2.78431847   0.02899887
274.00   2.76786235   0.02964297
276.00   2.75128601   0.03029653
278.00   2.73458944   0.03095962
280.00   2.71777267   0.03163231
282.00   2.70083569   0.03231467
284.00   2.68377851   0.03300676
286.00   2.66660114   0.03370866
288.00   2.64930359   0.03442043
290.00   2.63188587   0.03514215
292.00   2.61434798   0.03587387
294.00   2.59668993   0.03661567
296.00   2.57891174   0.03736762
298.00   2.56101339   0.03812979
300.00   2.54299491   0.03890224
302.00   2.52485631   0.03968505
304.00   2.50659758   0.04047828
306.00   2.48821874   0.04128200
308.00   2.46971980   0.04209629
310.00   2.45110077   0.04292120
312.00   2.43236164   0.04375680
314.00   2.41350244   0.04460318
316.00   2.39452316   0.04546038
318.00   2.37542382   0.04632849
320.00   2.35620443   0.04720758
322.00   2.33686499   0.04809770
324.00   2.31740552   0.04899893
326.00   2.29782601   0.04991134
328.00   2.27812649   0.05083499
330.00   2.25830695   0.05176996
332.00   2.23836741   0.05271631
334.00   2.21830787   0.05367412
336.00   2.19812835   0.05464344
338.00   2.17782885   0.05562435
340.00   2.15740938   0.05661692
342.00   2.13686996   0.05762121
344.00   2.11621058   0.05863730
346.00   2.09543126   0.05966525
348.00   2.07453201   0.06070513
350.00   2.05351284   0.06175701
352.00   2.03237376   0.06282096
354.00   2.01111476   0.06389704
356.00   1.98973588   0.06498533
358.00   1.96823711   0.06608590
360.00   1.94661846   0.06719880
362.00   1.92487994   0.06832411
364.00   1.90302157   0.06946191
366.00   1.88104335   0.07061224
368.00   1.85894529   0.07177520
370.00   1.83672740   0.07295084
372.00   1.81438969   0.07413922
374.00   1.79193217   0.07534043
376.00   1.76935485   0.07655453
378.00   1.74665775   0.07778159
380.00   1.72384086   0.07902167
382.00   1.70090420   0.08027484
384.00   1.67784779   0.08154117
386.00   1.65467162   0.08282074
388.00   1.63137572   0.08411360
390.00   1.60796008   0.08541983
392.00   1.58442473   0.08673950
394.00   1.56076966   0.08807267
396.00   1.53699490   0.08941941
398.00   1.51310045   0.09077978
400.00   1.48908632   0.09215387
402.00   1.46495253   0.09354173
404.00   1.44069908   0.09494344
406.00   1.41632598   0.09635906
408.00   1.39183324   0.09778866
410.00   1.36722088   0.09923231
412.00   1.34248891   0.10069008
414.00   1.31763733   0.10216203
416.00   1.29266616   0.10364823
418.00   1.26757541   0.10514876
420.00   1.24236509   0.10666368
422.00   1.21703521   0.10819305
424.00   1.19158578   0.10973695
426.00   1.16601681   0.11129544
428.00   1.14032832   0.11286860
430.00   1.11452031   0.11445648
432.00   1.08859279   0.11605916
434.00   1.06254579   0.11767671
436.00   1.03637930   0.11930920
438.00   1.01009334   0.12095668
440.00   0.98368793   0.12261924
442.00   0.95716307   0.12429693
444.00   0.93051877   0.12598983
446.00   0.90375505   0.12769800
448.00   0.87687191   0.12942152
450.00   0.84986938   0.13116045
452.00   0.82274745   0.13291485
454.00   0.79550615   0.13468480
456.00   0.76814549   0.13647037
458.00   0.74066547   0.13827161
460.00   0.71306611   0.14008861
462.00   0.68534743   0.14192142
464.00   0.65750942   0.14377012
466.00   0.62955211   0.14563477
468.00   0.60147551   0.14751545
470.00   0.57327963   0.14941221
472.00   0.54496448   0.15132513
474.00   0.51653008   0.15325427
476.00   0.48797643   0.15519971
478.00   0.45930355   0.15716151
480.00   0.43051145   0.15913973
482.00   0.40160014   0.16113446
484.00   0.37256965   0.16314574
486.00   0.34341997   0.16517366
488.00   0.31415112   0.16721827
490.00   0.28476312   0.16927966
492.00   0.25525598   0.17135788
494.00   0.22562970   0.17345300
496.00   0.19588431   0.17556509
498.00   0.16601982   0.17769421
500.00   0.13603624   0.17984045
502.00   0.10593358   0.18200385
504.00   0.07571185   0.18418450
506.00   0.04537107   0.18638245
508.00   0.01491126   0.18859779
510.00  -0.01566759   0.19083056
512.00  -0.04636544   0.19308085
514.00  -0.07718229   0.19534871
516.00  -0.10811812   0.19763422
518.00  -0.13917293   0.19993745
520.00  -0.17034670   0.20225845
522.00  -0.20163940   0.20459731
524.00  -0.23305104   0.20695408
526.00  -0.26458160   0.20932883
528.00  -0.29623106   0.21172164
530.00  -0.32799941   0.21413257
532.00  -0.35988664   0.21656168
534.00  -0.39189272   0.21900904
536.00  -0.42401766   0.22147473
538.00  -0.45626143   0.22395881
540.00  -0.48862402   0.22646134
542.00  -0.52110541   0.22898239
544.00  -0.55370560   0.23152204
546.00  -0.58642456   0.23408034
548.00  -0.61926229   0.23665737
550.00  -0.65221876   0.23925320
552.00  -0.68529398   0.24186788
554.00  -0.71848791   0.24450149
556.00  -0.75180054   0.24715410
558.00  -0.78523187   0.24982576
560.00  -0.81878188   0.25251656
562.00  -0.85245055   0.25522655
564.00  -0.88623786   0.25795581
566.00  -0.92014381   0.26070440
568.00  -0.95416838   0.26347239
570.00  -0.98831155   0.26625984
572.00  -1.02257331   0.26906683
574.00  -1.05695364   0.27189341
576.00  -1.09145254   0.27473966
578.00  -1.12606997   0.27760565
580.00  -1.16080594   0.28049144
582.00  -1.19566041   0.28339710
584.00  -1.23063339   0.28632269
586.00  -1.26572485   0.28926828
588.00  -1.30093478   0.29223395
590.00  -1.33626316   0.29521975
592.00  -1.37170998   0.29822576
594.00  -1.40727522   0.30125203
596.00  -1.44295887   0.30429865
598.00  -1.47876091   0.30736567
600.00  -1.51468133   0.31045316
602.00  -1.55072010   0.31356119
604.00  -1.58687722   0.31668983
606.00  -1.62315267   0.31983914
608.00  -1.65954643   0.32300919
610.00  -1.69605849   0.32620004
612.00  -1.73268883   0.32941177
614.00  -1.76943744   0.33264444
616.00  -1.80630429   0.33589812
618.00  -1.84328938   0.33917287
620.00  -1.88039269   0.34246876
622.00  -1.91761420   0.34578586
624.00  -1.95495389   0.34912424
626.00  -1.99241175   0.35248396
628.00  -2.02998777   0.35586508
630.00  -2.06768192   0.35926768
632.00  -2.10549419   0.36269182
634.00  -2.14342457   0.36613757
636.00  -2.18147303   0.36960500
638.00  -2.21963956   0.37309416
640.00  -2.25792415   0.37660514
642.00  -2.29632678   0.38013799
644.00  -2.33484743   0.38369278
646.00  -2.37348608   0.38726959
648.00  -2.41224272   0.39086846
650.00  -2.45111733   0.39448948
652.00  -2.49010989   0.39813271
654.00  -2.52922040   0.40179821
656.00  -2.56844882   0.40548605
658.00  -2.60779514   0.40919630
660.00  -2.64725935   0.41292903
662.00  -2.68684143   0.41668429
664.00  -2.72654137   0.42046217
666.00  -2.76635913   0.42426272
668.00  -2.80629472   0.42808601
670.00  -2.84634810   0.43193210
672.00  -2.88651927   0.43580107
674.00  -2.92680820   0.43969298
676.00  -2.96721488   0.44360790
678.00  -3.00773929   0.44754588
680.00  -3.04838142   0.45150701
682.00  -3.08914124   0.45549134
684.00  -3.13001874   0.45949894
686.00  -3.17101389   0.46352989
688.00  -3.21212669   0.46758423
690.00  -3.25335712   0.47166205
692.00  -3.29470515   0.47576340
694.00  -3.33617077   0.47988836
696.00  -3.37775396   0.48403698
698.00  -3.41945471   0.48820934
700.00  -3.46127298   0.49240550
702.00  -3.50320878   0.49662553
704.00  -3.54526207   0.50086950
706.00  -3.58743285   0.50513746
708.00  -3.62972109   0.50942949
710.00  -3.67212677   0.51374565
712.00  -3.71464987   0.51808601
714.00  -3.75729039   0.52245064
716.00  -3.80004829   0.52683959
718.00  -3.84292356   0.53125294
720.00  -3.88591619   0.53569076
722.00  -3.92902614   0.54015310
724.00  -3.97225342   0.54464004
726.00  -4.01559798   0.54915164
728.00  -4.05905983   0.55368796
730.00  -4.10263893   0.55824908
732.00  -4.14633528   0.56283506
734.00  -4.19014884   0.56744596
736.00  -4.23407961   0.57208185
738.00  -4.27812755   0.57674279
740.00  -4.32229267   0.58142886
742.00  -4.36657492   0.58614012
744.00  -4.41097431   0.59087662
746.00  -4.45549080   0.59563845
748.00  -4.50012437   0.60042567
750.00  -4.54487502   0.60523833
752.00  -4.58974271   0.61007651
754.00  -4.63472743   0.61494027
756.00  -4.67982916   0.61982968
758.00  -4.72504788   0.62474481
760.00  -4.77038358   0.62968571
762.00  -4.81583622   0.63465246
764.00  -4.86140580   0.63964512
766.00  -4.90709229   0.64466375
768.00  -4.95289567   0.64970843
770.00  -4.99881592   0.65477921
772.00  -5.04485302   0.65987617
774.00  -5.09100696   0.66499936
776.00  -5.13727771   0.67014886
778.00  -5.18366526   0.67532473
780.00  -5.23016958   0.68052703
782.00  -5.27679065   0.68575583
784.00  -5.32352845   0.69101120
786.00  -5.37038297   0.69629320
788.00  -5.41735418   0.70160190
790.00  -5.46444206   0.70693736
792.00  -5.51164659   0.71229964
794.00  -5.55896775   0.71768882
796.00  -5.60640553   0.72310496
798.00  -5.65395990   0.72854812
800.00  -5.70163084   0.73401836
802.00  -5.74941832   0.73951576
804.00  -5.79732234   0.74504039
806.00  -5.84534287   0.75059229
808.00  -5.89347988   0.75617154
810.00  -5.94173336   0.76177821
812.00  -5.99010329   0.76741236
814.00  -6.03858964   0.77307405
816.00  -6.08719240   0.77876336
818.00  -6.13591154   0.78448034
820.00  -6.18474704   0.79022505
822.00  -6.23369889   0.79599758
824.00  -6.28276705   0.80179797
826.00  -6.33195152   0.80762630
828.00  -6.38125227   0.81348263
830.00  -6.43066927   0.81936703
832.00  -6.48020251   0.82527956
834.00  -6.52985196   0.83122028
836.00  -6.57961761   0.83718926
838.00  -6.62949943   0.84318656
840.00  -6.67949739   0.84921226
842.00  -6.72961149   0.85526641
844.00  -6.77984170   0.86134908
846.00  -6.83018799   0.86746034
848.00  -6.88065035   0.87360024
850.00  -6.93122875   0.87976886
852.00  -6.98192316   0.88596626
854.00  -7.03273358   0.89219250
856.00  -7.08365998   0.89844765
858.00  -7.13470233   0.90473178
860.00  -7.18586062   0.91104494
862.00  -7.23713481   0.91738720
864.00  -7.28852490   0.92375863
866.00  -7.34003085   0.93015929
868.00  -7.39165265   0.93658925
870.00  -7.44339027   0.94304857
872.00  -7.49524369   0.94953731
874.00  -7.54721289   0.95605555
876.00  -7.59929785   0.96260334
878.00  -7.65149854   0.96918074
880.00  -7.70381494   0.97578784
882.00  -7.75624703   0.98242468
884.00  -7.80879479   0.98909133
886.00  -7.86145819   0.99578785
888.00  -7.91423722   1.00251432
890.00  -7.96713184   1.00927080
892.00  -8.02014204   1.01605734
894.00  -8.07326779   1.02287402
896.00  -8.12650907   1.02972090
898.00  -8.17986587   1.03659804
900.00  -8.23333814   1.04350550
902.00  -8.28692588   1.05044336
904.00  -8.34062905   1.05741168
906.00  -8.39444765   1.06441051
908.00  -8.44838163   1.07143992
910.00  -8.50243099   1.07849999
912.00  -8.55659569   1.08559077
914.00  -8.61087571   1.09271232
916.00  -8.66527104   1.09986471
918.00  -8.71978164   1.10704801
920.00  -8.77440750   1.11426228
922.00  -8.82914858   1.12150757
924.00  -8.88400487   1.12878397
926.00  -8.93897635   1.13609152
928.00  -8.99406299   1.14343030
930.00  -9.04926476   1.15080037
932.00  -9.10458164   1.15820179
934.00  -9.16001361   1.16563463
936.00  -9.21556065   1.17309894
938.00  -9.27122273   1.18059480
940.00  -9.32699983   1.18812227
942.00  -9.38289192   1.19568141
944.00  -9.43889898   1.20327228
946.00  -9.49502098   1.21089495
948.00  -9.55125791   1.21854949
950.00  -9.60760973   1.22623595
952.00  -9.66407643   1.23395440
954.00  -9.72065798   1.24170490
956.00  -9.77735435   1.24948753
958.00  -9.83416553   1.25730233
960.00  -9.89109148   1.26514938
962.00  -9.94813218   1.27302873
964.00 -10.00528761   1.28094046
966.00 -10.06255775   1.28888462
968.00 -10.11994256   1.29686128
970.00 -10.17744203   1.30487051
972.00 -10.23505613   1.31291236
974.00 -10.29278483   1.32098690
976.00 -10.35062811   1.32909419
978.00 -10.40858595   1.33723429
980.00 -10.46665833   1.34540728
982.00 -10.52484520   1.35361321
984.00 -10.58314656   1.36185214
986.00 -10.64156238   1.37012414
988.00 -10.70009263   1.37842928
990.00 -10.75873728   1.38676761
992.00 -10.81749632   1.39513920
994.00 -10.87636972   1.40354411
996.00 -10.93535744   1.41198241
998.00 -10.99445947   1.42045416
1000.00 -11.05367579   1.42895941
1002.00 -11.11300636   1.43749825
1004.00 -11.17245116   1.44607072
1006.00 -11.23201016   1.45467689
1008.00 -11.29168335   1.46331682
1010.00 -11.35147069   1.47199058
1012.00 -11.41137216   1.48069824
1014.00 -11.47138773   1.48943984
1016.00 -11.53151738   1.49821546
1018.00 -11.59176108   1.50702516
1020.00 -11.65211881   1.51586900
1022.00 -11.71259054   1.52474704
1024.00 -11.77317625   1.53365935
1026.00 -11.83387590   1.54260600
1028.00 -11.89468948   1.55158703
1030.00 -11.95561695   1.56060252
1032.00 -12.01665830   1.56965253
1034.00 -12.07781349   1.57873712
1036.00 -12.13908251   1.58785635
1038.00 -12.20046531   1.59701029
1040.00 -12.26196189   1.60619900
1042.00 -12.32357220   1.61542254
1044.00 -12.38529623   1.62468098
1046.00 -12.44713395   1.63397437
1048.00 -12.50908533   1.64330278
1050.00 -12.57115035   1.65266627
1052.00 -12.63332898   1.66206491
1054.00 -12.69562119   1.67149876
1056.00 -12.75802696   1.68096787
1058.00 -12.82054625   1.69047232
1060.00 -12.88317905   1.70001216
1062.00 -12.94592533   1.70958745
1064.00 -13.00878506   1.71919827
1066.00 -13.07175821   1.72884467
1068.00 -13.13484476   1.73852671
1070.00 -13.19804468   1.74824445
1072.00 -13.26135794   1.75799797
1074.00 -13.32478452   1.76778731
1076.00 -13.38832439   1.77761255
1078.00 -13.45197752   1.78747374
1080.00 -13.51574389   1.79737095
1082.00 -13.57962346   1.80730424
1084.00 -13.64361622   1.81727367
1086.00 -13.70772213   1.82727930
1088.00 -13.77194117   1.83732120
1090.00 -13.83627330   1.84739942
1092.00 -13.90071851   1.85751404
1094.00 -13.96527677   1.86766510
1096.00 -14.02994804   1.87785268
1098.00 -14.09473230   1.88807684
1100.00 -14.15962952   1.89833763
1102.00 -14.22463968   1.90863512
1104.00 -14.28976275   1.91896937
1106.00 -14.35499870   1.92934044
1108.00 -14.42034750   1.93974840
1110.00 -14.48580912   1.95019330
1112.00 -14.55138354   1.96067521
1114.00 -14.61707073   1.97119419
1116.00 -14.68287066   1.98175030
1118.00 -14.74878331   1.99234360
1120.00 -14.81480864   2.00297416
1122.00 -14.88094662   2.01364204
1124.00 -14.94719724   2.02434729
1126.00 -15.01356046   2.03508998
1128.00 -15.08003625   2.04587017
1130.00 -15.14662459   2.05668793
1132.00 -15.21332544   2.06754331
1134.00 -15.28013878   2.07843637
1136.00 -15.34706459   2.08936718
1138.00 -15.41410282   2.10033580
1140.00 -15.48125346   2.11134229
1142.00 -15.54851647   2.12238671
1144.00 -15.61589184   2.13346912
1146.00 -15.68337952   2.14458958
1148.00 -15.75097949   2.15574816
1150.00 -15.81869172   2.16694491
1152.00 -15.88651618   2.17817991
1154.00 -15.95445285   2.18945320
1156.00 -16.02250169   2.20076485
1158.00 -16.09066268   2.21211492
1160.00 -16.15893579   2.22350347
1162.00 -16.22732098   2.23493056
1164.00 -16.29581824   2.24639626
1166.00 -16.36442753   2.25790062
1168.00 -16.43314882   2.26944371
1170.00 -16.50198208   2.28102559
1172.00 -16.57092729   2.29264631
1174.00 -16.63998441   2.30430595
1176.00 -16.70915342   2.31600455
1178.00 -16.77843428   2.32774218
1180.00 -16.84782697   2.33951890
1182.00 -16.91733146   2.35133478
1184.00 -16.98694772   2.36318987
1186.00 -17.05667572   2.37508423
1188.00 -17.12651542   2.38701793
1190.00 -17.19646681   2.39899102
1192.00 -17.26652985   2.41100357
1194.00 -17.33670451   2.42305563
1196.00 -17.40699076   2.43514727
1198.00 -17.47738858   2.44727855
1200.00 -17.54789792   2.45944952
1202.00 -17.61851877   2.47166026
1204.00 -17.68925110   2.48391081
1206.00 -17.76009486   2.49620125
1208.00 -17.83105004   2.50853162
1210.00 -17.90211661   2.52090200
1212.00 -17.97329452   2.53331243
1214.00 -18.04458376   2.54576299
1216.00 -18.11598430   2.55825373
1218.00 -18.18749610   2.57078471
1220.00 -18.25911913   2.58335599
1222.00 -18.33085336   2.59596764
1224.00 -18.40269877   2.60861970
1226.00 -18.47465532   2.62131225
1228.00 -18.54672298   2.63404535
1230.00 -18.61890173   2.64681905
1232.00 -18.69119153   2.65963341
1234.00 -18.76359235   2.67248849
1236.00 -18.83610416   2.68538436
1238.00 -18.90872693   2.69832107
1240.00 -18.98146063   2.71129868
1242.00 -19.05430523   2.72431726
1244.00 -19.12726070   2.73737686
1246.00 -19.20032701   2.75047755
1248.00 -19.27350413   2.76361937
1250.00 -19.34679202   2.77680241
1252.00 -19.42019066   2.79002670
1254.00 -19.49370001   2.80329232
1256.00 -19.56732005   2.81659932
1258.00 -19.64105074   2.82994776
1260.00 -19.71489205   2.84333770
1262.00 -19.78884396   2.85676921
1264.00 -19.86290643   2.87024233
1266.00 -19.93707942   2.88375714
1268.00 -20.01136292   2.89731369
1270.00 -20.08575688   2.91091204
1272.00 -20.16026127   2.92455225
1274.00 -20.23487608   2.93823437
1276.00 -20.30960125   2.95195848
1278.00 -20.38443677   2.96572462
1280.00 -20.45938260   2.97953286
1282.00 -20.53443870   2.99338326
1284.00 -20.60960506   3.00727588
1286.00 -20.68488163   3.02121077
1288.00 -20.76026839   3.03518799
1290.00 -20.83576530   3.04920761
1292.00 -20.91137233   3.06326969
1294.00 -20.98708945   3.07737427
1296.00 -21.06291663   3.09152143
1298.00 -21.13885383   3.10571122
1300.00 -21.21490103   3.11994370
1302.00 -21.29105820   3.13421893
1304.00 -21.36732529   3.14853697
1306.00 -21.44370228   3.16289787
1308.00 -21.52018914   3.17730170
1310.00 -21.59678584   3.19174852
1312.00 -21.67349234   3.20623838
1314.00 -21.75030861   3.22077134
1316.00 -21.82723462   3.23534747
1318.00 -21.90427033   3.24996682
1320.00 -21.98141572   3.26462945
1322.00 -22.05867075   3.27933541
1324.00 -22.13603539   3.29408478
1326.00 -22.21350961   3.30887760
1328.00 -22.29109338   3.32371393
1330.00 -22.36878666   3.33859384
1332.00 -22.44658941   3.35351738
1334.00 -22.52450162   3.36848462
1336.00 -22.60252324   3.38349560
1338.00 -22.68065425   3.39855039
1340.00 -22.75889460   3.41364905
1342.00 -22.83724427   3.42879163
1344.00 -22.91570323   3.44397820
1346.00 -22.99427144   3.45920880
1348.00 -23.07294887   3.47448351
1350.00 -23.15173548   3.48980238
1352.00 -23.23063125   3.50516546
1354.00 -23.30963614   3.52057283
1356.00 -23.38875012   3.53602452
1358.00 -23.46797315   3.55152061
1360.00 -23.54730520   3.56706114
1362.00 -23.62674625   3.58264619
1364.00 -23.70629625   3.59827580
1366.00 -23.78595517   3.61395004
1368.00 -23.86572298   3.62966896
1370.00 -23.94559964   3.64543262
1372.00 -24.02558513   3.66124108
1374.00 -24.10567941   3.67709440
1376.00 -24.18588245   3.69299263
1378.00 -24.26619420   3.70893584
1380.00 -24.34661465   3.72492408
1382.00 -24.42714376   3.74095741
1384.00 -24.50778148   3.75703588
1386.00 -24.58852780   3.77315956
1388.00 -24.66938267   3.78932850
1390.00 -24.75034606   3.80554276
1392.00 -24.83141794   3.82180240
1394.00 -24.91259827   3.83810747
1396.00 -24.99388703   3.85445804
1398.00 -25.07528417   3.87085416
1400.00 -25.15678966   3.88729589
1402.00 -25.23840348   3.90378328
1404.00 -25.32012557   3.92031640
1406.00 -25.40195592   3.93689530
1408.00 -25.48389449   3.95352004
1410.00 -25.56594124   3.97019067
1412.00 -25.64809614   3.98690726
1414.00 -25.73035916   4.00366986
1416.00 -25.81273025   4.02047853
1418.00 -25.89520939   4.03733333
1420.00 -25.97779655   4.05423430
1422.00 -26.06049168   4.07118152
1424.00 -26.14329476   4.08817504
1426.00 -26.22620575   4.10521491
1428.00 -26.30922461   4.12230119
1430.00 -26.39235131   4.13943394
1432.00 -26.47558582   4.15661322
1434.00 -26.55892810   4.17383908
1436.00 -26.64237812   4.19111158
1438.00 -26.72593584   4.20843078
1440.00 -26.80960123   4.22579673
1442.00 -26.89337425   4.24320950
1444.00 -26.97725487   4.26066913
1446.00 -27.06124306   4.27817569
1448.00 -27.14533877   4.29572923
1450.00 -27.22954198   4.31332981
1452.00 -27.31385265   4.33097749
1454.00 -27.39827074   4.34867231
1456.00 -27.48279623   4.36641435
1458.00 -27.56742907   4.38420365
1460.00 -27.65216922   4.40204028
1462.00 -27.73701667   4.41992428
1464.00 -27.82197136   4.43785573
1466.00 -27.90703327   4.45583466
1468.00 -27.99220235   4.47386114
1470.00 -28.07747858   4.49193523
1472.00 -28.16286192   4.51005698
1474.00 -28.24835234   4.52822645
1476.00 -28.33394979   4.54644369
1478.00 -28.41965424   4.56470876
1480.00 -28.50546566   4.58302172
1482.00 -28.59138402   4.60138263
1484.00 -28.67740927   4.61979153
1486.00 -28.76354138   4.63824850
1488.00 -28.84978032   4.65675357
1490.00 -28.93612605   4.67530681
1492.00 -29.02257853   4.69390828
1494.00 -29.10913773   4.71255803
1496.00 -29.19580362   4.73125612
1498.00 -29.28257615   4.75000259
1500.00 -29.36945529   4.76879752
1502.00 -29.45644101   4.78764096
1504.00 -29.54353327   4.80653295
1506.00 -29.63073203   4.82547356
1508.00 -29.71803726   4.84446285
1510.00 -29.80544893   4.86350086
1512.00 -29.89296699   4.88258766
1514.00 -29.98059141   4.90172330
1516.00 -30.06832215   4.92090783
1518.00 -30.15615918   4.94014132
1520.00 -30.24410247   4.95942381
1522.00 -30.33215196   4.97875537
1524.00 -30.42030764   4.99813604
1526.00 -30.50856946   5.01756589
1528.00 -30.59693739   5.03704497
1530.00 -30.68541139   5.05657334
1532.00 -30.77399142   5.07615105
1534.00 -30.86267745   5.09577815
1536.00 -30.95146944   5.11545470
1538.00 -31.04036736   5.13518077
1540.00 -31.12937116   5.15495639
1542.00 -31.21848082   5.17478163
1544.00 -31.30769629   5.19465655
1546.00 -31.39701754   5.21458119
1548.00 -31.48644453   5.23455562
1550.00 -31.57597722   5.25457989
1552.00 -31.66561558   5.27465405
1554.00 -31.75535958   5.29477816
1556.00 -31.84520917   5.31495228
1558.00 -31.93516431   5.33517645
1560.00 -32.02522498   5.35545074
1562.00 -32.11539113   5.37577519
1564.00 -32.20566273   5.39614988
1566.00 -32.29603974   5.41657484
1568.00 -32.38652212   5.43705013
1570.00 -32.47710984   5.45757582
1572.00 -32.56780285   5.47815194
1574.00 -32.65860113   5.49877857
1576.00 -32.74950463   5.51945575
1578.00 -32.84051331   5.54018354
1580.00 -32.93162715   5.56096199
1582.00 -33.02284610   5.58179115
1584.00 -33.11417012   5.60267109
1586.00 -33.20559919   5.62360186
1588.00 -33.29713325   5.64458351
1590.00 -33.38877227   5.66561609
1592.00 -33.48051622   5.68669966
1594.00 -33.57236506   5.70783428
1596.00 -33.66431875   5.72901999
1598.00 -33.75637725   5.75025686
1600.00 -33.84854053   5.77154494
1602.00 -33.94080854   5.79288428
1604.00 -34.03318125   5.81427493
1606.00 -34.12565863   5.83571696
1608.00 -34.21824062   5.85721041
1610.00 -34.31092721   5.87875534
1612.00 -34.40371834   5.90035180
1614.00 -34.49661399   5.92199985
1616.00 -34.58961410   5.94369954
1618.00 -34.68271865   5.96545092
1620.00 -34.77592760   5.98725406
1622.00 -34.86924090   6.00910899
1624.00 -34.96265853   6.03101579
1626.00 -35.05618044   6.05297449
1628.00 -35.14980659   6.07498516
1630.00 -35.24353695   6.09704785
1632.00 -35.33737148   6.11916261
1634.00 -35.43131013   6.14132950
1636.00 -35.52535288   6.16354857
1638.00 -35.61949968   6.18581987
1640.00 -35.71375050   6.20814345
1642.00 -35.80810529   6.23051938
1644.00 -35.90256402   6.25294770
1646.00 -35.99712664   6.27542847
1648.00 -36.09179313   6.29796175
1650.00 -36.18656345   6.32054757
1652.00 -36.28143754   6.34318601
1654.00 -36.37641538   6.36587711
1656.00 -36.47149693   6.38862092
1658.00 -36.56668214   6.41141750
1660.00 -36.66197099   6.43426690
1662.00 -36.75736342   6.45716918
1664.00 -36.85285941   6.48012438
1666.00 -36.94845891   6.50313257
1668.00 -37.04416188   6.52619379
1670.00 -37.13996829   6.54930810
1672.00 -37.23587809   6.57247555
1674.00 -37.33189125   6.59569619
1676.00 -37.42800773   6.61897008
1678.00 -37.52422749   6.64229727
1680.00 -37.62055049   6.66567782
1682.00 -37.71697669   6.68911177
1684.00 -37.81350605   6.71259917
1686.00 -37.91013853   6.73614009
1688.00 -38.00687410   6.75973457
1690.00 -38.10371271   6.78338267
1692.00 -38.20065433   6.80708444
1694.00 -38.29769891   6.83083994
1696.00 -38.39484642   6.85464920
1698.00 -38.49209681   6.87851230
1700.00 -38.58945006   6.90242927
1702.00 -38.68690611   6.92640018
1704.00 -38.78446493   6.95042507
1706.00 -38.88212648   6.97450400
1708.00 -38.97989072   6.99863703
1710.00 -39.07775761   7.02282419
1712.00 -39.17572711   7.04706555
1714.00 -39.27379918   7.07136115
1716.00 -39.37197378   7.09571106
1718.00 -39.47025087   7.12011532
1720.00 -39.56863042   7.14457398
1722.00 -39.66711237   7.16908710
1724.00 -39.76569670   7.19365473
1726.00 -39.86438336   7.21827691
1728.00 -39.96317231   7.24295371
1730.00 -40.06206352   7.26768518
1732.00 -40.16105694   7.29247136
1734.00 -40.26015253   7.31731231
1736.00 -40.35935025   7.34220808
1738.00 -40.45865006   7.36715873
1740.00 -40.55805193   7.39216430
1742.00 -40.65755581   7.41722484
1744.00 -40.75716166   7.44234042
1746.00 -40.85686945   7.46751107
1748.00 -40.95667912   7.49273685
1750.00 -41.05659065   7.51801782
1752.00 -41.15660399   7.54335403
1754.00 -41.25671909   7.56874552
1756.00 -41.35693593   7.59419234
1758.00 -41.45725446   7.61969456
1760.00 -41.55767464   7.64525222
1762.00 -41.65819643   7.67086537
1764.00 -41.75881978   7.69653407
1766.00 -41.85954467   7.72225836
1768.00 -41.96037104   7.74803830
1770.00 -42.06129886   7.77387393
1772.00 -42.16232809   7.79976532
1774.00 -42.26345868   7.82571250
1776.00 -42.36469059   7.85171554
1778.00 -42.46602379   7.87777448
1780.00 -42.56745824   7.90388938
1782.00 -42.66899388   7.93006028
1784.00 -42.77063069   7.95628724
1786.00 -42.87236862   7.98257030
1788.00 -42.97420763   8.00890953
1790.00 -43.07614768   8.03530496
1792.00 -43.17818873   8.06175665
1794.00 -43.28033074   8.08826466
1796.00 -43.38257366   8.11482903
1798.00 -43.48491746   8.14144981
1800.00 -43.58736209   8.16812705
1802.00 -43.68990751   8.19486081
1804.00 -43.79255369   8.22165113
1806.00 -43.89530058   8.24849807
1808.00 -43.99814813   8.27540167
1810.00 -44.10109632   8.30236199
1812.00 -44.20414509   8.32937908
1814.00 -44.30729441   8.35645299
1816.00 -44.41054423   8.38358377
1818.00 -44.51389452   8.41077146
1820.00 -44.61734523   8.43801612
1822.00 -44.72089631   8.46531781
1824.00 -44.82454774   8.49267656
1826.00 -44.92829947   8.52009243
1828.00 -45.03215145   8.54756548
1830.00 -45.13610364   8.57509574
1832.00 -45.24015601   8.60268328
1834.00 -45.34430850   8.63032814
1836.00 -45.44856109   8.65803037
1838.00 -45.55291373   8.68579002
1840.00 -45.65736637   8.71360714
1842.00 -45.76191897   8.74148178
1844.00 -45.86657150   8.76941399
1846.00 -45.97132391   8.79740383
1848.00 -46.07617616   8.82545133
1850.00 -46.18112820   8.85355656
1852.00 -46.28618000   8.88171956
1854.00 -46.39133151   8.90994037
1856.00 -46.49658269   8.93821906
1858.00 -46.60193351   8.96655567
1860.00 -46.70738390   8.99495025
1862.00 -46.81293385   9.02340284
1864.00 -46.91858330   9.05191351
1866.00 -47.02433220   9.08048229
1868.00 -47.13018053   9.10910924
1870.00 -47.23612823   9.13779441
1872.00 -47.34217527   9.16653784
1874.00 -47.44832160   9.19533960
1876.00 -47.55456718   9.22419971
1878.00 -47.66091196   9.25311824
1880.00 -47.76735591   9.28209524
1882.00 -47.87389899   9.31113074
1884.00 -47.98054114   9.34022481
1886.00 -48.08728233   9.36937750
1888.00 -48.19412252   9.39858884
1890.00 -48.30106166   9.42785889
1892.00 -48.40809971   9.45718770
1894.00 -48.51523662   9.48657532
1896.00 -48.62247237   9.51602180
1898.00 -48.72980689   9.54552718
1900.00 -48.83724016   9.57509151
1902.00 -48.94477212   9.60471485
1904.00 -49.05240273   9.63439724
1906.00 -49.16013196   9.66413873
1908.00 -49.26795976   9.69393938
1910.00 -49.37588608   9.72379922
1912.00 -49.48391089   9.75371830
1914.00 -49.59203414   9.78369669
1916.00 -49.70025578   9.81373442
1918.00 -49.80857578   9.84383154
1920.00 -49.91699409   9.87398810
1922.00 -50.02551067   9.90420415
1924.00 -50.13412548   9.93447974
1926.00 -50.24283846   9.96481492
1928.00 -50.35164959   9.99520973
1930.00 -50.46055882  10.02566423
1932.00 -50.56956609  10.05617845
1934.00 -50.67867138  10.08675246
1936.00 -50.78787463  10.11738630
1938.00 -50.89717581  10.14808001
1940.00 -51.00657487  10.17883364
1942.00 -51.11607177  10.20964725
1944.00 -51.22566646  10.24052088
1946.00 -51.33535890  10.27145458
1948.00 -51.44514904  10.30244839
1950.00 -51.55503686  10.33350237
1952.00 -51.66502229  10.36461656
1954.00 -51.77510530  10.39579101
1956.00 -51.88528584  10.42702577
1958.00 -51.99556387  10.45832089
1960.00 -52.10593935  10.48967641
1962.00 -52.21641223  10.52109238
1964.00 -52.32698247  10.55256884
1966.00 -52.43765002  10.58410586
1968.00 -52.54841485  10.61570347
1970.00 -52.65927691  10.64736172
1972.00 -52.77023615  10.67908066
1974.00 -52.88129253  10.71086034
1976.00 -52.99244601  10.74270080
1978.00 -53.10369654  10.77460209
1980.00 -53.21504408  10.80656426
1982.00 -53.32648858  10.83858736
1984.00 -53.43803001  10.87067143
1986.00 -53.54966831  10.90281652
1988.00 -53.66140345  10.93502268
1990.00 -53.77323538  10.96728996
1992.00 -53.88516405  10.99961839
1994.00 -53.99718943  11.03200804
1996.00 -54.10931146  11.06445894
1998.00 -54.22153011  11.09697114
2000.00 -54.33384532  11.12954470
2002.00 -54.44625706  11.16217965
2004.00 -54.55876529  11.19487605
2006.00 -54.67136994  11.22763394
2008.00 -54.78407100  11.26045336
2010.00 -54.89686840  11.29333437
2012.00 -55.00976210  11.32627701
2014.00 -55.12275206  11.35928133
2016.00 -55.23583824  11.39234737
2018.00 -55.34902059  11.42547518
2020.00 -55.46229907  11.45866482
2022.00 -55.57567362  11.49191631
2024.00 -55.68914422  11.52522972
2026.00 -55.80271081  11.55860508
2028.00 -55.91637334  11.59204245
2030.00 -56.03013179  11.62554186
2032.00 -56.14398609  11.65910338
2034.00 -56.25793620  11.69272703
2036.00 -56.37198209  11.72641288
2038.00 -56.48612370  11.76016096
2040.00 -56.60036099  11.79397132
2042.00 -56.71469392  11.82784401
2044.00 -56.82912244  11.86177907
2046.00 -56.94364651  11.89577655
2048.00 -57.05826608  11.92983649
2050.00 -57.17298110  11.96395895
2052.00 -57.28779154  11.99814396
2054.00 -57.40269735  12.03239158
2056.00 -57.51769848  12.06670185
2058.00 -57.63279488  12.10107481
2060.00 -57.74798652  12.13551052
2062.00 -57.86327335  12.17000900
2064.00 -57.97865532  12.20457033
2066.00 -58.09413238  12.23919453
2068.00 -58.20970450  12.27388165
2070.00 -58.32537163  12.30863174
2072.00 -58.44113372  12.34344485
2074.00 -58.55699072  12.37832101
2076.00 -58.67294260  12.41326028
2078.00 -58.78898930  12.44826271
2080.00 -58.90513079  12.48332833
2082.00 -59.02136701  12.51845719
2084.00 -59.13769792  12.55364934
2086.00 -59.25412348  12.58890481
2088.00 -59.37064364  12.62422367
2090.00 -59.48725836  12.65960595
2092.00 -59.60396758  12.69505170
2094.00 -59.72077127  12.73056096
2096.00 -59.83766937  12.76613378
2098.00 -59.95466185  12.80177020
2100.00 -60.07174866  12.83747027
2102.00 -60.18892975  12.87323403
2104.00 -60.30620508  12.90906153
2106.00 -60.42357460  12.94495281
2108.00 -60.54103826  12.98090792
2110.00 -60.65859602  13.01692691
2112.00 -60.77624784  13.05300981
2114.00 -60.89399367  13.08915667
2116.00 -61.01183346  13.12536753
2118.00 -61.12976716  13.16164245
2120.00 -61.24779474  13.19798147
2122.00 -61.36591614  13.23438462
2124.00 -61.48413133  13.27085196
2126.00 -61.60244024  13.30738352
2128.00 -61.72084285  13.34397936
2130.00 -61.83933910  13.38063952
2132.00 -61.95792894  13.41736404
2134.00 -62.07661233  13.45415297
2136.00 -62.19538923  13.49100635
2138.00 -62.31425959  13.52792422
2140.00 -62.43322336  13.56490663
2142.00 -62.55228050  13.60195363
2144.00 -62.67143095  13.63906525
2146.00 -62.79067468  13.67624154
2148.00 -62.91001164  13.71348255
2150.00 -63.02944178  13.75078832
2152.00 -63.14896506  13.78815889
2154.00 -63.26858143  13.82559431
2156.00 -63.38829083  13.86309462
2158.00 -63.50809324  13.90065986
2160.00 -63.62798860  13.93829009
2162.00 -63.74797686  13.97598533
2164.00 -63.86805798  14.01374564
2166.00 -63.98823192  14.05157106
2168.00 -64.10849861  14.08946164
2170.00 -64.22885803  14.12741741
2172.00 -64.34931012  14.16543842
2174.00 -64.46985484  14.20352472
2176.00 -64.59049214  14.24167634
2178.00 -64.71122197  14.27989333
2180.00 -64.83204428  14.31817574
2182.00 -64.95295904  14.35652361
2184.00 -65.07396619  14.39493697
2186.00 -65.19506569  14.43341588
2188.00 -65.31625749  14.47196038
2190.00 -65.43754154  14.51057051
2192.00 -65.55891780  14.54924631
2194.00 -65.68038622  14.58798782
2196.00 -65.80194676  14.62679510
2198.00 -65.92359936  14.66566818
2200.00 -66.04534398  14.70460710
2202.00 -66.16718058  14.74361192
2204.00 -66.28910910  14.78268266
2206.00 -66.41112950  14.82181938
2208.00 -66.53324174  14.86102211
2210.00 -66.65544576  14.90029091
2212.00 -66.77774152  14.93962581
2214.00 -66.90012898  14.97902685
2216.00 -67.02260808  15.01849408
2218.00 -67.14517877  15.05802754
2220.00 -67.26784102  15.09762727
2222.00 -67.39059478  15.13729332
2224.00 -67.51343999  15.17702573
2226.00 -67.63637661  15.21682453
2228.00 -67.75940459  15.25668978
2230.00 -67.88252390  15.29662152
2232.00 -68.00573447  15.33661978
2234.00 -68.12903626  15.37668461
2236.00 -68.25242922  15.41681605
2238.00 -68.37591332  15.45701415
2240.00 -68.49948849  15.49727894
2242.00 -68.62315470  15.53761047
2244.00 -68.74691189  15.57800878
2246.00 -68.87076002  15.61847391
2248.00 -68.99469904  15.65900591
2250.00 -69.11872891  15.69960481
2252.00 -69.24284957  15.74027066
2254.00 -69.36706098  15.78100350
2256.00 -69.49136310  15.82180338
2258.00 -69.61575586  15.86267032
2260.00 -69.74023924  15.90360438
2262.00 -69.86481317  15.94460560
2264.00 -69.98947761  15.98567402
2266.00 -70.11423252  16.02680967
2268.00 -70.23907784  16.06801261
2270.00 -70.36401354  16.10928287
2272.00 -70.48903955  16.15062050
2274.00 -70.61415584  16.19202553
2276.00 -70.73936235  16.23349801
2278.00 -70.86465904  16.27503798
2280.00 -70.99004587  16.31664548
2282.00 -71.11552277  16.35832055
2284.00 -71.24108971  16.40006323
2286.00 -71.36674664  16.44187356
2288.00 -71.49249351  16.48375159
2290.00 -71.61833027  16.52569736
2292.00 -71.74425687  16.56771091
2294.00 -71.87027327  16.60979227
2296.00 -71.99637942  16.65194149
2298.00 -72.12257527  16.69415861
2300.00 -72.24886077  16.73644367
2302.00 -72.37523587  16.77879672
2304.00 -72.50170054  16.82121779
2306.00 -72.62825471  16.86370692
2308.00 -72.75489834  16.90626415
2310.00 -72.88163138  16.94888953
2312.00 -73.00845379  16.99158310
2314.00 -73.13536551  17.03434489
2316.00 -73.26236650  17.07717494
2318.00 -73.38945672  17.12007331
2320.00 -73.51663610  17.16304002
2322.00 -73.64390461  17.20607512
2324.00 -73.77126219  17.24917865
2326.00 -73.89870880  17.29235065
2328.00 -74.02624440  17.33559116
2330.00 -74.15386892  17.37890021
2332.00 -74.28158232  17.42227786
2334.00 -74.40938456  17.46572414
2336.00 -74.53727559  17.50923908
2338.00 -74.66525535  17.55282274
2340.00 -74.79332380  17.59647514
2342.00 -74.92148089  17.64019634
2344.00 -75.04972658  17.68398637
2346.00 -75.17806081  17.72784527
2348.00 -75.30648354  17.77177307
2350.00 -75.43499471  17.81576983
2352.00 -75.56359428  17.85983558
2354.00 -75.69228221  17.90397035
2356.00 -75.82105843  17.94817420
2358.00 -75.94992291  17.99244715
2360.00 -76.07887559  18.03678926
2362.00 -76.20791643  18.08120055
2364.00 -76.33704538  18.12568107
2366.00 -76.46626238  18.17023085
2368.00 -76.59556740  18.21484994
2370.00 -76.72496037  18.25953838
2372.00 -76.85444126  18.30429621
2374.00 -76.98401002  18.34912346
2376.00 -77.11366659  18.39402017
2378.00 -77.24341092  18.43898639
2380.00 -77.37324298  18.48402215
2382.00 -77.50316270  18.52912749
2384.00 -77.63317004  18.57430245
2386.00 -77.76326496  18.61954708
2388.00 -77.89344740  18.66486140
2390.00 -78.02371731  18.71024546
2392.00 -78.15407465  18.75569930
2394.00 -78.28451936  18.80122295
2396.00 -78.41505140  18.84681646
2398.00 -78.54567071  18.89247986
2400.00 -78.67637726  18.93821320
2402.00 -78.80717099  18.98401651
2404.00 -78.93805185  19.02988983
2406.00 -79.06901979  19.07583319
2408.00 -79.20007476  19.12184665
2410.00 -79.33121672  19.16793023
2412.00 -79.46244561  19.21408397
2414.00 -79.59376139  19.26030792
2416.00 -79.72516400  19.30660211
2418.00 -79.85665340  19.35296658
2420.00 -79.98822954  19.39940137
2422.00 -80.11989237  19.44590651
2424.00 -80.25164184  19.49248205
2426.00 -80.38347790  19.53912802
2428.00 -80.51540050  19.58584447
2430.00 -80.64740959  19.63263143
2432.00 -80.77950513  19.67948893
2434.00 -80.91168706  19.72641702
2436.00 -81.04395533  19.77341573
2438.00 -81.17630990  19.82048511
2440.00 -81.30875071  19.86762518
2442.00 -81.44127772  19.91483599
2444.00 -81.57389088  19.96211758
2446.00 -81.70659013  20.00946999
2448.00 -81.83937543  20.05689324
2450.00 -81.97224673  20.10438739
2452.00 -82.10520398  20.15195246
2454.00 -82.23824713  20.19958849
2456.00 -82.37137612  20.24729553
2458.00 -82.50459092  20.29507361
2460.00 -82.63789147  20.34292276
2462.00 -82.77127772  20.39084303
2464.00 -82.90474962  20.43883445
2466.00 -83.03830713  20.48689707
2468.00 -83.17195018  20.53503091
2470.00 -83.30567874  20.58323601
2472.00 -83.43949275  20.63151241
2474.00 -83.57339217  20.67986016
2476.00 -83.70737694  20.72827928
2478.00 -83.84144701  20.77676981
2480.00 -83.97560233  20.82533180
2482.00 -84.10984287  20.87396527
2484.00 -84.24416855  20.92267027
2486.00 -84.37857934  20.97144683
2488.00 -84.51307519  21.02029498
2490.00 -84.64765604  21.06921478
2492.00 -84.78232184  21.11820624
2494.00 -84.91707255  21.16726942
2496.00 -85.05190812  21.21640434
2498.00 -85.18682849  21.26561104
2500.00 -85.32183362  21.31488956
2502.00 -85.45692346  21.36423994
2504.00 -85.59209795  21.41366221
2506.00 -85.72735704  21.46315641
2508.00 -85.86270069  21.51272258
2510.00 -85.99812885  21.56236075
2512.00 -86.13364146  21.61207095
2514.00 -86.26923848  21.66185324
2516.00 -86.40491986  21.71170763
2518.00 -86.54068554  21.76163417
2520.00 -86.67653547  21.81163290
2522.00 -86.81246961  21.86170384
2524.00 -86.94848791  21.91184704
2526.00 -87.08459031  21.96206254
2528.00 -87.22077677  22.01235036
2530.00 -87.35704723  22.06271055
2532.00 -87.49340164  22.11314314
2534.00 -87.62983996  22.16364817
2536.00 -87.76636214  22.21422566
2538.00 -87.90296812  22.26487567
2540.00 -88.03965785  22.31559822
2542.00 -88.17643128  22.36639335
2544.00 -88.31328837  22.41726110
2546.00 -88.45022906  22.46820150
2548.00 -88.58725330  22.51921459
2550.00 -88.72436105  22.57030040
2552.00 -88.86155224  22.62145897
2554.00 -88.99882684  22.67269033
2556.00 -89.13618479  22.72399452
2558.00 -89.27362604  22.77537158
2560.00 -89.41115054  22.82682154
2562.00 -89.54875823  22.87834443
2564.00 -89.68644908  22.92994030
2566.00 -89.82422302  22.98160917
2568.00 -89.96208002  23.03335108
2570.00 -90.10002001  23.08516607
2572.00 -90.23804295  23.13705418
2574.00 -90.37614878  23.18901543
2576.00 -90.51433746  23.24104986
2578.00 -90.65260893  23.29315751
2580.00 -90.79096315  23.34533841
2582.00 -90.92940006  23.39759260
2584.00 -91.06791962  23.44992011
2586.00 -91.20652177  23.50232098
2588.00 -91.34520646  23.55479524
2590.00 -91.48397364  23.60734293
2592.00 -91.62282326  23.65996408
2594.00 -91.76175528  23.71265873
2596.00 -91.90076963  23.76542690
2598.00 -92.03986627  23.81826864
2600.00 -92.17904515  23.87118399
2602.00 -92.31830621  23.92417296
2604.00 -92.45764941  23.97723561
2606.00 -92.59707470  24.03037196
2608.00 -92.73658202  24.08358204
2610.00 -92.87617132  24.13686590
2612.00 -93.01584256  24.19022357
2614.00 -93.15559567  24.24365507
2616.00 -93.29543062  24.29716045
2618.00 -93.43534735  24.35073974
2620.00 -93.57534581  24.40439298
2622.00 -93.71542594  24.45812019
2624.00 -93.85558771  24.51192141
2626.00 -93.99583105  24.56579668
2628.00 -94.13615591  24.61974603
2630.00 -94.27656225  24.67376949
2632.00 -94.41705001  24.72786710
2634.00 -94.55761914  24.78203889
2636.00 -94.69826960  24.83628489
2638.00 -94.83900132  24.89060514
2640.00 -94.97981427  24.94499968
2642.00 -95.12070838  24.99946853
2644.00 -95.26168361  25.05401173
2646.00 -95.40273990  25.10862931
2648.00 -95.54387721  25.16332132
2650.00 -95.68509549  25.21808777
2652.00 -95.82639467  25.27292870
2654.00 -95.96777472  25.32784415
2656.00 -96.10923557  25.38283416
2658.00 -96.25077718  25.43789874
2660.00 -96.39239951  25.49303795
2662.00 -96.53410248  25.54825180
2664.00 -96.67588607  25.60354034
2666.00 -96.81775020  25.65890359
2668.00 -96.95969484  25.71434160
2670.00 -97.10171993  25.76985438
2672.00 -97.24382542  25.82544199
2674.00 -97.38601126  25.88110444
2676.00 -97.52827739  25.93684177
2678.00 -97.67062377  25.99265402
2680.00 -97.81305035  26.04854122
2682.00 -97.95555707  26.10450339
2684.00 -98.09814388  26.16054058
2686.00 -98.24081073  26.21665282
2688.00 -98.38355757  26.27284013
2690.00 -98.52638434  26.32910256
2692.00 -98.66929100  26.38544013
2694.00 -98.81227750  26.44185287
2696.00 -98.95534378  26.49834083
2698.00 -99.09848979  26.55490402
2700.00 -99.24171548  26.61154249
2702.00 -99.38502080  26.66825627
2704.00 -99.52840570  26.72504538
2706.00 -99.67187012  26.78190987
2708.00 -99.81541401  26.83884975
2710.00 -99.95903733  26.89586508
2712.00 -100.10274002  26.95295587
2714.00 -100.24652202  27.01012216
2716.00 -100.39038330  27.06736398
2718.00 -100.53432379  27.12468137
2720.00 -100.67834344  27.18207435
2722.00 -100.82244221  27.23954296
2724.00 -100.96662004  27.29708723
2726.00 -101.11087687  27.35470719
2728.00 -101.25521267  27.41240287
2730.00 -101.39962737  27.47017431
2732.00 -101.54412092  27.52802153
2734.00 -101.68869328  27.58594458
2736.00 -101.83334439  27.64394347
2738.00 -101.97807419  27.70201824
2740.00 -102.12288264  27.76016893
2742.00 -102.26776969  27.81839557
2744.00 -102.41273528  27.87669818
2746.00 -102.55777937  27.93507679
2748.00 -102.70290189  27.99353145
2750.00 -102.84810280  28.05206218
2752.00 -102.99338204  28.11066901
2754.00 -103.13873958  28.16935197
2756.00 -103.28417534  28.22811109
2758.00 -103.42968928  28.28694641
2760.00 -103.57528136  28.34585796
2762.00 -103.72095150  28.40484577
2764.00 -103.86669968  28.46390986
2766.00 -104.01252582  28.52305028
2768.00 -104.15842989  28.58226704
2770.00 -104.30441183  28.64156019
2772.00 -104.45047158  28.70092975
2774.00 -104.59660910  28.76037575
2776.00 -104.74282433  28.81989823
2778.00 -104.88911722  28.87949721
2780.00 -105.03548772  28.93917272
2782.00 -105.18193578  28.99892481
2784.00 -105.32846134  29.05875349
2786.00 -105.47506436  29.11865879
2788.00 -105.62174478  29.17864076
2790.00 -105.76850254  29.23869941
2792.00 -105.91533760  29.29883479
2794.00 -106.06224991  29.35904691
2796.00 -106.20923941  29.41933581
2798.00 -106.35630604  29.47970152
2800.00 -106.50344977  29.54014407
2802.00 -106.65067053  29.60066350
2804.00 -106.79796828  29.66125982
2806.00 -106.94534296  29.72193307
2808.00 -107.09279451  29.78268329
2810.00 -107.24032290  29.84351050
2812.00 -107.38792805  29.90441472
2814.00 -107.53560994  29.96539600
2816.00 -107.68336849  30.02645436
2818.00 -107.83120366  30.08758983
2820.00 -107.97911540  30.14880244
2822.00 -108.12710365  30.21009222
2824.00 -108.27516836  30.27145921
2826.00 -108.42330948  30.33290342
2828.00 -108.57152695  30.39442489
2830.00 -108.71982074  30.45602365
2832.00 -108.86819077  30.51769973
2834.00 -109.01663701  30.57945316
2836.00 -109.16515939  30.64128396
2838.00 -109.31375786  30.70319218
2840.00 -109.46243238  30.76517783
2842.00 -109.61118289  30.82724094
2844.00 -109.76000934  30.88938156
2846.00 -109.90891168  30.95159969
2848.00 -110.05788984  31.01389538
2850.00 -110.20694379  31.07626866
2852.00 -110.35607347  31.13871955
2854.00 -110.50527882  31.20124807
2856.00 -110.65455980  31.26385427
2858.00 -110.80391634  31.32653817
2860.00 -110.95334841  31.38929980
2862.00 -111.10285594  31.45213918
2864.00 -111.25243889  31.51505635
2866.00 -111.40209719  31.57805134
2868.00 -111.55183081  31.64112417
2870.00 -111.70163968  31.70427487
2872.00 -111.85152375  31.76750348
2874.00 -112.00148298  31.83081002
2876.00 -112.15151730  31.89419451
2878.00 -112.30162667  31.95765699
2880.00 -112.45181104  32.02119749
2882.00 -112.60207034  32.08481603
2884.00 -112.75240453  32.14851265
2886.00 -112.90281356  32.21228737
2888.00 -113.05329737  32.27614022
2890.00 -113.20385591  32.34007122
2892.00 -113.35448913  32.40408042
2894.00 -113.50519697  32.46816782
2896.00 -113.65597939  32.53233347
2898.00 -113.80683632  32.59657740
2900.00 -113.95776773  32.66089962
2902.00 -114.10877354  32.72530017
2904.00 -114.25985372  32.78977907
2906.00 -114.41100821  32.85433636
2908.00 -114.56223695  32.91897206
2910.00 -114.71353990  32.98368620
2912.00 -114.86491700  33.04847880
2914.00 -115.01636820  33.11334990
2916.00 -115.16789344  33.17829953
2918.00 -115.31949267  33.24332770
2920.00 -115.47116584  33.30843446
2922.00 -115.62291290  33.37361982
2924.00 -115.77473380  33.43888381
2926.00 -115.92662848  33.50422646
2928.00 -116.07859688  33.56964780
2930.00 -116.23063896  33.63514786
2932.00 -116.38275466  33.70072666
2934.00 -116.53494394  33.76638424
2936.00 -116.68720673  33.83212061
2938.00 -116.83954299  33.89793581
2940.00 -116.99195265  33.96382986
2942.00 -117.14443568  34.02980279
2944.00 -117.29699201  34.09585463
2946.00 -117.44962159  34.16198540
2948.00 -117.60232438  34.22819513
2950.00 -117.75510031  34.29448386
2952.00 -117.90794934  34.36085159
2954.00 -118.06087141  34.42729838
2956.00 -118.21386646  34.49382423
2958.00 -118.36693445  34.56042917
2960.00 -118.52007533  34.62711324
2962.00 -118.67328903  34.69387647
2964.00 -118.82657551  34.76071886
2966.00 -118.97993472  34.82764046
2968.00 -119.13336659  34.89464130
2970.00 -119.28687108  34.96172138
2972.00 -119.44044814  35.02888076
2974.00 -119.59409771  35.09611944
2976.00 -119.74781974  35.16343746
2978.00 -119.90161417  35.23083484
2980.00 -120.05548096  35.29831161
2982.00 -120.20942004  35.36586780
2984.00 -120.36343138  35.43350342
2986.00 -120.51751490  35.50121852
2988.00 -120.67167057  35.56901311
2990.00 -120.82589832  35.63688723
2992.00 -120.98019811  35.70484089
2994.00 -121.13456988  35.77287412
2996.00 -121.28901358  35.84098695
2998.00 -121.44352915  35.90917941
3000.00 -121.59811654  35.97745151
3002.00 -121.75277571  36.04580330
3004.00 -121.90750659  36.11423479
3006.00 -122.06230913  36.18274601
3008.00 -122.21718328  36.25133698
3010.00 -122.37212899  36.32000773
3012.00 -122.52714620  36.38875829
3014.00 -122.68223486  36.45758868
3016.00 -122.83739492  36.52649893
3018.00 -122.99262632  36.59548906
3020.00 -123.14792901  36.66455910
3022.00 -123.30330294  36.73370907
3024.00 -123.45874806  36.80293901
3026.00 -123.61426430  36.87224893
3028.00 -123.76985162  36.94163886
3030.00 -123.92550997  37.01110882
3032.00 -124.08123929  37.08065885
3034.00 -124.23703953  37.15028896
3036.00 -124.39291063  37.21999918
3038.00 -124.54885254  37.28978955
3040.00 -124.70486521  37.35966007
3042.00 -124.86094859  37.42961078
3044.00 -125.01710262  37.49964170
3046.00 -125.17332724  37.56975286
3048.00 -125.32962242  37.63994428
3050.00 -125.48598808  37.71021599
3052.00 -125.64242418  37.78056801
3054.00 -125.79893067  37.85100037
3056.00 -125.95550749  37.92151309
3058.00 -126.11215459  37.99210619
3060.00 -126.26887192  38.06277971
3062.00 -126.42565942  38.13353366
3064.00 -126.58251703  38.20436807
3066.00 -126.73944472  38.27528297
3068.00 -126.89644241  38.34627837
3070.00 -127.05351006  38.41735431
3072.00 -127.21064762  38.48851081
3074.00 -127.36785503  38.55974789
3076.00 -127.52513224  38.63106558
3078.00 -127.68247920  38.70246389
3080.00 -127.83989584  38.77394287
3082.00 -127.99738213  38.84550252
3084.00 -128.15493800  38.91714288
3086.00 -128.31256340  38.98886397
3088.00 -128.47025828  39.06066581
3090.00 -128.62802259  39.13254842
3092.00 -128.78585627  39.20451184
3094.00 -128.94375927  39.27655608
3096.00 -129.10173153  39.34868116
3098.00 -129.25977300  39.42088712
3100.00 -129.41788363  39.49317398
3102.00 -129.57606337  39.56554176
3104.00 -129.73431215  39.63799048
3106.00 -129.89262994  39.71052016
3108.00 -130.05101666  39.78313084
3110.00 -130.20947228  39.85582253
3112.00 -130.36799674  39.92859527
3114.00 -130.52658998  40.00144906
3116.00 -130.68525195  40.07438394
3118.00 -130.84398260  40.14739992
3120.00 -131.00278187  40.22049704
3122.00 -131.16164971  40.29367532
3124.00 -131.32058606  40.36693477
3126.00 -131.47959088  40.44027543
3128.00 -131.63866411  40.51369731
3130.00 -131.79780569  40.58720044
3132.00 -131.95701558  40.66078485
3134.00 -132.11629372  40.73445054
3136.00 -132.27564005  40.80819756
3138.00 -132.43505452  40.88202592
3140.00 -132.59453708  40.95593564
3142.00 -132.75408767  41.02992675
3144.00 -132.91370625  41.10399927
3146.00 -133.07339275  41.17815322
3148.00 -133.23314713  41.25238863
3150.00 -133.39296933  41.32670551
3152.00 -133.55285929  41.40110390
3154.00 -133.71281697  41.47558381
3156.00 -133.87284231  41.55014527
3158.00 -134.03293525  41.62478830
3160.00 -134.19309575  41.69951292
3162.00 -134.35332374  41.77431915
3164.00 -134.51361919  41.84920702
3166.00 -134.67398202  41.92417655
3168.00 -134.83441219  41.99922777
3170.00 -134.99490964  42.07436068
3172.00 -135.15547433  42.14957532
3174.00 -135.31610619  42.22487172
3176.00 -135.47680518  42.30024988
3178.00 -135.63757123  42.37570984
3180.00 -135.79840431  42.45125161
3182.00 -135.95930434  42.52687522
3184.00 -136.12027129  42.60258069
3186.00 -136.28130509  42.67836804
3188.00 -136.44240569  42.75423729
3190.00 -136.60357304  42.83018847
3192.00 -136.76480708  42.90622160
3194.00 -136.92610777  42.98233669
3196.00 -137.08747504  43.05853378
3198.00 -137.24890885  43.13481288
3200.00 -137.41040913  43.21117402
3202.00 -137.57197585  43.28761721
3204.00 -137.73360893  43.36414248
3206.00 -137.89530833  43.44074985
3208.00 -138.05707400  43.51743934
3210.00 -138.21890588  43.59421097
3212.00 -138.38080392  43.67106477
3214.00 -138.54276806  43.74800075
3216.00 -138.70479825  43.82501894
3218.00 -138.86689444  43.90211936
3220.00 -139.02905658  43.97930203
3222.00 -139.19128460  44.05656697
3224.00 -139.35357845  44.13391420
3226.00 -139.51593809  44.21134374
3228.00 -139.67836346  44.28885562
3230.00 -139.84085450  44.36644986
3232.00 -140.00341116  44.44412647
3234.00 -140.16603339  44.52188548
3236.00 -140.32872113  44.59972690
3238.00 -140.49147434  44.67765077
3240.00 -140.65429294  44.75565710
3242.00 -140.81717690  44.83374591
3244.00 -140.98012616  44.91191722
3246.00 -141.14314066  44.99017106
3248.00 -141.30622035  45.06850744
3250.00 -141.46936518  45.14692638
3252.00 -141.63257510  45.22542791
3254.00 -141.79585004  45.30401204
3256.00 -141.95918996  45.38267880
3258.00 -142.12259480  45.46142821
3260.00 -142.28606451  45.54026028
3262.00 -142.44959903  45.61917504
3264.00 -142.61319832  45.69817251
3266.00 -142.77686231  45.77725271
3268.00 -142.94059095  45.85641566
3270.00 -143.10438419  45.93566137
3272.00 -143.26824198  46.01498988
3274.00 -143.43216426  46.09440119
3276.00 -143.59615098  46.17389533
3278.00 -143.76020208  46.25347232
3280.00 -143.92431752  46.33313219
3282.00 -144.08849723  46.41287494
3284.00 -144.25274116  46.49270060
3286.00 -144.41704926  46.57260919
3288.00 -144.58142148  46.65260073
3290.00 -144.74585776  46.73267524
3292.00 -144.91035805  46.81283274
3294.00 -145.07492229  46.89307325
3296.00 -145.23955043  46.97339679
3298.00 -145.40424241  47.05380337
3300.00 -145.56899819  47.13429302
3302.00 -145.73381771  47.21486576
3304.00 -145.89870091  47.29552161
3306.00 -146.06364775  47.37626058
3308.00 -146.22865816  47.45708270
3310.00 -146.39373209  47.53798799
3312.00 -146.55886950  47.61897646
3314.00 -146.72407032  47.70004813
3316.00 -146.88933450  47.78120303
3318.00 -147.05466199  47.86244117
3320.00 -147.22005273  47.94376257
3322.00 -147.38550667  48.02516726
3324.00 -147.55102377  48.10665524
3326.00 -147.71660395  48.18822654
3328.00 -147.88224717  48.26988118
3330.00 -148.04795338  48.35161918
3332.00 -148.21372252  48.43344056
3334.00 -148.37955454  48.51534533
3336.00 -148.54544938  48.59733351
3338.00 -148.71140698  48.67940513
3340.00 -148.87742731  48.76156020
3342.00 -149.04351030  48.84379874
3344.00 -149.20965589  48.92612077
3346.00 -149.37586405  49.00852631
3348.00 -149.54213470  49.09101538
3350.00 -149.70846779  49.17358799
3352.00 -149.87486329  49.25624416
3354.00 -150.04132111  49.33898392
3356.00 -150.20784123  49.42180727
3358.00 -150.37442358  49.50471425
3360.00 -150.54106810  49.58770486
3362.00 -150.70777475  49.67077913
3364.00 -150.87454346  49.75393708
3366.00 -151.04137420  49.83717872
3368.00 -151.20826689  49.92050406
3370.00 -151.37522150  50.00391314
3372.00 -151.54223795  50.08740597
3374.00 -151.70931621  50.17098255
3376.00 -151.87645622  50.25464293
3378.00 -152.04365792  50.33838710
3380.00 -152.21092125  50.42221509
3382.00 -152.37824618  50.50612693
3384.00 -152.54563263  50.59012261
3386.00 -152.71308056  50.67420217
3388.00 -152.88058991  50.75836562
3390.00 -153.04816064  50.84261298
3392.00 -153.21579268  50.92694426
3394.00 -153.38348598  51.01135949
3396.00 -153.55124049  51.09585868
3398.00 -153.71905615  51.18044185
3400.00 -153.88693292  51.26510902
3402.00 -154.05487073  51.34986020
3404.00 -154.22286953  51.43469541
3406.00 -154.39092928  51.51961467
3408.00 -154.55904990  51.60461800
3410.00 -154.72723136  51.68970541
3412.00 -154.89547360  51.77487692
3414.00 -155.06377656  51.86013256
3416.00 -155.23214019  51.94547232
3418.00 -155.40056443  52.03089625
3420.00 -155.56904924  52.11640434
3422.00 -155.73759455  52.20199661
3424.00 -155.90620032  52.28767310
3426.00 -156.07486649  52.37343380
3428.00 -156.24359301  52.45927875
3430.00 -156.41237981  52.54520794
3432.00 -156.58122686  52.63122141
3434.00 -156.75013409  52.71731917
3436.00 -156.91910145  52.80350124
3438.00 -157.08812889  52.88976763
3440.00 -157.25721636  52.97611835
3442.00 -157.42636379  53.06255344
3444.00 -157.59557114  53.14907290
3446.00 -157.76483835  53.23567674
3448.00 -157.93416537  53.32236499
3450.00 -158.10355214  53.40913767
3452.00 -158.27299861  53.49599478
3454.00 -158.44250473  53.58293635
3456.00 -158.61207044  53.66996239
3458.00 -158.78169569  53.75707292
3460.00 -158.95138042  53.84426796
3462.00 -159.12112459  53.93154751
3464.00 -159.29092813  54.01891161
3466.00 -159.46079100  54.10636025
3468.00 -159.63071313  54.19389347
3470.00 -159.80069449  54.28151127
3472.00 -159.97073500  54.36921367
3474.00 -160.14083462  54.45700069
3476.00 -160.31099330  54.54487235
3478.00 -160.48121097  54.63282865
3480.00 -160.65148759  54.72086962
3482.00 -160.82182311  54.80899527
3484.00 -160.99221746  54.89720562
3486.00 -161.16267060  54.98550069
3488.00 -161.33318247  55.07388048
3490.00 -161.50375302  55.16234502
3492.00 -161.67438219  55.25089431
3494.00 -161.84506993  55.33952839
3496.00 -162.01581618  55.42824725
3498.00 -162.18662090  55.51705092
3500.00 -162.35748403  55.60593942
3502.00 -162.52840551  55.69491275
3504.00 -162.69938529  55.78397094
3506.00 -162.87042332  55.87311400
3508.00 -163.04151954  55.96234194
3510.00 -163.21267390  56.05165478
3512.00 -163.38388635  56.14105253
3514.00 -163.55515683  56.23053522
3516.00 -163.72648528  56.32010285
3518.00 -163.89787166  56.40975544
3520.00 -164.06931591  56.49949301
3522.00 -164.24081798  56.58931557
3524.00 -164.41237781  56.67922313
3526.00 -164.58399534  56.76921572
3528.00 -164.75567054  56.85929334
3530.00 -164.92740333  56.94945601
3532.00 -165.09919367  57.03970375
3534.00 -165.27104151  57.13003657
3536.00 -165.44294678  57.22045448
3538.00 -165.61490944  57.31095751
3540.00 -165.78692944  57.40154565
3542.00 -165.95900671  57.49221894
3544.00 -166.13114120  57.58297738
3546.00 -166.30333287  57.67382099
3548.00 -166.47558166  57.76474979
3550.00 -166.64788751  57.85576378
3552.00 -166.82025036  57.94686298
3554.00 -166.99267018  58.03804741
3556.00 -167.16514690  58.12931708
3558.00 -167.33768046  58.22067201
3560.00 -167.51027082  58.31211220
3562.00 -167.68291792  58.40363768
3564.00 -167.85562171  58.49524846
3566.00 -168.02838213  58.58694455
3568.00 -168.20119913  58.67872596
3570.00 -168.37407266  58.77059272
3572.00 -168.54700266  58.86254483
3574.00 -168.71998908  58.95458231
3576.00 -168.89303186  59.04670518
3578.00 -169.06613096  59.13891343
3580.00 -169.23928631  59.23120710
3582.00 -169.41249786  59.32358620
3584.00 -169.58576557  59.41605073
3586.00 -169.75908937  59.50860072
3588.00 -169.93246921  59.60123617
3590.00 -170.10590505  59.69395710
3592.00 -170.27939681  59.78676352
3594.00 -170.45294446  59.87965545
3596.00 -170.62654794  59.97263290
3598.00 -170.80020719  60.06569588
3600.00 -170.97392217  60.15884441
3602.00 -171.14769280  60.25207850
3604.00 -171.32151906  60.34539817
3606.00 -171.49540087  60.43880342
3608.00 -171.66933818  60.53229428
3610.00 -171.84333095  60.62587075
3612.00 -172.01737912  60.71953284
3614.00 -172.19148263  60.81328058
3616.00 -172.36564143  60.90711397
3618.00 -172.53985547  61.00103303
3620.00 -172.71412469  61.09503777
3622.00 -172.88844905  61.18912820
3624.00 -173.06282848  61.28330434
3626.00 -173.23726293  61.37756620
3628.00 -173.41175235  61.47191379
3630.00 -173.58629669  61.56634713
3632.00 -173.76089589  61.66086622
3634.00 -173.93554990  61.75547108
3636.00 -174.11025866  61.85016173
3638.00 -174.28502212  61.94493818
3640.00 -174.45984023  62.03980043
3642.00 -174.63471293  62.13474851
3644.00 -174.80964018  62.22978242
3646.00 -174.98462191  62.32490218
3648.00 -175.15965807  62.42010779
3650.00 -175.33474862  62.51539928
3652.00 -175.50989348  62.61077666
3654.00 -175.68509262  62.70623993
3656.00 -175.86034598  62.80178911
3658.00 -176.03565351  62.89742421
3660.00 -176.21101514  62.99314525
3662.00 -176.38643084  63.08895223
3664.00 -176.56190054  63.18484517
3666.00 -176.73742419  63.28082409
3668.00 -176.91300173  63.37688898
3670.00 -177.08863312  63.47303987
3672.00 -177.26431830  63.56927677
3674.00 -177.44005722  63.66559969
3676.00 -177.61584982  63.76200864
3678.00 -177.79169605  63.85850363
3680.00 -177.96759585  63.95508468
3682.00 -178.14354918  64.05175179
3684.00 -178.31955597  64.14850499
3686.00 -178.49561619  64.24534427
3688.00 -178.67172976  64.34226966
3690.00 -178.84789664  64.43928116
3692.00 -179.02411678  64.53637878
3694.00 -179.20039012  64.63356255
3696.00 -179.37671660  64.73083246
3698.00 -179.55309618  64.82818854
3700.00 -179.72952881  64.92563078
3702.00 -179.90601441  65.02315921
3704.00 -180.08255296  65.12077384
3706.00 -180.25914438  65.21847467
3708.00 -180.43578863  65.31626172
3710.00 -180.61248566  65.41413500
3712.00 -180.78923540  65.51209452
3714.00 -180.96603781  65.61014030
3716.00 -181.14289284  65.70827233
3718.00 -181.31980042  65.80649064
3720.00 -181.49676051  65.90479524
3722.00 -181.67377306  66.00318613
3724.00 -181.85083800  66.10166333
3726.00 -182.02795529  66.20022685
3728.00 -182.20512487  66.29887669
3730.00 -182.38234670  66.39761288
3732.00 -182.55962070  66.49643542
3734.00 -182.73694685  66.59534433
3736.00 -182.91432507  66.69433960
3738.00 -183.09175531  66.79342126
3740.00 -183.26923753  66.89258932
3742.00 -183.44677167  66.99184378
3744.00 -183.62435767  67.09118465
3746.00 -183.80199549  67.19061195
3748.00 -183.97968506  67.29012570
3750.00 -184.15742634  67.38972588
3752.00 -184.33521927  67.48941253
3754.00 -184.51306381  67.58918565
3756.00 -184.69095988  67.68904524
3758.00 -184.86890745  67.78899133
3760.00 -185.04690646  67.88902391
3762.00 -185.22495686  67.98914301
3764.00 -185.40305859  68.08934862
3766.00 -185.58121159  68.18964077
3768.00 -185.75941582  68.29001946
3770.00 -185.93767123  68.39048470
3772.00 -186.11597775  68.49103650
3774.00 -186.29433534  68.59167488
3776.00 -186.47274395  68.69239983
3778.00 -186.65120351  68.79321138
3780.00 -186.82971398  68.89410953
3782.00 -187.00827530  68.99509429
3784.00 -187.18688742  69.09616567
3786.00 -187.36555029  69.19732368
3788.00 -187.54426385  69.29856834
3790.00 -187.72302805  69.39989965
3792.00 -187.90184284  69.50131761
3794.00 -188.08070817  69.60282225
3796.00 -188.25962397  69.70441357
3798.00 -188.43859020  69.80609158
3800.00 -188.61760680  69.90785628
3802.00 -188.79667373  70.00970770
3804.00 -188.97579092  70.11164583
3806.00 -189.15495833  70.21367070
3808.00 -189.33417590  70.31578230
3810.00 -189.51344357  70.41798064
3812.00 -189.69276131  70.52026574
3814.00 -189.87212904  70.62263761
3816.00 -190.05154672  70.72509626
3818.00 -190.23101430  70.82764168
3820.00 -190.41053172  70.93027391
3822.00 -190.59009893  71.03299293
3824.00 -190.76971588  71.13579876
3826.00 -190.94938251  71.23869142
3828.00 -191.12909877  71.34167091
3830.00 -191.30886461  71.44473723
3832.00 -191.48867997  71.54789040
3834.00 -191.66854480  71.65113043
3836.00 -191.84845905  71.75445733
3838.00 -192.02842267  71.85787110
3840.00 -192.20843559  71.96137175
3842.00 -192.38849778  72.06495929
3844.00 -192.56860917  72.16863374
3846.00 -192.74876971  72.27239510
3848.00 -192.92897935  72.37624337
3850.00 -193.10923804  72.48017857
3852.00 -193.28954573  72.58420071
3854.00 -193.46990235  72.68830979
3856.00 -193.65030786  72.79250582
3858.00 -193.83076221  72.89678882
3860.00 -194.01126533  73.00115878
3862.00 -194.19181719  73.10561572
3864.00 -194.37241772  73.21015965
3866.00 -194.55306688  73.31479058
3868.00 -194.73376460  73.41950850
3870.00 -194.91451084  73.52431344
3872.00 -195.09530555  73.62920540
3874.00 -195.27614866  73.73418439
3876.00 -195.45704014  73.83925041
3878.00 -195.63797991  73.94440348
3880.00 -195.81896795  74.04964359
3882.00 -196.00000418  74.15497077
3884.00 -196.18108855  74.26038502
3886.00 -196.36222102  74.36588634
3888.00 -196.54340153  74.47147475
3890.00 -196.72463003  74.57715025
3892.00 -196.90590647  74.68291285
3894.00 -197.08723078  74.78876255
3896.00 -197.26860293  74.89469938
3898.00 -197.45002285  75.00072332
3900.00 -197.63149050  75.10683440
3902.00 -197.81300581  75.21303261
3904.00 -197.99456875  75.31931797
3906.00 -198.17617925  75.42569049
3908.00 -198.35783726  75.53215016
3910.00 -198.53954273  75.63869701
3912.00 -198.72129561  75.74533103
3914.00 -198.90309584  75.85205224
3916.00 -199.08494337  75.95886063
3918.00 -199.26683815  76.06575623
3920.00 -199.44878013  76.17273903
3922.00 -199.63076925  76.27980905
3924.00 -199.81280546  76.38696628
3926.00 -199.99488871  76.49421074
3928.00 -200.17701895  76.60154244
3930.00 -200.35919611  76.70896138
3932.00 -200.54142016  76.81646757
3934.00 -200.72369103  76.92406101
3936.00 -200.90600868  77.03174172
3938.00 -201.08837305  77.13950970
3940.00 -201.27078408  77.24736496
3942.00 -201.45324174  77.35530750
3944.00 -201.63574595  77.46333733
3946.00 -201.81829668  77.57145446
3948.00 -202.00089387  77.67965889
3950.00 -202.18353746  77.78795064
3952.00 -202.36622740  77.89632970
3954.00 -202.54896365  78.00479609
3956.00 -202.73174614  78.11334981
3958.00 -202.91457483  78.22199087
3960.00 -203.09744966  78.33071927
3962.00 -203.28037059  78.43953502
3964.00 -203.46333754  78.54843814
3966.00 -203.64635049  78.65742861
3968.00 -203.82940937  78.76650646
3970.00 -204.01251412  78.87567168
3972.00 -204.19566471  78.98492429
3974.00 -204.37886107  79.09426429
3976.00 -204.56210315  79.20369169
3978.00 -204.74539090  79.31320648
3980.00 -204.92872427  79.42280869
3982.00 -205.11210320  79.53249831
3984.00 -205.29552765  79.64227535
3986.00 -205.47899756  79.75213982
3988.00 -205.66251287  79.86209172
3990.00 -205.84607354  79.97213106
3992.00 -206.02967952  80.08225785
3994.00 -206.21333074  80.19247209
3996.00 -206.39702716  80.30277378
3998.00 -206.58076873  80.41316294
4000.00 -206.76455539  80.52363957
4002.00 -206.94838709  80.63420367
4004.00 -207.13226378  80.74485525
4006.00 -207.31618541  80.85559432
4008.00 -207.50015192  80.96642088
4010.00 -207.68416326  81.07733494
4012.00 -207.86821938  81.18833651
4014.00 -208.05232023  81.29942558
4016.00 -208.23646575  81.41060216
4018.00 -208.42065589  81.52186627
4020.00 -208.60489061  81.63321790
4022.00 -208.78916984  81.74465706
4024.00 -208.97349353  81.85618376
4026.00 -209.15786164  81.96779800
4028.00 -209.34227411  82.07949979
4030.00 -209.52673089  82.19128913
4032.00 -209.71123193  82.30316603
4034.00 -209.89577717  82.41513049
4036.00 -210.08036656  82.52718252
4038.00 -210.26500005  82.63932212
4040.00 -210.44967759  82.75154930
4042.00 -210.63439912  82.86386407
4044.00 -210.81916460  82.97626642
4046.00 -211.00397397  83.08875637
4048.00 -211.18882718  83.20133392
4050.00 -211.37372417  83.31399907
4052.00 -211.55866490  83.42675183
4054.00 -211.74364931  83.53959220
4056.00 -211.92867735  83.65252019
4058.00 -212.11374897  83.76553580
4060.00 -212.29886412  83.87863904
4062.00 -212.48402274  83.99182992
4064.00 -212.66922478  84.10510843
4066.00 -212.85447019  84.21847458
4068.00 -213.03975892  84.33192838
4070.00 -213.22509092  84.44546983
4072.00 -213.41046613  84.55909894
4074.00 -213.59588450  84.67281571
4076.00 -213.78134598  84.78662014
4078.00 -213.96685052  84.90051224
4080.00 -214.15239806  85.01449202
4082.00 -214.33798856  85.12855947
4084.00 -214.52362196  85.24271461
4086.00 -214.70929821  85.35695743
4088.00 -214.89501726  85.47128795
4090.00 -215.08077905  85.58570615
4092.00 -215.26658354  85.70021206
4094.00 -215.45243067  85.81480568
4096.00 -215.63832039  85.92948700
4098.00 -215.82425265  86.04425603
4100.00 -216.01022739  86.15911277
4102.00 -216.19624457  86.27405724
4104.00 -216.38230414  86.38908943
4106.00 -216.56840603  86.50420935
4108.00 -216.75455020  86.61941701
4110.00 -216.94073660  86.73471239
4112.00 -217.12696518  86.85009552
4114.00 -217.31323588  86.96556639
4116.00 -217.49954865  87.08112501
4118.00 -217.68590344  87.19677137
4120.00 -217.87230020  87.31250550
4122.00 -218.05873887  87.42832738
4124.00 -218.24521941  87.54423702
4126.00 -218.43174177  87.66023443
4128.00 -218.61830588  87.77631961
4130.00 -218.80491171  87.89249256
4132.00 -218.99155919  88.00875328
4134.00 -219.17824828  88.12510179
4136.00 -219.36497892  88.24153808
4138.00 -219.55175107  88.35806216
4140.00 -219.73856466  88.47467402
4142.00 -219.92541966  88.59137368
4144.00 -220.11231600  88.70816113
4146.00 -220.29925364  88.82503639
4148.00 -220.48623253  88.94199945
4150.00 -220.67325261  89.05905031
4152.00 -220.86031383  89.17618898
4154.00 -221.04741614  89.29341547
4156.00 -221.23455948  89.41072977
4158.00 -221.42174382  89.52813188
4160.00 -221.60896909  89.64562182
4162.00 -221.79623524  89.76319959
4164.00 -221.98354223  89.88086518
4166.00 -222.17088999  89.99861860
4168.00 -222.35827849  90.11645986
4170.00 -222.54570766  90.23438895
4172.00 -222.73317746  90.35240588
4174.00 -222.92068783  90.47051065
4176.00 -223.10823873  90.58870327
4178.00 -223.29583010  90.70698373
4180.00 -223.48346189  90.82535204
4182.00 -223.67113404  90.94380821
4184.00 -223.85884652  91.06235222
4186.00 -224.04659926  91.18098410
4188.00 -224.23439222  91.29970384
4190.00 -224.42222534  91.41851144
4192.00 -224.61009857  91.53740690
4194.00 -224.79801186  91.65639023
4196.00 -224.98596516  91.77546143
4198.00 -225.17395842  91.89462050
4200.00 -225.36199159  92.01386745
4202.00 -225.55006461  92.13320228
4204.00 -225.73817743  92.25262498
4206.00 -225.92633001  92.37213556
4208.00 -226.11452229  92.49173403
4210.00 -226.30275422  92.61142038
4212.00 -226.49102575  92.73119462
4214.00 -226.67933683  92.85105675
4216.00 -226.86768740  92.97100677
4218.00 -227.05607742  93.09104468
4220.00 -227.24450684  93.21117049
4222.00 -227.43297559  93.33138420
4224.00 -227.62148364  93.45168581
4226.00 -227.81003093  93.57207532
4228.00 -227.99861741  93.69255273
4230.00 -228.18724303  93.81311805
4232.00 -228.37590773  93.93377127
4234.00 -228.56461147  94.05451240
4236.00 -228.75335420  94.17534144
4238.00 -228.94213586  94.29625840
4240.00 -229.13095640  94.41726326
4242.00 -229.31981578  94.53835605
4244.00 -229.50871394  94.65953674
4246.00 -229.69765082  94.78080536
4248.00 -229.88662639  94.90216190
4250.00 -230.07564058  95.02360636
4252.00 -230.26469335  95.14513874
4254.00 -230.45378464  95.26675904
4256.00 -230.64291442  95.38846727
4258.00 -230.83208261  95.51026343
4260.00 -231.02128918  95.63214751
4262.00 -231.21053407  95.75411952
4264.00 -231.39981723  95.87617947
4266.00 -231.58913861  95.99832734
4268.00 -231.77849816  96.12056315
4270.00 -231.96789583  96.24288689
4272.00 -232.15733157  96.36529857
4274.00 -232.34680532  96.48779818
4276.00 -232.53631704  96.61038573
4278.00 -232.72586668  96.73306122
4280.00 -232.91545417  96.85582465
4282.00 -233.10507949  96.97867601
4284.00 -233.29474256  97.10161532
4286.00 -233.48444335  97.22464257
4288.00 -233.67418180  97.34775776
4290.00 -233.86395786  97.47096090
4292.00 -234.05377148  97.59425198
4294.00 -234.24362261  97.71763100
4296.00 -234.43351119  97.84109797
4298.00 -234.62343719  97.96465288
4300.00 -234.81340054  98.08829575
4302.00 -235.00340120  98.21202656
4304.00 -235.19343911  98.33584531
4306.00 -235.38351423  98.45975202
4308.00 -235.57362650  98.58374667
4310.00 -235.76377588  98.70782928
4312.00 -235.95396231  98.83199983
4314.00 -236.14418574  98.95625834
4316.00 -236.33444612  99.08060479
4318.00 -236.52474341  99.20503920
4320.00 -236.71507754  99.32956155
4322.00 -236.90544848  99.45417186
4324.00 -237.09585617  99.57887012
4326.00 -237.28630055  99.70365633
4328.00 -237.47678159  99.82853049
4330.00 -237.66729922  99.95349261
4332.00 -237.85785340 100.07854268
4334.00 -238.04844408 100.20368070
4336.00 -238.23907120 100.32890667
4338.00 -238.42973473 100.45422059
4340.00 -238.62043459 100.57962247
4342.00 -238.81117076 100.70511230
4344.00 -239.00194317 100.83069008
4346.00 -239.19275177 100.95635581
4348.00 -239.38359652 101.08210950
4350.00 -239.57447736 101.20795113
4352.00 -239.76539425 101.33388072
4354.00 -239.95634713 101.45989826
4356.00 -240.14733596 101.58600375
4358.00 -240.33836067 101.71219719
4360.00 -240.52942123 101.83847858
4362.00 -240.72051759 101.96484792
4364.00 -240.91164968 102.09130521
4366.00 -241.10281747 102.21785044
4368.00 -241.29402090 102.34448363
4370.00 -241.48525992 102.47120476
4372.00 -241.67653448 102.59801384
4374.00 -241.86784453 102.72491087
4376.00 -242.05919003 102.85189584
4378.00 -242.25057091 102.97896876
4380.00 -242.44198714 103.10612962
4382.00 -242.63343866 103.23337843
4384.00 -242.82492541 103.36071518
4386.00 -243.01644736 103.48813987
4388.00 -243.20800445 103.61565250
4390.00 -243.39959663 103.74325308
4392.00 -243.59122385 103.87094159
4394.00 -243.78288606 103.99871804
4396.00 -243.97458321 104.12658243
4398.00 -244.16631525 104.25453476
4400.00 -244.35808213 104.38257502
4402.00 -244.54988380 104.51070322
4404.00 -244.74172021 104.63891935
4406.00 -244.93359131 104.76722342
4408.00 -245.12549705 104.89561542
4410.00 -245.31743738 105.02409534
4412.00 -245.50941226 105.15266320
4414.00 -245.70142162 105.28131898
4416.00 -245.89346543 105.41006269
4418.00 -246.08554362 105.53889433
4420.00 -246.27765616 105.66781388
4422.00 -246.46980298 105.79682137
4424.00 -246.66198405 105.92591677
4426.00 -246.85419932 106.05510009
4428.00 -247.04644872 106.18437133
4430.00 -247.23873221 106.31373049
4432.00 -247.43104975 106.44317756
4434.00 -247.62340128 106.57271255
4436.00 -247.81578675 106.70233545
4438.00 -248.00820612 106.83204626
4440.00 -248.20065933 106.96184498
4442.00 -248.39314633 107.09173160
4444.00 -248.58566708 107.22170613
4446.00 -248.77822152 107.35176857
4448.00 -248.97080961 107.48191891
4450.00 -249.16343129 107.61215714
4452.00 -249.35608652 107.74248328
4454.00 -249.54877524 107.87289731
4456.00 -249.74149741 108.00339923
4458.00 -249.93425298 108.13398905
4460.00 -250.12704189 108.26466676
4462.00 -250.31986410 108.39543236
4464.00 -250.51271956 108.52628584
4466.00 -250.70560822 108.65722721
4468.00 -250.89853003 108.78825646
4470.00 -251.09148493 108.91937359
4472.00 -251.28447289 109.05057860
4474.00 -251.47749385 109.18187149
4476.00 -251.67054776 109.31325224
4478.00 -251.86363457 109.44472087
4480.00 -252.05675423 109.57627737
4482.00 -252.24990670 109.70792174
4484.00 -252.44309192 109.83965397
4486.00 -252.63630985 109.97147406
4488.00 -252.82956043 110.10338201
4490.00 -253.02284362 110.23537782
4492.00 -253.21615936 110.36746149
4494.00 -253.40950761 110.49963300
4496.00 -253.60288832 110.63189237
4498.00 -253.79630143 110.76423958
4500.00 -253.98974691 110.89667464
4502.00 -254.18322469 111.02919754
4504.00 -254.37673474 111.16180828
4506.00 -254.57027700 111.29450685
4508.00 -254.76385142 111.42729326
4510.00 -254.95745795 111.56016750
4512.00 -255.15109655 111.69312957
4514.00 -255.34476717 111.82617947
4516.00 -255.53846975 111.95931718
4518.00 -255.73220424 112.09254272
4520.00 -255.92597061 112.22585607
4522.00 -256.11976879 112.35925724
4524.00 -256.31359874 112.49274622
4526.00 -256.50746041 112.62632301
4528.00 -256.70135376 112.75998760
4530.00 -256.89527872 112.89373999
4532.00 -257.08923526 113.02758018
4534.00 -257.28322333 113.16150817
4536.00 -257.47724287 113.29552395
4538.00 -257.67129383 113.42962752
4540.00 -257.86537618 113.56381887
4542.00 -258.05948985 113.69809801
4544.00 -258.25363480 113.83246493
4546.00 -258.44781099 113.96691963
4548.00 -258.64201835 114.10146209
4550.00 -258.83625685 114.23609233
4552.00 -259.03052643 114.37081033
4554.00 -259.22482705 114.50561610
4556.00 -259.41915865 114.64050962
4558.00 -259.61352120 114.77549090
4560.00 -259.80791463 114.91055994
4562.00 -260.00233890 115.04571672
4564.00 -260.19679396 115.18096125
4566.00 -260.39127977 115.31629352
4568.00 -260.58579627 115.45171352
4570.00 -260.78034342 115.58722126
4572.00 -260.97492116 115.72281674
4574.00 -261.16952945 115.85849993
4576.00 -261.36416824 115.99427085
4578.00 -261.55883748 116.13012950
4580.00 -261.75353712 116.26607585
4582.00 -261.94826712 116.40210992
4584.00 -262.14302742 116.53823169
4586.00 -262.33781798 116.67444117
4588.00 -262.53263874 116.81073835
4590.00 -262.72748966 116.94712323
4592.00 -262.92237070 117.08359580
4594.00 -263.11728180 117.22015605
4596.00 -263.31222291 117.35680399
4598.00 -263.50719398 117.49353961
4600.00 -263.70219498 117.63036290
4602.00 -263.89722584 117.76727387
4604.00 -264.09228652 117.90427250
4606.00 -264.28737697 118.04135879
4608.00 -264.48249715 118.17853275
4610.00 -264.67764700 118.31579436
4612.00 -264.87282648 118.45314362
4614.00 -265.06803553 118.59058052
4616.00 -265.26327411 118.72810507
4618.00 -265.45854218 118.86571725
4620.00 -265.65383968 119.00341707
4622.00 -265.84916656 119.14120451
4624.00 -266.04452278 119.27907958
4626.00 -266.23990829 119.41704227
4628.00 -266.43532304 119.55509257
4630.00 -266.63076698 119.69323049
4632.00 -266.82624007 119.83145601
4634.00 -267.02174225 119.96976912
4636.00 -267.21727347 120.10816984
4638.00 -267.41283370 120.24665815
4640.00 -267.60842288 120.38523404
4642.00 -267.80404096 120.52389752
4644.00 -267.99968789 120.66264857
4646.00 -268.19536363 120.80148720
4648.00 -268.39106813 120.94041339
4650.00 -268.58680134 121.07942715
4652.00 -268.78256322 121.21852847
4654.00 -268.97835370 121.35771734
4656.00 -269.17417276 121.49699375
4658.00 -269.37002033 121.63635771
4660.00 -269.56589638 121.77580921
4662.00 -269.76180084 121.91534824
4664.00 -269.95773368 122.05497480
4666.00 -270.15369485 122.19468888
4668.00 -270.34968430 122.33449048
4670.00 -270.54570198 122.47437960
4672.00 -270.74174784 122.61435622
4674.00 -270.93782183 122.75442034
4676.00 -271.13392392 122.89457196
4678.00 -271.33005404 123.03481107
4680.00 -271.52621216 123.17513767
4682.00 -271.72239822 123.31555175
4684.00 -271.91861217 123.45605330
4686.00 -272.11485398 123.59664233
4688.00 -272.31112359 123.73731882
4690.00 -272.50742094 123.87808277
4692.00 -272.70374601 124.01893417
4694.00 -272.90009873 124.15987302
4696.00 -273.09647906 124.30089932
4698.00 -273.29288696 124.44201305
4700.00 -273.48932237 124.58321422
4702.00 -273.68578525 124.72450281
4704.00 -273.88227554 124.86587882
4706.00 -274.07879321 125.00734225
4708.00 -274.27533821 125.14889309
4710.00 -274.47191048 125.29053133
4712.00 -274.66850998 125.43225696
4714.00 -274.86513666 125.57406999
4716.00 -275.06179048 125.71597041
4718.00 -275.25847138 125.85795821
4720.00 -275.45517933 126.00003338
4722.00 -275.65191426 126.14219592
4724.00 -275.84867614 126.28444582
4726.00 -276.04546492 126.42678308
4728.00 -276.24228055 126.56920769
4730.00 -276.43912298 126.71171964
4732.00 -276.63599216 126.85431894
4734.00 -276.83288806 126.99700556
4736.00 -277.02981061 127.13977952
4738.00 -277.22675978 127.28264079
4740.00 -277.42373552 127.42558938
4742.00 -277.62073777 127.56862527
4744.00 -277.81776649 127.71174847
4746.00 -278.01482164 127.85495896
4748.00 -278.21190317 127.99825674
4750.00 -278.40901102 128.14164181
4752.00 -278.60614516 128.28511415
4754.00 -278.80330554 128.42867376
4756.00 -279.00049210 128.57232063
4758.00 -279.19770480 128.71605477
4760.00 -279.39494360 128.85987615
4762.00 -279.59220845 129.00378478
4764.00 -279.78949929 129.14778065
4766.00 -279.98681609 129.29186375
4768.00 -280.18415879 129.43603407
4770.00 -280.38152736 129.58029161
4772.00 -280.57892173 129.72463637
4774.00 -280.77634187 129.86906833
4776.00 -280.97378773 130.01358749
4778.00 -281.17125926 130.15819384
4780.00 -281.36875642 130.30288737
4782.00 -281.56627915 130.44766808
4784.00 -281.76382741 130.59253597
4786.00 -281.96140115 130.73749102
4788.00 -282.15900034 130.88253323
4790.00 -282.35662491 131.02766259
4792.00 -282.55427482 131.17287909
4794.00 -282.75195003 131.31818273
4796.00 -282.94965050 131.46357351
4798.00 -283.14737616 131.60905140
4800.00 -283.34512698 131.75461641
4802.00 -283.54290291 131.90026854
4804.00 -283.74070390 132.04600776
4806.00 -283.93852990 132.19183408
4808.00 -284.13638088 132.33774749
4810.00 -284.33425678 132.48374798
4812.00 -284.53215755 132.62983554
4814.00 -284.73008316 132.77601017
4816.00 -284.92803354 132.92227186
4818.00 -285.12600866 133.06862060
4820.00 -285.32400848 133.21505639
4822.00 -285.52203293 133.36157921
4824.00 -285.72008198 133.50818907
4826.00 -285.91815558 133.65488595
4828.00 -286.11625369 133.80166984
4830.00 -286.31437625 133.94854074
4832.00 -286.51252322 134.09549865
4834.00 -286.71069456 134.24254354
4836.00 -286.90889021 134.38967543
4838.00 -287.10711013 134.53689429
4840.00 -287.30535428 134.68420012
4842.00 -287.50362261 134.83159292
4844.00 -287.70191507 134.97907267
4846.00 -287.90023162 135.12663937
4848.00 -288.09857220 135.27429301
4850.00 -288.29693678 135.42203358
4852.00 -288.49532531 135.56986108
4854.00 -288.69373773 135.71777550
4856.00 -288.89217401 135.86577682
4858.00 -289.09063410 136.01386505
4860.00 -289.28911795 136.16204017
4862.00 -289.48762552 136.31030218
4864.00 -289.68615675 136.45865107
4866.00 -289.88471161 136.60708683
4868.00 -290.08329005 136.75560945
4870.00 -290.28189202 136.90421892
4872.00 -290.48051747 137.05291524
4874.00 -290.67916636 137.20169840
4876.00 -290.87783865 137.35056839
4878.00 -291.07653428 137.49952521
4880.00 -291.27525321 137.64856883
4882.00 -291.47399540 137.79769927
4884.00 -291.67276080 137.94691650
4886.00 -291.87154936 138.09622053
4888.00 -292.07036104 138.24561133
4890.00 -292.26919579 138.39508891
4892.00 -292.46805356 138.54465325
4894.00 -292.66693432 138.69430436
4896.00 -292.86583800 138.84404221
4898.00 -293.06476458 138.99386680
4900.00 -293.26371399 139.14377812
4902.00 -293.46268621 139.29377617
4904.00 -293.66168117 139.44386094
4906.00 -293.86069884 139.59403241
4908.00 -294.05973916 139.74429058
4910.00 -294.25880210 139.89463544
4912.00 -294.45788761 140.04506698
4914.00 -294.65699564 140.19558519
4916.00 -294.85612614 140.34619007
4918.00 -295.05527908 140.49688161
4920.00 -295.25445439 140.64765980
4922.00 -295.45365205 140.79852462
4924.00 -295.65287200 140.94947607
4926.00 -295.85211420 141.10051415
4928.00 -296.05137860 141.25163884
4930.00 -296.25066516 141.40285013
4932.00 -296.44997383 141.55414802
4934.00 -296.64930457 141.70553249
4936.00 -296.84865732 141.85700354
4938.00 -297.04803205 142.00856116
4940.00 -297.24742871 142.16020535
4942.00 -297.44684725 142.31193608
4944.00 -297.64628763 142.46375335
4946.00 -297.84574981 142.61565716
4948.00 -298.04523373 142.76764750
4950.00 -298.24473935 142.91972434
4952.00 -298.44426663 143.07188770
4954.00 -298.64381552 143.22413755
4956.00 -298.84338598 143.37647389
4958.00 -299.04297796 143.52889672
4960.00 -299.24259142 143.68140601
4962.00 -299.44222630 143.83400176
4964.00 -299.64188257 143.98668396
4966.00 -299.84156018 144.13945261
4968.00 -300.04125909 144.29230769
4970.00 -300.24097924 144.44524919
4972.00 -300.44072060 144.59827711
4974.00 -300.64048312 144.75139144
4976.00 -300.84026676 144.90459216
4978.00 -301.04007146 145.05787927
4980.00 -301.23989719 145.21125275
4982.00 -301.43974389 145.36471261
4984.00 -301.63961153 145.51825882
4986.00 -301.83950006 145.67189138
4988.00 -302.03940944 145.82561029
4990.00 -302.23933961 145.97941552
4992.00 -302.43929054 146.13330707
4994.00 -302.63926217 146.28728494
4996.00 -302.83925447 146.44134911
4998.00 -303.03926739 146.59549956
5000.00 -303.23930088 146.74973631
