wavelength(nm)         real         imag
100.00   3.72078830   0.00171253
102.00   3.71354884   0.00181734
104.00   3.70616607   0.00192635
106.00   3.69864001   0.00203963
108.00   3.69097065   0.00215726
110.00   3.68315801   0.00227933
112.00   3.67520207   0.00240593
114.00   3.66710285   0.00253712
116.00   3.65886035   0.00267300
118.00   3.65047458   0.00281364
120.00   3.64194553   0.00295913
122.00   3.63327321   0.00310956
124.00   3.62445762   0.00326499
126.00   3.61549878   0.00342552
128.00   3.60639667   0.00359123
130.00   3.59715132   0.00376219
132.00   3.58776271   0.00393850
134.00   3.57823085   0.00412023
136.00   3.56855576   0.00430746
138.00   3.55873743   0.00450028
140.00   3.54877586   0.00469877
142.00   3.53867107   0.00490301
144.00   3.52842305   0.00511309
146.00   3.51803182   0.00532908
148.00   3.50749736   0.00555106
150.00   3.49681970   0.00577913
152.00   3.48599883   0.00601336
154.00   3.47503477   0.00625383
156.00   3.46392750   0.00650063
158.00   3.45267704   0.00675383
160.00   3.44128340   0.00701353
162.00   3.42974657   0.00727979
164.00   3.41806657   0.00755271
166.00   3.40624340   0.00783237
168.00   3.39427706   0.00811884
170.00   3.38216756   0.00841221
172.00   3.36991491   0.00871256
174.00   3.35751910   0.00901998
176.00   3.34498015   0.00933454
178.00   3.33229806   0.00965633
180.00   3.31947284   0.00998543
182.00   3.30650449   0.01032193
184.00   3.29339302   0.01066589
186.00   3.28013843   0.01101741
188.00   3.26674073   0.01137657
190.00   3.25319992   0.01174345
192.00   3.23951602   0.01211813
194.00   3.22568902   0.01250069
196.00   3.21171893   0.01289121
198.00   3.19760577   0.01328979
200.00   3.18334953   0.01369649
202.00   3.16895022   0.01411141
204.00   3.15440784   0.01453461
206.00   3.13972242   0.01496619
208.00   3.12489394   0.01540623
210.00   3.10992242   0.01585481
212.00   3.09480786   0.01631200
214.00   3.07955028   0.01677790
216.00   3.06414967   0.01725259
218.00   3.04860605   0.01773614
220.00   3.03291941   0.01822863
222.00   3.01708977   0.01873016
224.00   3.00111714   0.01924080
226.00   2.98500152   0.01976063
228.00   2.96874292   0.02028973
230.00   2.95234134   0.02082820
232.00   2.93579679   0.02137610
234.00   2.91910929   0.02193352
236.00   2.90227883   0.02250055
238.00   2.88530542   0.02307726
240.00   2.86818908   0.02366374
242.00   2.85092981   0.02426006
244.00   2.83352762   0.02486631
246.00   2.81598251   0.02548258
248.00   2.79829449   0.02610893
250.00   2.78046357   0.02674547
252.00   2.76248976   0.02739226
254.00   2.74437306   0.02804938
256.00   2.72611349   0.02871693
258.00   2.70771105   0.02939498
260.00   2.68916575   0.03008361
262.00   2.67047760   0.03078291
264.00   2.65164661   0.03149295
266.00   2.63267277   0.03221383
268.00   2.61355611   0.03294561
270.00   2.59429664   0.03368839
272.00   2.57489435   0.03444224
274.00   2.55534926   0.03520724
276.00   2.53566137   0.03598348
278.00   2.51583070   0.03677104
280.00   2.49585725   0.03757000
282.00   2.47574104   0.03838044
284.00   2.45548207   0.03920245
286.00   2.43508034   0.04003610
288.00   2.41453588   0.04088148
290.00   2.39384868   0.04173866
292.00   2.37301876   0.04260774
294.00   2.35204613   0.04348879
296.00   2.33093079   0.04438189
298.00   2.30967276   0.04528712
300.00   2.28827204   0.04620457
302.00   2.26672864   0.04713432
304.00   2.24504258   0.04807644
306.00   2.22321386   0.04903103
308.00   2.20124249   0.04999816
310.00   2.17912848   0.05097792
312.00   2.15687184   0.05197037
314.00   2.13447258   0.05297562
316.00   2.11193072   0.05399373
318.00   2.08924625   0.05502480
320.00   2.06641919   0.05606889
322.00   2.04344955   0.05712610
324.00   2.02033735   0.05819650
326.00   1.99708258   0.05928017
328.00   1.97368527   0.06037721
330.00   1.95014541   0.06148768
332.00   1.92646303   0.06261167
334.00   1.90263812   0.06374926
336.00   1.87867071   0.06490054
338.00   1.85456080   0.06606557
340.00   1.83030841   0.06724446
342.00   1.80591353   0.06843727
344.00   1.78137619   0.06964408
346.00   1.75669640   0.07086499
348.00   1.73187416   0.07210007
350.00   1.70690949   0.07334939
352.00   1.68180239   0.07461306
354.00   1.65655288   0.07589113
356.00   1.63116097   0.07718370
358.00   1.60562668   0.07849085
360.00   1.57995000   0.07981266
362.00   1.55413096   0.08114920
364.00   1.52816956   0.08250057
366.00   1.50206581   0.08386684
368.00   1.47581973   0.08524809
370.00   1.44943133   0.08664441
372.00   1.42290062   0.08805587
374.00   1.39622761   0.08948256
376.00   1.36941232   0.09092455
378.00   1.34245475   0.09238194
380.00   1.31535491   0.09385479
382.00   1.28811283   0.09534320
384.00   1.26072850   0.09684724
386.00   1.23320194   0.09836699
388.00   1.20553317   0.09990253
390.00   1.17772220   0.10145396
392.00   1.14976903   0.10302133
394.00   1.12167369   0.10460475
396.00   1.09343617   0.10620429
398.00   1.06505651   0.10782002
400.00   1.03653470   0.10945204
402.00   1.00787076   0.11110042
404.00   0.97906470   0.11276524
406.00   0.95011653   0.11444658
408.00   0.92102628   0.11614453
410.00   0.89179394   0.11785917
412.00   0.86241954   0.11959057
414.00   0.83290308   0.12133882
416.00   0.80324459   0.12310400
418.00   0.77344406   0.12488619
420.00   0.74350152   0.12668547
422.00   0.71341698   0.12850192
424.00   0.68319044   0.13033563
426.00   0.65282194   0.13218666
428.00   0.62231147   0.13405511
430.00   0.59165905   0.13594106
432.00   0.56086469   0.13784458
434.00   0.52992841   0.13976576
436.00   0.49885022   0.14170468
438.00   0.46763014   0.14366141
440.00   0.43626817   0.14563604
442.00   0.40476434   0.14762866
444.00   0.37311865   0.14963933
446.00   0.34133112   0.15166814
448.00   0.30940176   0.15371518
450.00   0.27733060   0.15578052
452.00   0.24511763   0.15786424
454.00   0.21276288   0.15996643
456.00   0.18026635   0.16208716
458.00   0.14762807   0.16422652
460.00   0.11484805   0.16638458
462.00   0.08192630   0.16856143
464.00   0.04886283   0.17075715
466.00   0.01565767   0.17297182
468.00  -0.01768918   0.17520551
470.00  -0.05117770   0.17745832
472.00  -0.08480788   0.17973031
474.00  -0.11857969   0.18202157
476.00  -0.15249313   0.18433219
478.00  -0.18654819   0.18666223
480.00  -0.22074484   0.18901179
482.00  -0.25508307   0.19138094
484.00  -0.28956287   0.19376976
486.00  -0.32418423   0.19617834
488.00  -0.35894712   0.19860675
490.00  -0.39385153   0.20105507
492.00  -0.42889744   0.20352339
494.00  -0.46408485   0.20601179
496.00  -0.49941374   0.20852034
498.00  -0.53488408   0.21104912
500.00  -0.57049587   0.21359822
502.00  -0.60624909   0.21616772
504.00  -0.64214373   0.21875770
506.00  -0.67817976   0.22136823
508.00  -0.71435718   0.22399940
510.00  -0.75067596   0.22665129
512.00  -0.78713609   0.22932397
514.00  -0.82373756   0.23201754
516.00  -0.86048035   0.23473206
518.00  -0.89736444   0.23746762
520.00  -0.93438982   0.24022430
522.00  -0.97155647   0.24300218
524.00  -1.00886438   0.24580134
526.00  -1.04631352   0.24862186
528.00  -1.08390389   0.25146382
530.00  -1.12163546   0.25432730
532.00  -1.15950823   0.25721238
534.00  -1.19752216   0.26011914
536.00  -1.23567726   0.26304766
538.00  -1.27397349   0.26599802
540.00  -1.31241085   0.26897030
542.00  -1.35098931   0.27196459
544.00  -1.38970887   0.27498095
546.00  -1.42856949   0.27801947
548.00  -1.46757118   0.28108023
550.00  -1.50671390   0.28416332
552.00  -1.54599765   0.28726880
554.00  -1.58542240   0.29039676
556.00  -1.62498814   0.29354729
558.00  -1.66469485   0.29672046
560.00  -1.70454251   0.29991634
562.00  -1.74453111   0.30313503
564.00  -1.78466063   0.30637659
566.00  -1.82493105   0.30964112
568.00  -1.86534236   0.31292868
570.00  -1.90589453   0.31623937
572.00  -1.94658755   0.31957325
574.00  -1.98742140   0.32293041
576.00  -2.02839607   0.32631093
578.00  -2.06951153   0.32971490
580.00  -2.11076776   0.33314237
582.00  -2.15216476   0.33659345
584.00  -2.19370250   0.34006820
586.00  -2.23538097   0.34356672
588.00  -2.27720014   0.34708907
590.00  -2.31916000   0.35063533
592.00  -2.36126052   0.35420559
594.00  -2.40350170   0.35779993
596.00  -2.44588351   0.36141843
598.00  -2.48840594   0.36506115
600.00  -2.53106896   0.36872820
602.00  -2.57387256   0.37241964
604.00  -2.61681672   0.37613555
606.00  -2.65990142   0.37987601
608.00  -2.70312664   0.38364111
610.00  -2.74649236   0.38743092
612.00  -2.78999857   0.39124552
614.00  -2.83364524   0.39508500
616.00  -2.87743236   0.39894942
618.00  -2.92135990   0.40283887
620.00  -2.96542785   0.40675344
622.00  -3.00963620   0.41069319
624.00  -3.05398491   0.41465821
626.00  -3.09847397   0.41864858
628.00  -3.14310336   0.42266437
630.00  -3.18787307   0.42670567
632.00  -3.23278307   0.43077256
634.00  -3.27783334   0.43486511
636.00  -3.32302387   0.43898340
638.00  -3.36835462   0.44312752
640.00  -3.41382560   0.44729754
642.00  -3.45943676   0.45149354
644.00  -3.50518811   0.45571560
646.00  -3.55107960   0.45996380
648.00  -3.59711124   0.46423822
650.00  -3.64328299   0.46853894
652.00  -3.68959483   0.47286604
654.00  -3.73604675   0.47721959
656.00  -3.78263872   0.48159967
658.00  -3.82937073   0.48600637
660.00  -3.87624275   0.49043977
662.00  -3.92325477   0.49489993
664.00  -3.97040676   0.49938695
666.00  -4.01769870   0.50390090
668.00  -4.06513058   0.50844186
670.00  -4.11270237   0.51300990
672.00  -4.16041405   0.51760511
674.00  -4.20826560   0.52222757
676.00  -4.25625700   0.52687735
678.00  -4.30438823   0.53155454
680.00  -4.35265928   0.53625921
682.00  -4.40107010   0.54099144
684.00  -4.44962070   0.54575130
686.00  -4.49831104   0.55053889
688.00  -4.54714111   0.55535428
690.00  -4.59611088   0.56019754
692.00  -4.64522033   0.56506875
694.00  -4.69446945   0.56996800
696.00  -4.74385820   0.57489537
698.00  -4.79338658   0.57985092
700.00  -4.84305455   0.58483474
702.00  -4.89286210   0.58984691
704.00  -4.94280920   0.59488751
706.00  -4.99289583   0.59995661
708.00  -5.04312198   0.60505429
710.00  -5.09348761   0.61018064
712.00  -5.14399271   0.61533573
714.00  -5.19463726   0.62051963
716.00  -5.24542123   0.62573244
718.00  -5.29634460   0.63097422
720.00  -5.34740735   0.63624505
722.00  -5.39860946   0.64154502
724.00  -5.44995091   0.64687420
726.00  -5.50143167   0.65223267
728.00  -5.55305172   0.65762051
730.00  -5.60481104   0.66303779
732.00  -5.65670961   0.66848460
734.00  -5.70874740   0.67396101
736.00  -5.76092439   0.67946710
738.00  -5.81324056   0.68500295
740.00  -5.86569589   0.69056864
742.00  -5.91829035   0.69616424
744.00  -5.97102392   0.70178984
746.00  -6.02389658   0.70744550
748.00  -6.07690831   0.71313132
750.00  -6.13005908   0.71884737
752.00  -6.18334887   0.72459372
754.00  -6.23677765   0.73037046
756.00  -6.29034541   0.73617766
758.00  -6.34405212   0.74201540
760.00  -6.39789776   0.74788376
762.00  -6.45188230   0.75378281
764.00  -6.50600572   0.75971264
766.00  -6.56026800   0.76567332
768.00  -6.61466912   0.77166493
770.00  -6.66920904   0.77768755
772.00  -6.72388776   0.78374125
774.00  -6.77870523   0.78982612
776.00  -6.83366145   0.79594223
778.00  -6.88875638   0.80208966
780.00  -6.94399000   0.80826848
782.00  -6.99936230   0.81447878
784.00  -7.05487323   0.82072064
786.00  -7.11052279   0.82699412
788.00  -7.16631095   0.83329931
790.00  -7.22223767   0.83963628
792.00  -7.27830295   0.84600512
794.00  -7.33450675   0.85240590
796.00  -7.39084906   0.85883869
798.00  -7.44732983   0.86530359
800.00  -7.50394906   0.87180065
802.00  -7.56070672   0.87832997
804.00  -7.61760278   0.88489161
806.00  -7.67463722   0.89148566
808.00  -7.73181001   0.89811220
810.00  -7.78912113   0.90477129
812.00  -7.84657056   0.91146302
814.00  -7.90415827   0.91818747
816.00  -7.96188423   0.92494471
818.00  -8.01974842   0.93173482
820.00  -8.07775082   0.93855788
822.00  -8.13589139   0.94541396
824.00  -8.19417013   0.95230315
826.00  -8.25258699   0.95922551
828.00  -8.31114196   0.96618113
830.00  -8.36983500   0.97317008
832.00  -8.42866611   0.98019245
834.00  -8.48763524   0.98724830
836.00  -8.54674237   0.99433771
838.00  -8.60598749   1.00146077
840.00  -8.66537056   1.00861755
842.00  -8.72489155   1.01580812
844.00  -8.78455045   1.02303257
846.00  -8.84434722   1.03029097
848.00  -8.90428185   1.03758339
850.00  -8.96435430   1.04490992
852.00  -9.02456455   1.05227063
854.00  -9.08491257   1.05966560
856.00  -9.14539834   1.06709490
858.00  -9.20602183   1.07455861
860.00  -9.26678301   1.08205681
862.00  -9.32768187   1.08958958
864.00  -9.38871836   1.09715699
866.00  -9.44989248   1.10475912
868.00  -9.51120418   1.11239604
870.00  -9.57265345   1.12006783
872.00  -9.63424026   1.12777458
874.00  -9.69596458   1.13551635
876.00  -9.75782638   1.14329322
878.00  -9.81982564   1.15110527
880.00  -9.88196234   1.15895257
882.00  -9.94423643   1.16683521
884.00 -10.00664791   1.17475326
886.00 -10.06919674   1.18270679
888.00 -10.13188289   1.19069588
890.00 -10.19470634   1.19872061
892.00 -10.25766706   1.20678105
894.00 -10.32076503   1.21487729
896.00 -10.38400021   1.22300939
898.00 -10.44737258   1.23117743
900.00 -10.51088212   1.23938150
902.00 -10.57452879   1.24762166
904.00 -10.63831257   1.25589799
906.00 -10.70223342   1.26421057
908.00 -10.76629134   1.27255948
910.00 -10.83048627   1.28094478
912.00 -10.89481821   1.28936657
914.00 -10.95928712   1.29782491
916.00 -11.02389297   1.30631987
918.00 -11.08863573   1.31485154
920.00 -11.15351538   1.32341999
922.00 -11.21853190   1.33202531
924.00 -11.28368524   1.34066755
926.00 -11.34897539   1.34934680
928.00 -11.41440232   1.35806314
930.00 -11.47996599   1.36681664
932.00 -11.54566638   1.37560738
934.00 -11.61150347   1.38443543
936.00 -11.67747722   1.39330087
938.00 -11.74358760   1.40220377
940.00 -11.80983460   1.41114422
942.00 -11.87621817   1.42012228
944.00 -11.94273829   1.42913803
946.00 -12.00939493   1.43819155
948.00 -12.07618807   1.44728292
950.00 -12.14311768   1.45641220
952.00 -12.21018371   1.46557948
954.00 -12.27738616   1.47478483
956.00 -12.34472499   1.48402832
958.00 -12.41220016   1.49331004
960.00 -12.47981166   1.50263005
962.00 -12.54755945   1.51198844
964.00 -12.61544351   1.52138527
966.00 -12.68346379   1.53082063
968.00 -12.75162029   1.54029459
970.00 -12.81991296   1.54980722
972.00 -12.88834177   1.55935860
974.00 -12.95690671   1.56894881
976.00 -13.02560773   1.57857792
978.00 -13.09444482   1.58824600
980.00 -13.16341793   1.59795313
982.00 -13.23252704   1.60769939
984.00 -13.30177213   1.61748485
986.00 -13.37115315   1.62730959
988.00 -13.44067009   1.63717368
990.00 -13.51032291   1.64707720
992.00 -13.58011158   1.65702021
994.00 -13.65003608   1.66700281
996.00 -13.72009637   1.67702506
998.00 -13.79029242   1.68708703
1000.00 -13.86062420   1.69718881
1002.00 -13.93109169   1.70733046
1004.00 -14.00169485   1.71751206
1006.00 -14.07243365   1.72773370
1008.00 -14.14330806   1.73799543
1010.00 -14.21431806   1.74829734
1012.00 -14.28546361   1.75863950
1014.00 -14.35674468   1.76902199
1016.00 -14.42816124   1.77944488
1018.00 -14.49971327   1.78990824
1020.00 -14.57140072   1.80041215
1022.00 -14.64322357   1.81095669
1024.00 -14.71518180   1.82154193
1026.00 -14.78727536   1.83216794
1028.00 -14.85950423   1.84283480
1030.00 -14.93186838   1.85354259
1032.00 -15.00436777   1.86429137
1034.00 -15.07700238   1.87508122
1036.00 -15.14977218   1.88591222
1038.00 -15.22267712   1.89678445
1040.00 -15.29571719   1.90769796
1042.00 -15.36889236   1.91865285
1044.00 -15.44220258   1.92964918
1046.00 -15.51564783   1.94068703
1048.00 -15.58922808   1.95176648
1050.00 -15.66294330   1.96288759
1052.00 -15.73679345   1.97405044
1054.00 -15.81077851   1.98525511
1056.00 -15.88489843   1.99650167
1058.00 -15.95915320   2.00779019
1060.00 -16.03354278   2.01912075
1062.00 -16.10806714   2.03049342
1064.00 -16.18272624   2.04190828
1066.00 -16.25752006   2.05336540
1068.00 -16.33244856   2.06486485
1070.00 -16.40751171   2.07640671
1072.00 -16.48270948   2.08799105
1074.00 -16.55804184   2.09961795
1076.00 -16.63350875   2.11128748
1078.00 -16.70911018   2.12299971
1080.00 -16.78484611   2.13475472
1082.00 -16.86071649   2.14655259
1084.00 -16.93672130   2.15839337
1086.00 -17.01286051   2.17027716
1088.00 -17.08913407   2.18220402
1090.00 -17.16554197   2.19417402
1092.00 -17.24208416   2.20618725
1094.00 -17.31876062   2.21824376
1096.00 -17.39557131   2.23034365
1098.00 -17.47251620   2.24248697
1100.00 -17.54959525   2.25467381
1102.00 -17.62680844   2.26690424
1104.00 -17.70415573   2.27917833
1106.00 -17.78163709   2.29149615
1108.00 -17.85925249   2.30385778
1110.00 -17.93700189   2.31626329
1112.00 -18.01488526   2.32871276
1114.00 -18.09290256   2.34120625
1116.00 -18.17105377   2.35374384
1118.00 -18.24933885   2.36632561
1120.00 -18.32775777   2.37895163
1122.00 -18.40631049   2.39162197
1124.00 -18.48499699   2.40433670
1126.00 -18.56381722   2.41709590
1128.00 -18.64277115   2.42989963
1130.00 -18.72185876   2.44274799
1132.00 -18.80108000   2.45564102
1134.00 -18.88043485   2.46857882
1136.00 -18.95992327   2.48156145
1138.00 -19.03954522   2.49458898
1140.00 -19.11930068   2.50766149
1142.00 -19.19918961   2.52077905
1144.00 -19.27921197   2.53394174
1146.00 -19.35936774   2.54714962
1148.00 -19.43965687   2.56040277
1150.00 -19.52007934   2.57370127
1152.00 -19.60063510   2.58704517
1154.00 -19.68132413   2.60043457
1156.00 -19.76214640   2.61386952
1158.00 -19.84310186   2.62735011
1160.00 -19.92419048   2.64087640
1162.00 -20.00541224   2.65444847
1164.00 -20.08676709   2.66806639
1166.00 -20.16825500   2.68173023
1168.00 -20.24987593   2.69544007
1170.00 -20.33162986   2.70919598
1172.00 -20.41351674   2.72299802
1174.00 -20.49553655   2.73684628
1176.00 -20.57768924   2.75074082
1178.00 -20.65997479   2.76468172
1180.00 -20.74239315   2.77866905
1182.00 -20.82494430   2.79270288
1184.00 -20.90762820   2.80678328
1186.00 -20.99044481   2.82091033
1188.00 -21.07339410   2.83508409
1190.00 -21.15647604   2.84930465
1192.00 -21.23969058   2.86357207
1194.00 -21.32303770   2.87788642
1196.00 -21.40651735   2.89224778
1198.00 -21.49012951   2.90665621
1200.00 -21.57387414   2.92111180
1202.00 -21.65775120   2.93561460
1204.00 -21.74176066   2.95016470
1206.00 -21.82590248   2.96476217
1208.00 -21.91017663   2.97940707
1210.00 -21.99458307   2.99409949
1212.00 -22.07912176   3.00883948
1214.00 -22.16379268   3.02362713
1216.00 -22.24859578   3.03846250
1218.00 -22.33353103   3.05334566
1220.00 -22.41859839   3.06827670
1222.00 -22.50379783   3.08325567
1224.00 -22.58912931   3.09828265
1226.00 -22.67459279   3.11335771
1228.00 -22.76018825   3.12848093
1230.00 -22.84591564   3.14365237
1232.00 -22.93177492   3.15887211
1234.00 -23.01776607   3.17414022
1236.00 -23.10388904   3.18945676
1238.00 -23.19014380   3.20482182
1240.00 -23.27653032   3.22023546
1242.00 -23.36304855   3.23569775
1244.00 -23.44969846   3.25120876
1246.00 -23.53648002   3.26676857
1248.00 -23.62339318   3.28237725
1250.00 -23.71043791   3.29803486
1252.00 -23.79761418   3.31374148
1254.00 -23.88492195   3.32949718
1256.00 -23.97236117   3.34530203
1258.00 -24.05993182   3.36115610
1260.00 -24.14763386   3.37705947
1262.00 -24.23546725   3.39301220
1264.00 -24.32343195   3.40901436
1266.00 -24.41152793   3.42506602
1268.00 -24.49975515   3.44116727
1270.00 -24.58811357   3.45731816
1272.00 -24.67660315   3.47351876
1274.00 -24.76522387   3.48976915
1276.00 -24.85397568   3.50606941
1278.00 -24.94285854   3.52241959
1280.00 -25.03187242   3.53881977
1282.00 -25.12101728   3.55527002
1284.00 -25.21029308   3.57177041
1286.00 -25.29969978   3.58832102
1288.00 -25.38923736   3.60492190
1290.00 -25.47890576   3.62157314
1292.00 -25.56870496   3.63827480
1294.00 -25.65863491   3.65502695
1296.00 -25.74869558   3.67182967
1298.00 -25.83888692   3.68868301
1300.00 -25.92920891   3.70558707
1302.00 -26.01966151   3.72254189
1304.00 -26.11024467   3.73954756
1306.00 -26.20095835   3.75660415
1308.00 -26.29180253   3.77371172
1310.00 -26.38277716   3.79087034
1312.00 -26.47388221   3.80808009
1314.00 -26.56511763   3.82534103
1316.00 -26.65648338   3.84265323
1318.00 -26.74797944   3.86001677
1320.00 -26.83960576   3.87743172
1322.00 -26.93136230   3.89489813
1324.00 -27.02324903   3.91241609
1326.00 -27.11526591   3.92998567
1328.00 -27.20741289   3.94760693
1330.00 -27.29968994   3.96527994
1332.00 -27.39209702   3.98300477
1334.00 -27.48463410   4.00078150
1336.00 -27.57730112   4.01861019
1338.00 -27.67009807   4.03649090
1340.00 -27.76302489   4.05442372
1342.00 -27.85608154   4.07240871
1344.00 -27.94926800   4.09044594
1346.00 -28.04258422   4.10853548
1348.00 -28.13603015   4.12667740
1350.00 -28.22960577   4.14487177
1352.00 -28.32331103   4.16311865
1354.00 -28.41714590   4.18141812
1356.00 -28.51111033   4.19977025
1358.00 -28.60520428   4.21817510
1360.00 -28.69942772   4.23663274
1362.00 -28.79378061   4.25514325
1364.00 -28.88826291   4.27370669
1366.00 -28.98287457   4.29232313
1368.00 -29.07761557   4.31099265
1370.00 -29.17248585   4.32971530
1372.00 -29.26748538   4.34849116
1374.00 -29.36261413   4.36732030
1376.00 -29.45787204   4.38620278
1378.00 -29.55325909   4.40513868
1380.00 -29.64877523   4.42412807
1382.00 -29.74442041   4.44317100
1384.00 -29.84019461   4.46226756
1386.00 -29.93609779   4.48141781
1388.00 -30.03212989   4.50062181
1390.00 -30.12829089   4.51987965
1392.00 -30.22458074   4.53919138
1394.00 -30.32099940   4.55855707
1396.00 -30.41754683   4.57797680
1398.00 -30.51422300   4.59745063
1400.00 -30.61102786   4.61697862
1402.00 -30.70796137   4.63656086
1404.00 -30.80502349   4.65619740
1406.00 -30.90221418   4.67588832
1408.00 -30.99953340   4.69563368
1410.00 -31.09698111   4.71543356
1412.00 -31.19455728   4.73528801
1414.00 -31.29226185   4.75519711
1416.00 -31.39009479   4.77516092
1418.00 -31.48805606   4.79517953
1420.00 -31.58614561   4.81525298
1422.00 -31.68436342   4.83538135
1424.00 -31.78270943   4.85556471
1426.00 -31.88118360   4.87580313
1428.00 -31.97978590   4.89609667
1430.00 -32.07851628   4.91644540
1432.00 -32.17737471   4.93684940
1434.00 -32.27636113   4.95730872
1436.00 -32.37547552   4.97782343
1438.00 -32.47471783   4.99839361
1440.00 -32.57408801   5.01901932
1442.00 -32.67358604   5.03970063
1444.00 -32.77321185   5.06043760
1446.00 -32.87296543   5.08123031
1448.00 -32.97284672   5.10207882
1450.00 -33.07285567   5.12298320
1452.00 -33.17299226   5.14394351
1454.00 -33.27325644   5.16495983
1456.00 -33.37364817   5.18603222
1458.00 -33.47416741   5.20716074
1460.00 -33.57481410   5.22834547
1462.00 -33.67558823   5.24958648
1464.00 -33.77648973   5.27088382
1466.00 -33.87751857   5.29223757
1468.00 -33.97867471   5.31364780
1470.00 -34.07995811   5.33511457
1472.00 -34.18136872   5.35663794
1474.00 -34.28290651   5.37821799
1476.00 -34.38457142   5.39985479
1478.00 -34.48636342   5.42154839
1480.00 -34.58828247   5.44329887
1482.00 -34.69032853   5.46510629
1484.00 -34.79250154   5.48697073
1486.00 -34.89480148   5.50889224
1488.00 -34.99722829   5.53087089
1490.00 -35.09978194   5.55290676
1492.00 -35.20246239   5.57499990
1494.00 -35.30526958   5.59715039
1496.00 -35.40820348   5.61935828
1498.00 -35.51126405   5.64162365
1500.00 -35.61445124   5.66394657
1502.00 -35.71776502   5.68632710
1504.00 -35.82120533   5.70876530
1506.00 -35.92477214   5.73126125
1508.00 -36.02846540   5.75381500
1510.00 -36.13228507   5.77642663
1512.00 -36.23623111   5.79909621
1514.00 -36.34030347   5.82182379
1516.00 -36.44450212   5.84460944
1518.00 -36.54882700   5.86745324
1520.00 -36.65327808   5.89035524
1522.00 -36.75785532   5.91331552
1524.00 -36.86255866   5.93633413
1526.00 -36.96738807   5.95941115
1528.00 -37.07234351   5.98254664
1530.00 -37.17742493   6.00574067
1532.00 -37.28263228   6.02899330
1534.00 -37.38796553   6.05230460
1536.00 -37.49342463   6.07567463
1538.00 -37.59900954   6.09910346
1540.00 -37.70472021   6.12259116
1542.00 -37.81055660   6.14613779
1544.00 -37.91651867   6.16974342
1546.00 -38.02260637   6.19340811
1548.00 -38.12881967   6.21713193
1550.00 -38.23515851   6.24091495
1552.00 -38.34162285   6.26475722
1554.00 -38.44821266   6.28865882
1556.00 -38.55492787   6.31261981
1558.00 -38.66176846   6.33664026
1560.00 -38.76873438   6.36072022
1562.00 -38.87582559   6.38485977
1564.00 -38.98304203   6.40905898
1566.00 -39.09038367   6.43331790
1568.00 -39.19785046   6.45763661
1570.00 -39.30544236   6.48201516
1572.00 -39.41315932   6.50645362
1574.00 -39.52100131   6.53095206
1576.00 -39.62896827   6.55551055
1578.00 -39.73706016   6.58012914
1580.00 -39.84527694   6.60480790
1582.00 -39.95361856   6.62954691
1584.00 -40.06208498   6.65434621
1586.00 -40.17067615   6.67920588
1588.00 -40.27939203   6.70412599
1590.00 -40.38823258   6.72910659
1592.00 -40.49719775   6.75414775
1594.00 -40.60628750   6.77924953
1596.00 -40.71550178   6.80441201
1598.00 -40.82484054   6.82963525
1600.00 -40.93430375   6.85491930
1602.00 -41.04389135   6.88026424
1604.00 -41.15360331   6.90567012
1606.00 -41.26343957   6.93113702
1608.00 -41.37340010   6.95666500
1610.00 -41.48348485   6.98225412
1612.00 -41.59369377   7.00790444
1614.00 -41.70402681   7.03361604
1616.00 -41.81448394   7.05938897
1618.00 -41.92506511   7.08522329
1620.00 -42.03577027   7.11111909
1622.00 -42.14659938   7.13707640
1624.00 -42.25755239   7.16309531
1626.00 -42.36862926   7.18917588
1628.00 -42.47982994   7.21531816
1630.00 -42.59115439   7.24152223
1632.00 -42.70260255   7.26778814
1634.00 -42.81417440   7.29411597
1636.00 -42.92586987   7.32050577
1638.00 -43.03768893   7.34695760
1640.00 -43.14963153   7.37347154
1642.00 -43.26169762   7.40004765
1644.00 -43.37388715   7.42668598
1646.00 -43.48620010   7.45338661
1648.00 -43.59863639   7.48014959
1650.00 -43.71119600   7.50697499
1652.00 -43.82387888   7.53386288
1654.00 -43.93668497   7.56081331
1656.00 -44.04961423   7.58782636
1658.00 -44.16266663   7.61490207
1660.00 -44.27584210   7.64204053
1662.00 -44.38914061   7.66924178
1664.00 -44.50256211   7.69650590
1666.00 -44.61610655   7.72383294
1668.00 -44.72977389   7.75122298
1670.00 -44.84356408   7.77867607
1672.00 -44.95747707   7.80619227
1674.00 -45.07151282   7.83377165
1676.00 -45.18567129   7.86141427
1678.00 -45.29995242   7.88912020
1680.00 -45.41435617   7.91688949
1682.00 -45.52888249   7.94472222
1684.00 -45.64353134   7.97261844
1686.00 -45.75830267   8.00057821
1688.00 -45.87319643   8.02860161
1690.00 -45.98821258   8.05668868
1692.00 -46.10335107   8.08483950
1694.00 -46.21861185   8.11305413
1696.00 -46.33399488   8.14133262
1698.00 -46.44950010   8.16967505
1700.00 -46.56512748   8.19808147
1702.00 -46.68087697   8.22655195
1704.00 -46.79674852   8.25508654
1706.00 -46.91274208   8.28368532
1708.00 -47.02885760   8.31234834
1710.00 -47.14509505   8.34107567
1712.00 -47.26145436   8.36986736
1714.00 -47.37793550   8.39872349
1716.00 -47.49453842   8.42764410
1718.00 -47.61126306   8.45662928
1720.00 -47.72810939   8.48567906
1722.00 -47.84507735   8.51479353
1724.00 -47.96216691   8.54397274
1726.00 -48.07937800   8.57321674
1728.00 -48.19671059   8.60252562
1730.00 -48.31416462   8.63189942
1732.00 -48.43174005   8.66133820
1734.00 -48.54943684   8.69084204
1736.00 -48.66725492   8.72041098
1738.00 -48.78519427   8.75004510
1740.00 -48.90325482   8.77974446
1742.00 -49.02143653   8.80950911
1744.00 -49.13973936   8.83933912
1746.00 -49.25816325   8.86923454
1748.00 -49.37670816   8.89919545
1750.00 -49.49537404   8.92922190
1752.00 -49.61416084   8.95931395
1754.00 -49.73306851   8.98947166
1756.00 -49.85209701   9.01969511
1758.00 -49.97124629   9.04998433
1760.00 -50.09051630   9.08033941
1762.00 -50.20990699   9.11076040
1764.00 -50.32941832   9.14124735
1766.00 -50.44905023   9.17180034
1768.00 -50.56880268   9.20241942
1770.00 -50.68867562   9.23310465
1772.00 -50.80866900   9.26385610
1774.00 -50.92878277   9.29467382
1776.00 -51.04901689   9.32555788
1778.00 -51.16937130   9.35650834
1780.00 -51.28984597   9.38752525
1782.00 -51.41044083   9.41860868
1784.00 -51.53115584   9.44975869
1786.00 -51.65199096   9.48097534
1788.00 -51.77294613   9.51225869
1790.00 -51.89402130   9.54360879
1792.00 -52.01521643   9.57502572
1794.00 -52.13653147   9.60650954
1796.00 -52.25796637   9.63806029
1798.00 -52.37952108   9.66967804
1800.00 -52.50119555   9.70136286
1802.00 -52.62298974   9.73311480
1804.00 -52.74490359   9.76493393
1806.00 -52.86693705   9.79682029
1808.00 -52.98909008   9.82877396
1810.00 -53.11136263   9.86079499
1812.00 -53.23375464   9.89288345
1814.00 -53.35626608   9.92503939
1816.00 -53.47889688   9.95726287
1818.00 -53.60164701   9.98955396
1820.00 -53.72451641  10.02191271
1822.00 -53.84750503  10.05433918
1824.00 -53.97061282  10.08683343
1826.00 -54.09383974  10.11939553
1828.00 -54.21718574  10.15202553
1830.00 -54.34065075  10.18472349
1832.00 -54.46423475  10.21748947
1834.00 -54.58793767  10.25032353
1836.00 -54.71175947  10.28322573
1838.00 -54.83570009  10.31619614
1840.00 -54.95975950  10.34923480
1842.00 -55.08393763  10.38234178
1844.00 -55.20823444  10.41551713
1846.00 -55.33264988  10.44876093
1848.00 -55.45718390  10.48207322
1850.00 -55.58183645  10.51545407
1852.00 -55.70660748  10.54890353
1854.00 -55.83149694  10.58242167
1856.00 -55.95650478  10.61600854
1858.00 -56.08163095  10.64966420
1860.00 -56.20687540  10.68338871
1862.00 -56.33223808  10.71718213
1864.00 -56.45771894  10.75104452
1866.00 -56.58331793  10.78497594
1868.00 -56.70903501  10.81897644
1870.00 -56.83487011  10.85304609
1872.00 -56.96082319  10.88718494
1874.00 -57.08689421  10.92139306
1876.00 -57.21308310  10.95567050
1878.00 -57.33938982  10.99001731
1880.00 -57.46581432  11.02443357
1882.00 -57.59235655  11.05891932
1884.00 -57.71901646  11.09347462
1886.00 -57.84579400  11.12809954
1888.00 -57.97268911  11.16279414
1890.00 -58.09970176  11.19755846
1892.00 -58.22683187  11.23239257
1894.00 -58.35407942  11.26729652
1896.00 -58.48144434  11.30227038
1898.00 -58.60892658  11.33731421
1900.00 -58.73652610  11.37242805
1902.00 -58.86424285  11.40761198
1904.00 -58.99207676  11.44286604
1906.00 -59.12002780  11.47819029
1908.00 -59.24809591  11.51358480
1910.00 -59.37628104  11.54904962
1912.00 -59.50458314  11.58458481
1914.00 -59.63300216  11.62019042
1916.00 -59.76153804  11.65586652
1918.00 -59.89019074  11.69161316
1920.00 -60.01896021  11.72743040
1922.00 -60.14784639  11.76331829
1924.00 -60.27684924  11.79927690
1926.00 -60.40596870  11.83530628
1928.00 -60.53520472  11.87140649
1930.00 -60.66455725  11.90757759
1932.00 -60.79402624  11.94381963
1934.00 -60.92361164  11.98013267
1936.00 -61.05331339  12.01651677
1938.00 -61.18313145  12.05297199
1940.00 -61.31306576  12.08949838
1942.00 -61.44311627  12.12609599
1944.00 -61.57328294  12.16276490
1946.00 -61.70356570  12.19950515
1948.00 -61.83396451  12.23631680
1950.00 -61.96447932  12.27319991
1952.00 -62.09511007  12.31015453
1954.00 -62.22585672  12.34718072
1956.00 -62.35671920  12.38427855
1958.00 -62.48769748  12.42144806
1960.00 -62.61879149  12.45868931
1962.00 -62.75000119  12.49600236
1964.00 -62.88132653  12.53338726
1966.00 -63.01276745  12.57084407
1968.00 -63.14432390  12.60837286
1970.00 -63.27599582  12.64597367
1972.00 -63.40778318  12.68364656
1974.00 -63.53968591  12.72139158
1976.00 -63.67170396  12.75920881
1978.00 -63.80383728  12.79709828
1980.00 -63.93608582  12.83506005
1982.00 -64.06844953  12.87309419
1984.00 -64.20092835  12.91120075
1986.00 -64.33352224  12.94937979
1988.00 -64.46623114  12.98763135
1990.00 -64.59905499  13.02595550
1992.00 -64.73199375  13.06435230
1994.00 -64.86504736  13.10282179
1996.00 -64.99821578  13.14136404
1998.00 -65.13149894  13.17997909
2000.00 -65.26489680  13.21866702
2002.00 -65.39840930  13.25742786
2004.00 -65.53203639  13.29626169
2006.00 -65.66577803  13.33516855
2008.00 -65.79963415  13.37414849
2010.00 -65.93360470  13.41320158
2012.00 -66.06768964  13.45232787
2014.00 -66.20188890  13.49152742
2016.00 -66.33620244  13.53080027
2018.00 -66.47063020  13.57014649
2020.00 -66.60517213  13.60956614
2022.00 -66.73982818  13.64905926
2024.00 -66.87459830  13.68862591
2026.00 -67.00948242  13.72826615
2028.00 -67.14448051  13.76798003
2030.00 -67.27959250  13.80776761
2032.00 -67.41481835  13.84762894
2034.00 -67.55015799  13.88756408
2036.00 -67.68561139  13.92757308
2038.00 -67.82117847  13.96765600
2040.00 -67.95685920  14.00781289
2042.00 -68.09265352  14.04804380
2044.00 -68.22856137  14.08834880
2046.00 -68.36458270  14.12872793
2048.00 -68.50071747  14.16918126
2050.00 -68.63696560  14.20970883
2052.00 -68.77332706  14.25031070
2054.00 -68.90980179  14.29098692
2056.00 -69.04638973  14.33173756
2058.00 -69.18309084  14.37256265
2060.00 -69.31990505  14.41346227
2062.00 -69.45683232  14.45443646
2064.00 -69.59387259  14.49548527
2066.00 -69.73102581  14.53660876
2068.00 -69.86829193  14.57780699
2070.00 -70.00567088  14.61908001
2072.00 -70.14316263  14.66042787
2074.00 -70.28076710  14.70185063
2076.00 -70.41848426  14.74334833
2078.00 -70.55631404  14.78492105
2080.00 -70.69425640  14.82656882
2082.00 -70.83231128  14.86829171
2084.00 -70.97047862  14.91008976
2086.00 -71.10875837  14.95196303
2088.00 -71.24715048  14.99391157
2090.00 -71.38565490  15.03593545
2092.00 -71.52427156  15.07803470
2094.00 -71.66300042  15.12020939
2096.00 -71.80184143  15.16245957
2098.00 -71.94079452  15.20478529
2100.00 -72.07985964  15.24718660
2102.00 -72.21903675  15.28966357
2104.00 -72.35832578  15.33221623
2106.00 -72.49772668  15.37484465
2108.00 -72.63723940  15.41754888
2110.00 -72.77686388  15.46032897
2112.00 -72.91660008  15.50318498
2114.00 -73.05644792  15.54611695
2116.00 -73.19640737  15.58912495
2118.00 -73.33647837  15.63220902
2120.00 -73.47666085  15.67536921
2122.00 -73.61695478  15.71860559
2124.00 -73.75736008  15.76191819
2126.00 -73.89787672  15.80530709
2128.00 -74.03850463  15.84877232
2130.00 -74.17924376  15.89231394
2132.00 -74.32009405  15.93593200
2134.00 -74.46105546  15.97962656
2136.00 -74.60212792  16.02339767
2138.00 -74.74331139  16.06724539
2140.00 -74.88460580  16.11116975
2142.00 -75.02601110  16.15517082
2144.00 -75.16752724  16.19924865
2146.00 -75.30915416  16.24340329
2148.00 -75.45089181  16.28763480
2150.00 -75.59274014  16.33194321
2152.00 -75.73469908  16.37632860
2154.00 -75.87676859  16.42079101
2156.00 -76.01894860  16.46533048
2158.00 -76.16123907  16.50994709
2160.00 -76.30363994  16.55464086
2162.00 -76.44615115  16.59941187
2164.00 -76.58877264  16.64426015
2166.00 -76.73150438  16.68918577
2168.00 -76.87434629  16.73418877
2170.00 -77.01729832  16.77926920
2172.00 -77.16036043  16.82442712
2174.00 -77.30353254  16.86966258
2176.00 -77.44681462  16.91497563
2178.00 -77.59020660  16.96036632
2180.00 -77.73370842  17.00583470
2182.00 -77.87732004  17.05138083
2184.00 -78.02104139  17.09700475
2186.00 -78.16487243  17.14270652
2188.00 -78.30881309  17.18848619
2190.00 -78.45286333  17.23434381
2192.00 -78.59702307  17.28027943
2194.00 -78.74129228  17.32629310
2196.00 -78.88567090  17.37238487
2198.00 -79.03015886  17.41855480
2200.00 -79.17475611  17.46480294
2202.00 -79.31946261  17.51112933
2204.00 -79.46427828  17.55753402
2206.00 -79.60920309  17.60401708
2208.00 -79.75423696  17.65057854
2210.00 -79.89937985  17.69721847
2212.00 -80.04463170  17.74393690
2214.00 -80.18999245  17.79073390
2216.00 -80.33546206  17.83760951
2218.00 -80.48104045  17.88456378
2220.00 -80.62672758  17.93159676
2222.00 -80.77252339  17.97870851
2224.00 -80.91842783  18.02589907
2226.00 -81.06444083  18.07316849
2228.00 -81.21056235  18.12051683
2230.00 -81.35679232  18.16794413
2232.00 -81.50313070  18.21545045
2234.00 -81.64957742  18.26303583
2236.00 -81.79613243  18.31070033
2238.00 -81.94279568  18.35844400
2240.00 -82.08956710  18.40626688
2242.00 -82.23644664  18.45416902
2244.00 -82.38343424  18.50215048
2246.00 -82.53052985  18.55021131
2248.00 -82.67773342  18.59835155
2250.00 -82.82504488  18.64657126
2252.00 -82.97246418  18.69487048
2254.00 -83.11999127  18.74324927
2256.00 -83.26762608  18.79170767
2258.00 -83.41536856  18.84024573
2260.00 -83.56321866  18.88886351
2262.00 -83.71117631  18.93756105
2264.00 -83.85924147  18.98633840
2266.00 -84.00741407  19.03519561
2268.00 -84.15569406  19.08413274
2270.00 -84.30408138  19.13314982
2272.00 -84.45257597  19.18224692
2274.00 -84.60117779  19.23142407
2276.00 -84.74988677  19.28068133
2278.00 -84.89870285  19.33001875
2280.00 -85.04762598  19.37943638
2282.00 -85.19665611  19.42893426
2284.00 -85.34579317  19.47851244
2286.00 -85.49503711  19.52817098
2288.00 -85.64438787  19.57790992
2290.00 -85.79384540  19.62772931
2292.00 -85.94340963  19.67762920
2294.00 -86.09308052  19.72760963
2296.00 -86.24285800  19.77767067
2298.00 -86.39274202  19.82781235
2300.00 -86.54273252  19.87803472
2302.00 -86.69282945  19.92833784
2304.00 -86.84303274  19.97872175
2306.00 -86.99334234  20.02918650
2308.00 -87.14375819  20.07973213
2310.00 -87.29428025  20.13035871
2312.00 -87.44490844  20.18106626
2314.00 -87.59564271  20.23185485
2316.00 -87.74648301  20.28272452
2318.00 -87.89742927  20.33367532
2320.00 -88.04848145  20.38470730
2322.00 -88.19963947  20.43582050
2324.00 -88.35090330  20.48701498
2326.00 -88.50227286  20.53829077
2328.00 -88.65374811  20.58964794
2330.00 -88.80532898  20.64108652
2332.00 -88.95701541  20.69260657
2334.00 -89.10880736  20.74420812
2336.00 -89.26070475  20.79589124
2338.00 -89.41270755  20.84765597
2340.00 -89.56481568  20.89950235
2342.00 -89.71702909  20.95143044
2344.00 -89.86934772  21.00344027
2346.00 -90.02177151  21.05553191
2348.00 -90.17430042  21.10770538
2350.00 -90.32693437  21.15996075
2352.00 -90.47967332  21.21229806
2354.00 -90.63251720  21.26471736
2356.00 -90.78546595  21.31721869
2358.00 -90.93851953  21.36980211
2360.00 -91.09167787  21.42246765
2362.00 -91.24494091  21.47521536
2364.00 -91.39830860  21.52804530
2366.00 -91.55178088  21.58095751
2368.00 -91.70535768  21.63395204
2370.00 -91.85903896  21.68702892
2372.00 -92.01282466  21.74018822
2374.00 -92.16671471  21.79342998
2376.00 -92.32070906  21.84675423
2378.00 -92.47480766  21.90016104
2380.00 -92.62901043  21.95365045
2382.00 -92.78331734  22.00722249
2384.00 -92.93772830  22.06087723
2386.00 -93.09224328  22.11461470
2388.00 -93.24686221  22.16843496
2390.00 -93.40158504  22.22233804
2392.00 -93.55641170  22.27632400
2394.00 -93.71134213  22.33039288
2396.00 -93.86637629  22.38454473
2398.00 -94.02151411  22.43877959
2400.00 -94.17675553  22.49309751
2402.00 -94.33210049  22.54749854
2404.00 -94.48754894  22.60198272
2406.00 -94.64310082  22.65655010
2408.00 -94.79875607  22.71120072
2410.00 -94.95451463  22.76593463
2412.00 -95.11037644  22.82075187
2414.00 -95.26634145  22.87565250
2416.00 -95.42240960  22.93063655
2418.00 -95.57858082  22.98570408
2420.00 -95.73485506  23.04085512
2422.00 -95.89123227  23.09608973
2424.00 -96.04771238  23.15140795
2426.00 -96.20429533  23.20680982
2428.00 -96.36098107  23.26229539
2430.00 -96.51776953  23.31786470
2432.00 -96.67466067  23.37351781
2434.00 -96.83165441  23.42925475
2436.00 -96.98875071  23.48507557
2438.00 -97.14594950  23.54098032
2440.00 -97.30325073  23.59696904
2442.00 -97.46065433  23.65304178
2444.00 -97.61816024  23.70919857
2446.00 -97.77576842  23.76543948
2448.00 -97.93347880  23.82176453
2450.00 -98.09129132  23.87817378
2452.00 -98.24920591  23.93466727
2454.00 -98.40722254  23.99124505
2456.00 -98.56534113  24.04790716
2458.00 -98.72356162  24.10465364
2460.00 -98.88188396  24.16148454
2462.00 -99.04030809  24.21839990
2464.00 -99.19883395  24.27539977
2466.00 -99.35746148  24.33248420
2468.00 -99.51619062  24.38965322
2470.00 -99.67502131  24.44690689
2472.00 -99.83395349  24.50424524
2474.00 -99.99298711  24.56166832
2476.00 -100.15212211  24.61917617
2478.00 -100.31135842  24.67676884
2480.00 -100.47069599  24.73444638
2482.00 -100.63013475  24.79220882
2484.00 -100.78967466  24.85005621
2486.00 -100.94931564  24.90798860
2488.00 -101.10905765  24.96600602
2490.00 -101.26890062  25.02410853
2492.00 -101.42884449  25.08229616
2494.00 -101.58888920  25.14056897
2496.00 -101.74903470  25.19892698
2498.00 -101.90928092  25.25737026
2500.00 -102.06962780  25.31589883
2502.00 -102.23007529  25.37451275
2504.00 -102.39062333  25.43321205
2506.00 -102.55127186  25.49199679
2508.00 -102.71202081  25.55086700
2510.00 -102.87287013  25.60982273
2512.00 -103.03381976  25.66886402
2514.00 -103.19486964  25.72799092
2516.00 -103.35601971  25.78720346
2518.00 -103.51726992  25.84650169
2520.00 -103.67862019  25.90588566
2522.00 -103.84007047  25.96535540
2524.00 -104.00162071  26.02491096
2526.00 -104.16327084  26.08455239
2528.00 -104.32502080  26.14427972
2530.00 -104.48687053  26.20409299
2532.00 -104.64881998  26.26399226
2534.00 -104.81086908  26.32397757
2536.00 -104.97301778  26.38404895
2538.00 -105.13526601  26.44420645
2540.00 -105.29761371  26.50445011
2542.00 -105.46006083  26.56477997
2544.00 -105.62260731  26.62519609
2546.00 -105.78525308  26.68569849
2548.00 -105.94799809  26.74628722
2550.00 -106.11084227  26.80696233
2552.00 -106.27378557  26.86772385
2554.00 -106.43682793  26.92857183
2556.00 -106.59996928  26.98950631
2558.00 -106.76320957  27.05052734
2560.00 -106.92654874  27.11163495
2562.00 -107.08998672  27.17282918
2564.00 -107.25352346  27.23411009
2566.00 -107.41715889  27.29547770
2568.00 -107.58089297  27.35693207
2570.00 -107.74472562  27.41847323
2572.00 -107.90865678  27.48010123
2574.00 -108.07268641  27.54181610
2576.00 -108.23681443  27.60361790
2578.00 -108.40104078  27.66550665
2580.00 -108.56536542  27.72748241
2582.00 -108.72978827  27.78954521
2584.00 -108.89430927  27.85169510
2586.00 -109.05892837  27.91393212
2588.00 -109.22364551  27.97625630
2590.00 -109.38846063  28.03866769
2592.00 -109.55337365  28.10116634
2594.00 -109.71838454  28.16375227
2596.00 -109.88349322  28.22642554
2598.00 -110.04869963  28.28918619
2600.00 -110.21400372  28.35203424
2602.00 -110.37940542  28.41496976
2604.00 -110.54490468  28.47799277
2606.00 -110.71050143  28.54110332
2608.00 -110.87619561  28.60430145
2610.00 -111.04198716  28.66758720
2612.00 -111.20787603  28.73096062
2614.00 -111.37386215  28.79442173
2616.00 -111.53994546  28.85797058
2618.00 -111.70612590  28.92160722
2620.00 -111.87240341  28.98533168
2622.00 -112.03877793  29.04914400
2624.00 -112.20524940  29.11304423
2626.00 -112.37181776  29.17703241
2628.00 -112.53848295  29.24110856
2630.00 -112.70524491  29.30527275
2632.00 -112.87210357  29.36952499
2634.00 -113.03905888  29.43386535
2636.00 -113.20611077  29.49829385
2638.00 -113.37325919  29.56281053
2640.00 -113.54050408  29.62741544
2642.00 -113.70784537  29.69210862
2644.00 -113.87528300  29.75689010
2646.00 -114.04281691  29.82175993
2648.00 -114.21044705  29.88671815
2650.00 -114.37817334  29.95176479
2652.00 -114.54599574  30.01689989
2654.00 -114.71391418  30.08212350
2656.00 -114.88192859  30.14743566
2658.00 -115.05003893  30.21283639
2660.00 -115.21824512  30.27832575
2662.00 -115.38654710  30.34390378
2664.00 -115.55494482  30.40957050
2666.00 -115.72343822  30.47532597
2668.00 -115.89202723  30.54117022
2670.00 -116.06071179  30.60710329
2672.00 -116.22949184  30.67312522
2674.00 -116.39836733  30.73923605
2676.00 -116.56733818  30.80543582
2678.00 -116.73640434  30.87172456
2680.00 -116.90556575  30.93810232
2682.00 -117.07482235  31.00456913
2684.00 -117.24417407  31.07112504
2686.00 -117.41362086  31.13777008
2688.00 -117.58316265  31.20450429
2690.00 -117.75279938  31.27132771
2692.00 -117.92253099  31.33824038
2694.00 -118.09235743  31.40524234
2696.00 -118.26227862  31.47233363
2698.00 -118.43229451  31.53951428
2700.00 -118.60240504  31.60678433
2702.00 -118.77261014  31.67414383
2704.00 -118.94290975  31.74159280
2706.00 -119.11330382  31.80913130
2708.00 -119.28379229  31.87675935
2710.00 -119.45437508  31.94447700
2712.00 -119.62505214  32.01228428
2714.00 -119.79582341  32.08018123
2716.00 -119.96668882  32.14816789
2718.00 -120.13764832  32.21624430
2720.00 -120.30870185  32.28441049
2722.00 -120.47984934  32.35266651
2724.00 -120.65109073  32.42101239
2726.00 -120.82242596  32.48944817
2728.00 -120.99385496  32.55797389
2730.00 -121.16537769  32.62658958
2732.00 -121.33699407  32.69529528
2734.00 -121.50870404  32.76409104
2736.00 -121.68050755  32.83297688
2738.00 -121.85240453  32.90195285
2740.00 -122.02439492  32.97101898
2742.00 -122.19647865  33.04017531
2744.00 -122.36865568  33.10942188
2746.00 -122.54092593  33.17875872
2748.00 -122.71328934  33.24818588
2750.00 -122.88574585  33.31770338
2752.00 -123.05829541  33.38731128
2754.00 -123.23093794  33.45700959
2756.00 -123.40367339  33.52679837
2758.00 -123.57650170  33.59667765
2760.00 -123.74942280  33.66664746
2762.00 -123.92243664  33.73670784
2764.00 -124.09554314  33.80685883
2766.00 -124.26874225  33.87710047
2768.00 -124.44203391  33.94743279
2770.00 -124.61541806  34.01785583
2772.00 -124.78889463  34.08836962
2774.00 -124.96246356  34.15897421
2776.00 -125.13612480  34.22966963
2778.00 -125.30987827  34.30045591
2780.00 -125.48372392  34.37133309
2782.00 -125.65766168  34.44230121
2784.00 -125.83169150  34.51336031
2786.00 -126.00581330  34.58451042
2788.00 -126.18002704  34.65575157
2790.00 -126.35433265  34.72708381
2792.00 -126.52873006  34.79850717
2794.00 -126.70321921  34.87002169
2796.00 -126.87780005  34.94162740
2798.00 -127.05247251  35.01332433
2800.00 -127.22723652  35.08511253
2802.00 -127.40209203  35.15699203
2804.00 -127.57703898  35.22896286
2806.00 -127.75207730  35.30102507
2808.00 -127.92720693  35.37317868
2810.00 -128.10242780  35.44542374
2812.00 -128.27773987  35.51776028
2814.00 -128.45314305  35.59018833
2816.00 -128.62863730  35.66270792
2818.00 -128.80422255  35.73531911
2820.00 -128.97989874  35.80802191
2822.00 -129.15566581  35.88081638
2824.00 -129.33152369  35.95370253
2826.00 -129.50747232  36.02668041
2828.00 -129.68351164  36.09975005
2830.00 -129.85964158  36.17291149
2832.00 -130.03586210  36.24616476
2834.00 -130.21217311  36.31950990
2836.00 -130.38857457  36.39294694
2838.00 -130.56506641  36.46647592
2840.00 -130.74164856  36.54009687
2842.00 -130.91832097  36.61380983
2844.00 -131.09508357  36.68761483
2846.00 -131.27193630  36.76151191
2848.00 -131.44887910  36.83550110
2850.00 -131.62591190  36.90958244
2852.00 -131.80303465  36.98375595
2854.00 -131.98024728  37.05802169
2856.00 -132.15754973  37.13237967
2858.00 -132.33494193  37.20682994
2860.00 -132.51242383  37.28137252
2862.00 -132.68999536  37.35600746
2864.00 -132.86765646  37.43073479
2866.00 -133.04540706  37.50555454
2868.00 -133.22324712  37.58046675
2870.00 -133.40117655  37.65547145
2872.00 -133.57919530  37.73056867
2874.00 -133.75730331  37.80575845
2876.00 -133.93550052  37.88104082
2878.00 -134.11378686  37.95641582
2880.00 -134.29216227  38.03188348
2882.00 -134.47062668  38.10744383
2884.00 -134.64918005  38.18309691
2886.00 -134.82782229  38.25884276
2888.00 -135.00655336  38.33468140
2890.00 -135.18537318  38.41061287
2892.00 -135.36428170  38.48663720
2894.00 -135.54327885  38.56275443
2896.00 -135.72236457  38.63896459
2898.00 -135.90153880  38.71526771
2900.00 -136.08080148  38.79166383
2902.00 -136.26015254  38.86815298
2904.00 -136.43959191  38.94473519
2906.00 -136.61911955  39.02141050
2908.00 -136.79873538  39.09817894
2910.00 -136.97843934  39.17504055
2912.00 -137.15823137  39.25199535
2914.00 -137.33811141  39.32904338
2916.00 -137.51807939  39.40618467
2918.00 -137.69813526  39.48341926
2920.00 -137.87827894  39.56074717
2922.00 -138.05851038  39.63816845
2924.00 -138.23882951  39.71568312
2926.00 -138.41923628  39.79329121
2928.00 -138.59973061  39.87099277
2930.00 -138.78031245  39.94878782
2932.00 -138.96098173  40.02667639
2934.00 -139.14173839  40.10465852
2936.00 -139.32258237  40.18273424
2938.00 -139.50351360  40.26090358
2940.00 -139.68453202  40.33916658
2942.00 -139.86563758  40.41752326
2944.00 -140.04683020  40.49597366
2946.00 -140.22810982  40.57451781
2948.00 -140.40947638  40.65315575
2950.00 -140.59092982  40.73188750
2952.00 -140.77247008  40.81071310
2954.00 -140.95409708  40.88963258
2956.00 -141.13581078  40.96864597
2958.00 -141.31761110  41.04775331
2960.00 -141.49949799  41.12695462
2962.00 -141.68147137  41.20624994
2964.00 -141.86353120  41.28563929
2966.00 -142.04567739  41.36512272
2968.00 -142.22790990  41.44470025
2970.00 -142.41022866  41.52437192
2972.00 -142.59263361  41.60413775
2974.00 -142.77512467  41.68399777
2976.00 -142.95770180  41.76395203
2978.00 -143.14036493  41.84400055
2980.00 -143.32311398  41.92414336
2982.00 -143.50594891  42.00438049
2984.00 -143.68886965  42.08471197
2986.00 -143.87187613  42.16513784
2988.00 -144.05496830  42.24565813
2990.00 -144.23814608  42.32627286
2992.00 -144.42140942  42.40698208
2994.00 -144.60475825  42.48778580
2996.00 -144.78819251  42.56868406
2998.00 -144.97171214  42.64967690
3000.00 -145.15531707  42.73076434
3002.00 -145.33900724  42.81194641
3004.00 -145.52278259  42.89322314
3006.00 -145.70664306  42.97459457
3008.00 -145.89058857  43.05606073
3010.00 -146.07461908  43.13762164
3012.00 -146.25873451  43.21927734
3014.00 -146.44293480  43.30102786
3016.00 -146.62721989  43.38287322
3018.00 -146.81158971  43.46481346
3020.00 -146.99604421  43.54684861
3022.00 -147.18058332  43.62897870
3024.00 -147.36520697  43.71120375
3026.00 -147.54991510  43.79352381
3028.00 -147.73470766  43.87593889
3030.00 -147.91958457  43.95844904
3032.00 -148.10454578  44.04105427
3034.00 -148.28959121  44.12375462
3036.00 -148.47472082  44.20655013
3038.00 -148.65993452  44.28944081
3040.00 -148.84523227  44.37242670
3042.00 -149.03061399  44.45550783
3044.00 -149.21607963  44.53868423
3046.00 -149.40162912  44.62195592
3048.00 -149.58726240  44.70532295
3050.00 -149.77297940  44.78878533
3052.00 -149.95878006  44.87234310
3054.00 -150.14466432  44.95599629
3056.00 -150.33063211  45.03974492
3058.00 -150.51668337  45.12358903
3060.00 -150.70281804  45.20752864
3062.00 -150.88903606  45.29156379
3064.00 -151.07533735  45.37569450
3066.00 -151.26172187  45.45992080
3068.00 -151.44818953  45.54424272
3070.00 -151.63474029  45.62866030
3072.00 -151.82137408  45.71317355
3074.00 -152.00809083  45.79778252
3076.00 -152.19489048  45.88248722
3078.00 -152.38177297  45.96728769
3080.00 -152.56873823  46.05218395
3082.00 -152.75578620  46.13717604
3084.00 -152.94291682  46.22226398
3086.00 -153.13013002  46.30744780
3088.00 -153.31742575  46.39272753
3090.00 -153.50480393  46.47810320
3092.00 -153.69226450  46.56357484
3094.00 -153.87980741  46.64914248
3096.00 -154.06743258  46.73480614
3098.00 -154.25513995  46.82056585
3100.00 -154.44292946  46.90642164
3102.00 -154.63080105  46.99237354
3104.00 -154.81875465  47.07842158
3106.00 -155.00679020  47.16456579
3108.00 -155.19490764  47.25080619
3110.00 -155.38310690  47.33714281
3112.00 -155.57138792  47.42357568
3114.00 -155.75975063  47.51010483
3116.00 -155.94819497  47.59673028
3118.00 -156.13672089  47.68345207
3120.00 -156.32532830  47.77027022
3122.00 -156.51401716  47.85718476
3124.00 -156.70278740  47.94419572
3126.00 -156.89163895  48.03130312
3128.00 -157.08057175  48.11850699
3130.00 -157.26958573  48.20580737
3132.00 -157.45868084  48.29320427
3134.00 -157.64785701  48.38069772
3136.00 -157.83711418  48.46828776
3138.00 -158.02645227  48.55597441
3140.00 -158.21587124  48.64375770
3142.00 -158.40537101  48.73163765
3144.00 -158.59495153  48.81961429
3146.00 -158.78461272  48.90768765
3148.00 -158.97435453  48.99585775
3150.00 -159.16417689  49.08412463
3152.00 -159.35407973  49.17248831
3154.00 -159.54406300  49.26094882
3156.00 -159.73412663  49.34950618
3158.00 -159.92427055  49.43816042
3160.00 -160.11449471  49.52691156
3162.00 -160.30479904  49.61575965
3164.00 -160.49518347  49.70470469
3166.00 -160.68564794  49.79374672
3168.00 -160.87619240  49.88288576
3170.00 -161.06681676  49.97212185
3172.00 -161.25752098  50.06145500
3174.00 -161.44830499  50.15088525
3176.00 -161.63916871  50.24041262
3178.00 -161.83011210  50.33003713
3180.00 -162.02113508  50.41975882
3182.00 -162.21223760  50.50957771
3184.00 -162.40341959  50.59949382
3186.00 -162.59468097  50.68950718
3188.00 -162.78602171  50.77961782
3190.00 -162.97744171  50.86982577
3192.00 -163.16894093  50.96013104
3194.00 -163.36051931  51.05053367
3196.00 -163.55217676  51.14103368
3198.00 -163.74391324  51.23163110
3200.00 -163.93572868  51.32232595
3202.00 -164.12762302  51.41311827
3204.00 -164.31959618  51.50400806
3206.00 -164.51164812  51.59499537
3208.00 -164.70377875  51.68608021
3210.00 -164.89598803  51.77726262
3212.00 -165.08827588  51.86854261
3214.00 -165.28064225  51.95992022
3216.00 -165.47308706  52.05139546
3218.00 -165.66561026  52.14296837
3220.00 -165.85821178  52.23463896
3222.00 -166.05089156  52.32640727
3224.00 -166.24364953  52.41827332
3226.00 -166.43648563  52.51023713
3228.00 -166.62939980  52.60229874
3230.00 -166.82239197  52.69445815
3232.00 -167.01546207  52.78671541
3234.00 -167.20861005  52.87907053
3236.00 -167.40183585  52.97152354
3238.00 -167.59513939  53.06407447
3240.00 -167.78852061  53.15672333
3242.00 -167.98197945  53.24947016
3244.00 -168.17551585  53.34231498
3246.00 -168.36912973  53.43525781
3248.00 -168.56282105  53.52829868
3250.00 -168.75658973  53.62143761
3252.00 -168.95043571  53.71467463
3254.00 -169.14435893  53.80800976
3256.00 -169.33835931  53.90144302
3258.00 -169.53243681  53.99497445
3260.00 -169.72659135  54.08860406
3262.00 -169.92082287  54.18233188
3264.00 -170.11513131  54.27615793
3266.00 -170.30951660  54.37008224
3268.00 -170.50397869  54.46410483
3270.00 -170.69851749  54.55822572
3272.00 -170.89313296  54.65244495
3274.00 -171.08782503  54.74676253
3276.00 -171.28259363  54.84117849
3278.00 -171.47743869  54.93569284
3280.00 -171.67236017  55.03030563
3282.00 -171.86735799  55.12501686
3284.00 -172.06243208  55.21982656
3286.00 -172.25758239  55.31473476
3288.00 -172.45280885  55.40974148
3290.00 -172.64811140  55.50484675
3292.00 -172.84348996  55.60005058
3294.00 -173.03894449  55.69535300
3296.00 -173.23447491  55.79075403
3298.00 -173.43008117  55.88625371
3300.00 -173.62576319  55.98185204
3302.00 -173.82152091  56.07754905
3304.00 -174.01735427  56.17334478
3306.00 -174.21326321  56.26923923
3308.00 -174.40924765  56.36523244
3310.00 -174.60530755  56.46132442
3312.00 -174.80144283  56.55751520
3314.00 -174.99765343  56.65380481
3316.00 -175.19393928  56.75019326
3318.00 -175.39030033  56.84668058
3320.00 -175.58673650  56.94326679
3322.00 -175.78324774  57.03995191
3324.00 -175.97983397  57.13673597
3326.00 -176.17649515  57.23361899
3328.00 -176.37323119  57.33060099
3330.00 -176.57004204  57.42768200
3332.00 -176.76692764  57.52486203
3334.00 -176.96388792  57.62214111
3336.00 -177.16092281  57.71951927
3338.00 -177.35803226  57.81699651
3340.00 -177.55521619  57.91457288
3342.00 -177.75247455  58.01224838
3344.00 -177.94980727  58.11002305
3346.00 -178.14721428  58.20789690
3348.00 -178.34469553  58.30586995
3350.00 -178.54225095  58.40394223
3352.00 -178.73988047  58.50211376
3354.00 -178.93758403  58.60038456
3356.00 -179.13536157  58.69875466
3358.00 -179.33321302  58.79722407
3360.00 -179.53113832  58.89579282
3362.00 -179.72913740  58.99446093
3364.00 -179.92721021  59.09322842
3366.00 -180.12535667  59.19209531
3368.00 -180.32357673  59.29106162
3370.00 -180.52187031  59.39012738
3372.00 -180.72023736  59.48929261
3374.00 -180.91867781  59.58855733
3376.00 -181.11719160  59.68792156
3378.00 -181.31577866  59.78738532
3380.00 -181.51443893  59.88694863
3382.00 -181.71317234  59.98661151
3384.00 -181.91197884  60.08637400
3386.00 -182.11085835  60.18623609
3388.00 -182.30981082  60.28619783
3390.00 -182.50883618  60.38625923
3392.00 -182.70793436  60.48642030
3394.00 -182.90710530  60.58668108
3396.00 -183.10634894  60.68704158
3398.00 -183.30566522  60.78750182
3400.00 -183.50505406  60.88806182
3402.00 -183.70451541  60.98872161
3404.00 -183.90404920  61.08948121
3406.00 -184.10365537  61.19034063
3408.00 -184.30333385  61.29129990
3410.00 -184.50308459  61.39235904
3412.00 -184.70290750  61.49351806
3414.00 -184.90280254  61.59477699
3416.00 -185.10276964  61.69613585
3418.00 -185.30280873  61.79759466
3420.00 -185.50291975  61.89915344
3422.00 -185.70310264  62.00081221
3424.00 -185.90335733  62.10257100
3426.00 -186.10368376  62.20442981
3428.00 -186.30408186  62.30638867
3430.00 -186.50455157  62.40844760
3432.00 -186.70509283  62.51060663
3434.00 -186.90570557  62.61286576
3436.00 -187.10638972  62.71522503
3438.00 -187.30714524  62.81768444
3440.00 -187.50797204  62.92024403
3442.00 -187.70887007  63.02290381
3444.00 -187.90983926  63.12566380
3446.00 -188.11087955  63.22852402
3448.00 -188.31199087  63.33148449
3450.00 -188.51317317  63.43454523
3452.00 -188.71442637  63.53770625
3454.00 -188.91575041  63.64096759
3456.00 -189.11714523  63.74432925
3458.00 -189.31861077  63.84779127
3460.00 -189.52014695  63.95135364
3462.00 -189.72175373  64.05501641
3464.00 -189.92343103  64.15877958
3466.00 -190.12517878  64.26264318
3468.00 -190.32699693  64.36660722
3470.00 -190.52888541  64.47067172
3472.00 -190.73084416  64.57483671
3474.00 -190.93287312  64.67910219
3476.00 -191.13497221  64.78346820
3478.00 -191.33714137  64.88793475
3480.00 -191.53938055  64.99250185
3482.00 -191.74168968  65.09716953
3484.00 -191.94406868  65.20193781
3486.00 -192.14651751  65.30680671
3488.00 -192.34903610  65.41177623
3490.00 -192.55162437  65.51684641
3492.00 -192.75428227  65.62201726
3494.00 -192.95700974  65.72728880
3496.00 -193.15980671  65.83266105
3498.00 -193.36267311  65.93813402
3500.00 -193.56560888  66.04370774
3502.00 -193.76861397  66.14938222
3504.00 -193.97168829  66.25515749
3506.00 -194.17483180  66.36103355
3508.00 -194.37804443  66.46701043
3510.00 -194.58132610  66.57308815
3512.00 -194.78467677  66.67926672
3514.00 -194.98809636  66.78554617
3516.00 -195.19158481  66.89192650
3518.00 -195.39514205  66.99840774
3520.00 -195.59876803  67.10498991
3522.00 -195.80246268  67.21167303
3524.00 -196.00622594  67.31845711
3526.00 -196.21005773  67.42534216
3528.00 -196.41395801  67.53232822
3530.00 -196.61792669  67.63941529
3532.00 -196.82196373  67.74660339
3534.00 -197.02606905  67.85389255
3536.00 -197.23024260  67.96128277
3538.00 -197.43448430  68.06877408
3540.00 -197.63879410  68.17636649
3542.00 -197.84317192  68.28406003
3544.00 -198.04761772  68.39185470
3546.00 -198.25213141  68.49975053
3548.00 -198.45671295  68.60774753
3550.00 -198.66136226  68.71584572
3552.00 -198.86607928  68.82404511
3554.00 -199.07086395  68.93234574
3556.00 -199.27571620  69.04074760
3558.00 -199.48063597  69.14925072
3560.00 -199.68562319  69.25785512
3562.00 -199.89067781  69.36656081
3564.00 -200.09579976  69.47536781
3566.00 -200.30098897  69.58427613
3568.00 -200.50624538  69.69328580
3570.00 -200.71156893  69.80239683
3572.00 -200.91695955  69.91160924
3574.00 -201.12241717  70.02092303
3576.00 -201.32794175  70.13033824
3578.00 -201.53353320  70.23985488
3580.00 -201.73919148  70.34947295
3582.00 -201.94491650  70.45919249
3584.00 -202.15070822  70.56901350
3586.00 -202.35656656  70.67893601
3588.00 -202.56249146  70.78896002
3590.00 -202.76848287  70.89908556
3592.00 -202.97454070  71.00931263
3594.00 -203.18066491  71.11964127
3596.00 -203.38685543  71.23007148
3598.00 -203.59311219  71.34060328
3600.00 -203.79943513  71.45123668
3602.00 -204.00582418  71.56197171
3604.00 -204.21227929  71.67280837
3606.00 -204.41880038  71.78374669
3608.00 -204.62538740  71.89478667
3610.00 -204.83204028  72.00592834
3612.00 -205.03875896  72.11717171
3614.00 -205.24554337  72.22851680
3616.00 -205.45239345  72.33996362
3618.00 -205.65930914  72.45151219
3620.00 -205.86629037  72.56316252
3622.00 -206.07333707  72.67491463
3624.00 -206.28044920  72.78676853
3626.00 -206.48762667  72.89872424
3628.00 -206.69486943  73.01078178
3630.00 -206.90217741  73.12294116
3632.00 -207.10955056  73.23520239
3634.00 -207.31698880  73.34756550
3636.00 -207.52449207  73.46003049
3638.00 -207.73206031  73.57259738
3640.00 -207.93969346  73.68526619
3642.00 -208.14739145  73.79803693
3644.00 -208.35515421  73.91090962
3646.00 -208.56298169  74.02388427
3648.00 -208.77087382  74.13696090
3650.00 -208.97883054  74.25013951
3652.00 -209.18685178  74.36342013
3654.00 -209.39493748  74.47680278
3656.00 -209.60308758  74.59028746
3658.00 -209.81130201  74.70387419
3660.00 -210.01958070  74.81756298
3662.00 -210.22792361  74.93135385
3664.00 -210.43633065  75.04524682
3666.00 -210.64480177  75.15924190
3668.00 -210.85333691  75.27333909
3670.00 -211.06193599  75.38753843
3672.00 -211.27059897  75.50183992
3674.00 -211.47932577  75.61624357
3676.00 -211.68811632  75.73074940
3678.00 -211.89697058  75.84535743
3680.00 -212.10588846  75.96006767
3682.00 -212.31486992  76.07488013
3684.00 -212.52391488  76.18979482
3686.00 -212.73302328  76.30481177
3688.00 -212.94219506  76.41993098
3690.00 -213.15143016  76.53515247
3692.00 -213.36072850  76.65047626
3694.00 -213.57009004  76.76590235
3696.00 -213.77951470  76.88143076
3698.00 -213.98900242  76.99706150
3700.00 -214.19855314  77.11279459
3702.00 -214.40816679  77.22863004
3704.00 -214.61784331  77.34456787
3706.00 -214.82758264  77.46060809
3708.00 -215.03738471  77.57675070
3710.00 -215.24724946  77.69299574
3712.00 -215.45717683  77.80934320
3714.00 -215.66716675  77.92579310
3716.00 -215.87721916  78.04234546
3718.00 -216.08733399  78.15900029
3720.00 -216.29751119  78.27575760
3722.00 -216.50775069  78.39261741
3724.00 -216.71805242  78.50957973
3726.00 -216.92841633  78.62664456
3728.00 -217.13884234  78.74381193
3730.00 -217.34933040  78.86108185
3732.00 -217.55988044  78.97845433
3734.00 -217.77049240  79.09592938
3736.00 -217.98116621  79.21350702
3738.00 -218.19190182  79.33118726
3740.00 -218.40269915  79.44897011
3742.00 -218.61355815  79.56685558
3744.00 -218.82447875  79.68484370
3746.00 -219.03546089  79.80293446
3748.00 -219.24650450  79.92112788
3750.00 -219.45760952  80.03942398
3752.00 -219.66877589  80.15782277
3754.00 -219.88000355  80.27632425
3756.00 -220.09129243  80.39492845
3758.00 -220.30264247  80.51363538
3760.00 -220.51405360  80.63244504
3762.00 -220.72552576  80.75135745
3764.00 -220.93705889  80.87037262
3766.00 -221.14865292  80.98949057
3768.00 -221.36030780  81.10871130
3770.00 -221.57202346  81.22803483
3772.00 -221.78379983  81.34746117
3774.00 -221.99563685  81.46699033
3776.00 -222.20753446  81.58662233
3778.00 -222.41949259  81.70635717
3780.00 -222.63151119  81.82619487
3782.00 -222.84359018  81.94613544
3784.00 -223.05572951  82.06617889
3786.00 -223.26792912  82.18632523
3788.00 -223.48018893  82.30657448
3790.00 -223.69250889  82.42692664
3792.00 -223.90488893  82.54738174
3794.00 -224.11732899  82.66793977
3796.00 -224.32982900  82.78860075
3798.00 -224.54238891  82.90936470
3800.00 -224.75500865  83.03023161
3802.00 -224.96768815  83.15120152
3804.00 -225.18042736  83.27227442
3806.00 -225.39322621  83.39345033
3808.00 -225.60608464  83.51472925
3810.00 -225.81900258  83.63611121
3812.00 -226.03197997  83.75759621
3814.00 -226.24501674  83.87918426
3816.00 -226.45811285  84.00087537
3818.00 -226.67126821  84.12266956
3820.00 -226.88448278  84.24456684
3822.00 -227.09775647  84.36656721
3824.00 -227.31108925  84.48867068
3826.00 -227.52448103  84.61087728
3828.00 -227.73793175  84.73318700
3830.00 -227.95144136  84.85559986
3832.00 -228.16500979  84.97811587
3834.00 -228.37863698  85.10073505
3836.00 -228.59232286  85.22345739
3838.00 -228.80606737  85.34628292
3840.00 -229.01987045  85.46921164
3842.00 -229.23373204  85.59224356
3844.00 -229.44765206  85.71537869
3846.00 -229.66163047  85.83861705
3848.00 -229.87566719  85.96195864
3850.00 -230.08976217  86.08540348
3852.00 -230.30391533  86.20895157
3854.00 -230.51812662  86.33260292
3856.00 -230.73239598  86.45635755
3858.00 -230.94672334  86.58021546
3860.00 -231.16110863  86.70417667
3862.00 -231.37555180  86.82824118
3864.00 -231.59005279  86.95240901
3866.00 -231.80461152  87.07668016
3868.00 -232.01922794  87.20105465
3870.00 -232.23390199  87.32553248
3872.00 -232.44863359  87.45011367
3874.00 -232.66342270  87.57479822
3876.00 -232.87826924  87.69958614
3878.00 -233.09317315  87.82447744
3880.00 -233.30813437  87.94947214
3882.00 -233.52315284  88.07457024
3884.00 -233.73822849  88.19977175
3886.00 -233.95336126  88.32507669
3888.00 -234.16855109  88.45048505
3890.00 -234.38379792  88.57599686
3892.00 -234.59910168  88.70161211
3894.00 -234.81446231  88.82733082
3896.00 -235.02987975  88.95315300
3898.00 -235.24535393  89.07907866
3900.00 -235.46088479  89.20510780
3902.00 -235.67647227  89.33124044
3904.00 -235.89211631  89.45747658
3906.00 -236.10781684  89.58381624
3908.00 -236.32357381  89.71025942
3910.00 -236.53938714  89.83680613
3912.00 -236.75525678  89.96345638
3914.00 -236.97118266  90.09021018
3916.00 -237.18716472  90.21706754
3918.00 -237.40320289  90.34402846
3920.00 -237.61929713  90.47109296
3922.00 -237.83544735  90.59826104
3924.00 -238.05165351  90.72553272
3926.00 -238.26791553  90.85290800
3928.00 -238.48423335  90.98038689
3930.00 -238.70060692  91.10796939
3932.00 -238.91703617  91.23565552
3934.00 -239.13352103  91.36344529
3936.00 -239.35006145  91.49133870
3938.00 -239.56665736  91.61933576
3940.00 -239.78330870  91.74743648
3942.00 -240.00001541  91.87564088
3944.00 -240.21677742  92.00394894
3946.00 -240.43359467  92.13236069
3948.00 -240.65046710  92.26087614
3950.00 -240.86739464  92.38949528
3952.00 -241.08437724  92.51821814
3954.00 -241.30141484  92.64704471
3956.00 -241.51850736  92.77597500
3958.00 -241.73565474  92.90500903
3960.00 -241.95285694  93.03414679
3962.00 -242.17011387  93.16338831
3964.00 -242.38742548  93.29273358
3966.00 -242.60479171  93.42218262
3968.00 -242.82221250  93.55173542
3970.00 -243.03968777  93.68139201
3972.00 -243.25721748  93.81115238
3974.00 -243.47480155  93.94101654
3976.00 -243.69243993  94.07098451
3978.00 -243.91013255  94.20105628
3980.00 -244.12787935  94.33123188
3982.00 -244.34568027  94.46151129
3984.00 -244.56353525  94.59189454
3986.00 -244.78144422  94.72238162
3988.00 -244.99940712  94.85297255
3990.00 -245.21742389  94.98366733
3992.00 -245.43549446  95.11446597
3994.00 -245.65361879  95.24536848
3996.00 -245.87179679  95.37637486
3998.00 -246.09002841  95.50748512
4000.00 -246.30831359  95.63869927
4002.00 -246.52665227  95.77001732
4004.00 -246.74504437  95.90143927
4006.00 -246.96348985  96.03296512
4008.00 -247.18198864  96.16459489
4010.00 -247.40054068  96.29632858
4012.00 -247.61914590  96.42816620
4014.00 -247.83780424  96.56010776
4016.00 -248.05651564  96.69215326
4018.00 -248.27528004  96.82430270
4020.00 -248.49409738  96.95655610
4022.00 -248.71296759  97.08891347
4024.00 -248.93189062  97.22137480
4026.00 -249.15086639  97.35394010
4028.00 -249.36989485  97.48660939
4030.00 -249.58897594  97.61938266
4032.00 -249.80810959  97.75225992
4034.00 -250.02729574  97.88524119
4036.00 -250.24653433  98.01832646
4038.00 -250.46582530  98.15151574
4040.00 -250.68516858  98.28480904
4042.00 -250.90456412  98.41820637
4044.00 -251.12401185  98.55170772
4046.00 -251.34351171  98.68531311
4048.00 -251.56306364  98.81902254
4050.00 -251.78266757  98.95283602
4052.00 -252.00232345  99.08675355
4054.00 -252.22203121  99.22077515
4056.00 -252.44179079  99.35490080
4058.00 -252.66160213  99.48913053
4060.00 -252.88146516  99.62346434
4062.00 -253.10137983  99.75790223
4064.00 -253.32134607  99.89244420
4066.00 -253.54136383 100.02709027
4068.00 -253.76143303 100.16184044
4070.00 -253.98155362 100.29669471
4072.00 -254.20172553 100.43165309
4074.00 -254.42194871 100.56671558
4076.00 -254.64222309 100.70188220
4078.00 -254.86254861 100.83715294
4080.00 -255.08292521 100.97252781
4082.00 -255.30335282 101.10800682
4084.00 -255.52383139 101.24358997
4086.00 -255.74436086 101.37927727
4088.00 -255.96494115 101.51506872
4090.00 -256.18557222 101.65096432
4092.00 -256.40625399 101.78696409
4094.00 -256.62698641 101.92306802
4096.00 -256.84776942 102.05927613
4098.00 -257.06860294 102.19558841
4100.00 -257.28948693 102.33200487
4102.00 -257.51042132 102.46852552
4104.00 -257.73140605 102.60515035
4106.00 -257.95244105 102.74187939
4108.00 -258.17352627 102.87871262
4110.00 -258.39466165 103.01565006
4112.00 -258.61584711 103.15269170
4114.00 -258.83708261 103.28983756
4116.00 -259.05836807 103.42708764
4118.00 -259.27970345 103.56444194
4120.00 -259.50108867 103.70190047
4122.00 -259.72252367 103.83946323
4124.00 -259.94400840 103.97713023
4126.00 -260.16554279 104.11490146
4128.00 -260.38712678 104.25277694
4130.00 -260.60876030 104.39075667
4132.00 -260.83044331 104.52884065
4134.00 -261.05217573 104.66702888
4136.00 -261.27395751 104.80532138
4138.00 -261.49578858 104.94371814
4140.00 -261.71766888 105.08221918
4142.00 -261.93959835 105.22082448
4144.00 -262.16157693 105.35953406
4146.00 -262.38360456 105.49834792
4148.00 -262.60568118 105.63726607
4150.00 -262.82780672 105.77628850
4152.00 -263.04998112 105.91541523
4154.00 -263.27220433 106.05464625
4156.00 -263.49447628 106.19398157
4158.00 -263.71679691 106.33342119
4160.00 -263.93916616 106.47296512
4162.00 -264.16158396 106.61261336
4164.00 -264.38405027 106.75236591
4166.00 -264.60656501 106.89222278
4168.00 -264.82912812 107.03218397
4170.00 -265.05173955 107.17224948
4172.00 -265.27439923 107.31241932
4174.00 -265.49710710 107.45269349
4176.00 -265.71986310 107.59307199
4178.00 -265.94266716 107.73355483
4180.00 -266.16551924 107.87414201
4182.00 -266.38841926 108.01483354
4184.00 -266.61136717 108.15562941
4186.00 -266.83436290 108.29652962
4188.00 -267.05740640 108.43753419
4190.00 -267.28049760 108.57864312
4192.00 -267.50363644 108.71985640
4194.00 -267.72682286 108.86117405
4196.00 -267.95005679 109.00259605
4198.00 -268.17333819 109.14412243
4200.00 -268.39666699 109.28575317
4202.00 -268.62004312 109.42748828
4204.00 -268.84346653 109.56932777
4206.00 -269.06693715 109.71127164
4208.00 -269.29045493 109.85331989
4210.00 -269.51401980 109.99547252
4212.00 -269.73763170 110.13772953
4214.00 -269.96129057 110.28009093
4216.00 -270.18499636 110.42255672
4218.00 -270.40874899 110.56512690
4220.00 -270.63254841 110.70780148
4222.00 -270.85639456 110.85058046
4224.00 -271.08028738 110.99346383
4226.00 -271.30422680 111.13645160
4228.00 -271.52821277 111.27954378
4230.00 -271.75224523 111.42274036
4232.00 -271.97632411 111.56604135
4234.00 -272.20044935 111.70944675
4236.00 -272.42462090 111.85295657
4238.00 -272.64883869 111.99657079
4240.00 -272.87310266 112.14028943
4242.00 -273.09741275 112.28411249
4244.00 -273.32176891 112.42803997
4246.00 -273.54617106 112.57207187
4248.00 -273.77061915 112.71620819
4250.00 -273.99511312 112.86044894
4252.00 -274.21965291 113.00479412
4254.00 -274.44423845 113.14924372
4256.00 -274.66886970 113.29379775
4258.00 -274.89354658 113.43845621
4260.00 -275.11826903 113.58321911
4262.00 -275.34303700 113.72808644
4264.00 -275.56785043 113.87305820
4266.00 -275.79270925 114.01813441
4268.00 -276.01761341 114.16331505
4270.00 -276.24256283 114.30860013
4272.00 -276.46755748 114.45398965
4274.00 -276.69259727 114.59948362
4276.00 -276.91768216 114.74508203
4278.00 -277.14281208 114.89078488
4280.00 -277.36798697 115.03659218
4282.00 -277.59320678 115.18250393
4284.00 -277.81847143 115.32852013
4286.00 -278.04378088 115.47464077
4288.00 -278.26913505 115.62086586
4290.00 -278.49453390 115.76719541
4292.00 -278.71997735 115.91362941
4294.00 -278.94546536 116.06016786
4296.00 -279.17099786 116.20681076
4298.00 -279.39657478 116.35355812
4300.00 -279.62219608 116.50040993
4302.00 -279.84786168 116.64736620
4304.00 -280.07357153 116.79442693
4306.00 -280.29932558 116.94159211
4308.00 -280.52512375 117.08886175
4310.00 -280.75096598 117.23623585
4312.00 -280.97685223 117.38371441
4314.00 -281.20278243 117.53129743
4316.00 -281.42875651 117.67898491
4318.00 -281.65477442 117.82677684
4320.00 -281.88083610 117.97467324
4322.00 -282.10694149 118.12267410
4324.00 -282.33309053 118.27077942
4326.00 -282.55928315 118.41898920
4328.00 -282.78551930 118.56730344
4330.00 -283.01179892 118.71572214
4332.00 -283.23812195 118.86424531
4334.00 -283.46448833 119.01287294
4336.00 -283.69089799 119.16160502
4338.00 -283.91735089 119.31044157
4340.00 -284.14384695 119.45938259
4342.00 -284.37038612 119.60842806
4344.00 -284.59696834 119.75757800
4346.00 -284.82359355 119.90683239
4348.00 -285.05026169 120.05619125
4350.00 -285.27697270 120.20565457
4352.00 -285.50372652 120.35522235
4354.00 -285.73052309 120.50489459
4356.00 -285.95736235 120.65467129
4358.00 -286.18424424 120.80455244
4360.00 -286.41116870 120.95453806
4362.00 -286.63813567 121.10462814
4364.00 -286.86514509 121.25482267
4366.00 -287.09219691 121.40512167
4368.00 -287.31929106 121.55552512
4370.00 -287.54642747 121.70603302
4372.00 -287.77360611 121.85664538
4374.00 -288.00082689 122.00736220
4376.00 -288.22808977 122.15818347
4378.00 -288.45539469 122.30910919
4380.00 -288.68274157 122.46013937
4382.00 -288.91013038 122.61127400
4384.00 -289.13756104 122.76251308
4386.00 -289.36503349 122.91385661
4388.00 -289.59254768 123.06530458
4390.00 -289.82010355 123.21685701
4392.00 -290.04770104 123.36851388
4394.00 -290.27534008 123.52027520
4396.00 -290.50302063 123.67214097
4398.00 -290.73074261 123.82411117
4400.00 -290.95850598 123.97618582
4402.00 -291.18631066 124.12836491
4404.00 -291.41415661 124.28064844
4406.00 -291.64204375 124.43303641
4408.00 -291.86997204 124.58552882
4410.00 -292.09794142 124.73812566
4412.00 -292.32595182 124.89082693
4414.00 -292.55400318 125.04363264
4416.00 -292.78209545 125.19654278
4418.00 -293.01022856 125.34955735
4420.00 -293.23840247 125.50267635
4422.00 -293.46661710 125.65589977
4424.00 -293.69487240 125.80922762
4426.00 -293.92316831 125.96265989
4428.00 -294.15150477 126.11619658
4430.00 -294.37988172 126.26983770
4432.00 -294.60829910 126.42358323
4434.00 -294.83675686 126.57743317
4436.00 -295.06525493 126.73138754
4438.00 -295.29379326 126.88544631
4440.00 -295.52237178 127.03960949
4442.00 -295.75099044 127.19387708
4444.00 -295.97964918 127.34824908
4446.00 -296.20834794 127.50272548
4448.00 -296.43708666 127.65730628
4450.00 -296.66586528 127.81199149
4452.00 -296.89468374 127.96678109
4454.00 -297.12354198 128.12167508
4456.00 -297.35243995 128.27667347
4458.00 -297.58137759 128.43177625
4460.00 -297.81035483 128.58698342
4462.00 -298.03937162 128.74229498
4464.00 -298.26842790 128.89771092
4466.00 -298.49752361 129.05323123
4468.00 -298.72665869 129.20885593
4470.00 -298.95583309 129.36458501
4472.00 -299.18504674 129.52041846
4474.00 -299.41429958 129.67635627
4476.00 -299.64359156 129.83239846
4478.00 -299.87292262 129.98854501
4480.00 -300.10229270 130.14479593
4482.00 -300.33170174 130.30115121
4484.00 -300.56114968 130.45761084
4486.00 -300.79063646 130.61417483
4488.00 -301.02016203 130.77084317
4490.00 -301.24972633 130.92761586
4492.00 -301.47932929 131.08449289
4494.00 -301.70897086 131.24147427
4496.00 -301.93865098 131.39855999
4498.00 -302.16836960 131.55575004
4500.00 -302.39812664 131.71304443
4502.00 -302.62792207 131.87044315
4504.00 -302.85775580 132.02794620
4506.00 -303.08762780 132.18555357
4508.00 -303.31753800 132.34326526
4510.00 -303.54748634 132.50108127
4512.00 -303.77747276 132.65900160
4514.00 -304.00749720 132.81702623
4516.00 -304.23755962 132.97515518
4518.00 -304.46765994 133.13338842
4520.00 -304.69779811 133.29172597
4522.00 -304.92797407 133.45016782
4524.00 -305.15818776 133.60871396
4526.00 -305.38843913 133.76736439
4528.00 -305.61872811 133.92611911
4530.00 -305.84905466 134.08497811
4532.00 -306.07941870 134.24394139
4534.00 -306.30982018 134.40300894
4536.00 -306.54025905 134.56218077
4538.00 -306.77073525 134.72145687
4540.00 -307.00124871 134.88083723
4542.00 -307.23179938 135.04032185
4544.00 -307.46238720 135.19991073
4546.00 -307.69301212 135.35960386
4548.00 -307.92367407 135.51940124
4550.00 -308.15437300 135.67930286
4552.00 -308.38510885 135.83930873
4554.00 -308.61588155 135.99941883
4556.00 -308.84669106 136.15963316
4558.00 -309.07753732 136.31995172
4560.00 -309.30842026 136.48037451
4562.00 -309.53933984 136.64090152
4564.00 -309.77029598 136.80153274
4566.00 -310.00128864 136.96226817
4568.00 -310.23231775 137.12310781
4570.00 -310.46338326 137.28405166
4572.00 -310.69448512 137.44509970
4574.00 -310.92562325 137.60625194
4576.00 -311.15679761 137.76750836
4578.00 -311.38800813 137.92886897
4580.00 -311.61925477 138.09033377
4582.00 -311.85053745 138.25190273
4584.00 -312.08185613 138.41357587
4586.00 -312.31321074 138.57535318
4588.00 -312.54460123 138.73723464
4590.00 -312.77602755 138.89922027
4592.00 -313.00748962 139.06131005
4594.00 -313.23898740 139.22350397
4596.00 -313.47052083 139.38580204
4598.00 -313.70208985 139.54820424
4600.00 -313.93369440 139.71071058
4602.00 -314.16533442 139.87332105
4604.00 -314.39700986 140.03603564
4606.00 -314.62872067 140.19885435
4608.00 -314.86046677 140.36177717
4610.00 -315.09224812 140.52480410
4612.00 -315.32406466 140.68793513
4614.00 -315.55591633 140.85117026
4616.00 -315.78780307 141.01450949
4618.00 -316.01972482 141.17795280
4620.00 -316.25168153 141.34150019
4622.00 -316.48367315 141.50515166
4624.00 -316.71569961 141.66890720
4626.00 -316.94776085 141.83276681
4628.00 -317.17985682 141.99673048
4630.00 -317.41198746 142.16079821
4632.00 -317.64415272 142.32496998
4634.00 -317.87635254 142.48924580
4636.00 -318.10858685 142.65362566
4638.00 -318.34085561 142.81810955
4640.00 -318.57315875 142.98269747
4642.00 -318.80549622 143.14738941
4644.00 -319.03786796 143.31218537
4646.00 -319.27027392 143.47708534
4648.00 -319.50271403 143.64208931
4650.00 -319.73518824 143.80719729
4652.00 -319.96769650 143.97240925
4654.00 -320.20023874 144.13772521
4656.00 -320.43281491 144.30314514
4658.00 -320.66542495 144.46866906
4660.00 -320.89806881 144.63429694
4662.00 -321.13074642 144.80002878
4664.00 -321.36345773 144.96586459
4666.00 -321.59620269 145.13180434
4668.00 -321.82898124 145.29784805
4670.00 -322.06179332 145.46399569
4672.00 -322.29463887 145.63024726
4674.00 -322.52751783 145.79660276
4676.00 -322.76043016 145.96306219
4678.00 -322.99337579 146.12962553
4680.00 -323.22635467 146.29629277
4682.00 -323.45936673 146.46306392
4684.00 -323.69241193 146.62993897
4686.00 -323.92549021 146.79691790
4688.00 -324.15860150 146.96400072
4690.00 -324.39174576 147.13118741
4692.00 -324.62492292 147.29847798
4694.00 -324.85813293 147.46587240
4696.00 -325.09137574 147.63337069
4698.00 -325.32465128 147.80097282
4700.00 -325.55795950 147.96867880
4702.00 -325.79130034 148.13648862
4704.00 -326.02467376 148.30440226
4706.00 -326.25807968 148.47241973
4708.00 -326.49151805 148.64054102
4710.00 -326.72498882 148.80876612
4712.00 -326.95849194 148.97709502
4714.00 -327.19202733 149.14552771
4716.00 -327.42559496 149.31406420
4718.00 -327.65919476 149.48270447
4720.00 -327.89282667 149.65144851
4722.00 -328.12649064 149.82029632
4724.00 -328.36018661 149.98924790
4726.00 -328.59391453 150.15830322
4728.00 -328.82767434 150.32746230
4730.00 -329.06146598 150.49672512
4732.00 -329.29528941 150.66609166
4734.00 -329.52914455 150.83556194
4736.00 -329.76303136 151.00513593
4738.00 -329.99694977 151.17481364
4740.00 -330.23089974 151.34459504
4742.00 -330.46488121 151.51448015
4744.00 -330.69889411 151.68446894
4746.00 -330.93293840 151.85456142
4748.00 -331.16701402 152.02475757
4750.00 -331.40112091 152.19505739
4752.00 -331.63525902 152.36546086
4754.00 -331.86942829 152.53596799
4756.00 -332.10362866 152.70657876
4758.00 -332.33786008 152.87729317
4760.00 -332.57212250 153.04811121
4762.00 -332.80641584 153.21903287
4764.00 -333.04074007 153.39005814
4766.00 -333.27509513 153.56118702
4768.00 -333.50948095 153.73241950
4770.00 -333.74389749 153.90375556
4772.00 -333.97834468 154.07519521
4774.00 -334.21282248 154.24673844
4776.00 -334.44733082 154.41838523
4778.00 -334.68186965 154.59013558
4780.00 -334.91643891 154.76198948
4782.00 -335.15103856 154.93394692
4784.00 -335.38566852 155.10600790
4786.00 -335.62032876 155.27817240
4788.00 -335.85501920 155.45044043
4790.00 -336.08973980 155.62281196
4792.00 -336.32449050 155.79528699
4794.00 -336.55927125 155.96786552
4796.00 -336.79408198 156.14054754
4798.00 -337.02892265 156.31333303
4800.00 -337.26379319 156.48622199
4802.00 -337.49869356 156.65921441
4804.00 -337.73362369 156.83231029
4806.00 -337.96858354 157.00550961
4808.00 -338.20357304 157.17881236
4810.00 -338.43859215 157.35221854
4812.00 -338.67364079 157.52572814
4814.00 -338.90871893 157.69934115
4816.00 -339.14382651 157.87305757
4818.00 -339.37896346 158.04687737
4820.00 -339.61412973 158.22080056
4822.00 -339.84932528 158.39482713
4824.00 -340.08455004 158.56895706
4826.00 -340.31980395 158.74319035
4828.00 -340.55508697 158.91752699
4830.00 -340.79039904 159.09196697
4832.00 -341.02574010 159.26651028
4834.00 -341.26111009 159.44115691
4836.00 -341.49650897 159.61590686
4838.00 -341.73193668 159.79076012
4840.00 -341.96739316 159.96571667
4842.00 -342.20287835 160.14077651
4844.00 -342.43839221 160.31593962
4846.00 -342.67393467 160.49120601
4848.00 -342.90950569 160.66657565
4850.00 -343.14510520 160.84204855
4852.00 -343.38073316 161.01762469
4854.00 -343.61638950 161.19330406
4856.00 -343.85207417 161.36908666
4858.00 -344.08778712 161.54497246
4860.00 -344.32352830 161.72096148
4862.00 -344.55929764 161.89705369
4864.00 -344.79509509 162.07324908
4866.00 -345.03092060 162.24954766
4868.00 -345.26677412 162.42594940
4870.00 -345.50265558 162.60245430
4872.00 -345.73856494 162.77906234
4874.00 -345.97450213 162.95577353
4876.00 -346.21046711 163.13258785
4878.00 -346.44645982 163.30950528
4880.00 -346.68248021 163.48652583
4882.00 -346.91852821 163.66364948
4884.00 -347.15460378 163.84087622
4886.00 -347.39070686 164.01820604
4888.00 -347.62683740 164.19563893
4890.00 -347.86299534 164.37317488
4892.00 -348.09918062 164.55081389
4894.00 -348.33539320 164.72855594
4896.00 -348.57163302 164.90640102
4898.00 -348.80790002 165.08434913
4900.00 -349.04419415 165.26240025
4902.00 -349.28051536 165.44055437
4904.00 -349.51686358 165.61881148
4906.00 -349.75323878 165.79717158
4908.00 -349.98964088 165.97563465
4910.00 -350.22606985 166.15420068
4912.00 -350.46252561 166.33286967
4914.00 -350.69900813 166.51164160
4916.00 -350.93551734 166.69051646
4918.00 -351.17205319 166.86949424
4920.00 -351.40861562 167.04857494
4922.00 -351.64520459 167.22775854
4924.00 -351.88182004 167.40704502
4926.00 -352.11846191 167.58643440
4928.00 -352.35513015 167.76592664
4930.00 -352.59182471 167.94552174
4932.00 -352.82854553 168.12521969
4934.00 -353.06529256 168.30502049
4936.00 -353.30206573 168.48492411
4938.00 -353.53886501 168.66493055
4940.00 -353.77569034 168.84503980
4942.00 -354.01254165 169.02525185
4944.00 -354.24941891 169.20556668
4946.00 -354.48632205 169.38598429
4948.00 -354.72325101 169.56650467
4950.00 -354.96020576 169.74712780
4952.00 -355.19718622 169.92785368
4954.00 -355.43419236 170.10868229
4956.00 -355.67122410 170.28961362
4958.00 -355.90828141 170.47064767
4960.00 -356.14536423 170.65178442
4962.00 -356.38247250 170.83302386
4964.00 -356.61960617 171.01436597
4966.00 -356.85676518 171.19581076
4968.00 -357.09394949 171.37735821
4970.00 -357.33115903 171.55900830
4972.00 -357.56839376 171.74076103
4974.00 -357.80565362 171.92261638
4976.00 -358.04293856 172.10457435
4978.00 -358.28024852 172.28663492
4980.00 -358.51758346 172.46879808
4982.00 -358.75494331 172.65106382
4984.00 -358.99232802 172.83343213
4986.00 -359.22973754 173.01590300
4988.00 -359.46717182 173.19847641
4990.00 -359.70463081 173.38115236
4992.00 -359.94211444 173.56393084
4994.00 -360.17962267 173.74681183
4996.00 -360.41715545 173.92979532
4998.00 -360.65471271 174.11288130
5000.00 -360.89229441 174.29606975
