wavelength(nm)         real         imag
100.00   3.86594478   0.00032543
102.00   3.86456908   0.00034535
104.00   3.86316615   0.00036606
106.00   3.86173599   0.00038759
108.00   3.86027860   0.00040994
110.00   3.85879398   0.00043314
112.00   3.85728213   0.00045719
114.00   3.85574305   0.00048212
116.00   3.85417675   0.00050794
118.00   3.85258322   0.00053467
120.00   3.85096246   0.00056232
122.00   3.84931448   0.00059090
124.00   3.84763927   0.00062044
126.00   3.84593684   0.00065094
128.00   3.84420719   0.00068243
130.00   3.84245031   0.00071492
132.00   3.84066621   0.00074842
134.00   3.83885489   0.00078296
136.00   3.83701636   0.00081854
138.00   3.83515060   0.00085518
140.00   3.83325763   0.00089290
142.00   3.83133743   0.00093171
144.00   3.82939002   0.00097163
146.00   3.82741540   0.00101267
148.00   3.82541356   0.00105486
150.00   3.82338451   0.00109820
152.00   3.82132824   0.00114271
154.00   3.81924476   0.00118840
156.00   3.81713407   0.00123530
158.00   3.81499617   0.00128342
160.00   3.81283106   0.00133277
162.00   3.81063874   0.00138336
164.00   3.80841922   0.00143523
166.00   3.80617249   0.00148837
168.00   3.80389855   0.00154281
170.00   3.80159741   0.00159855
172.00   3.79926906   0.00165563
174.00   3.79691351   0.00171405
176.00   3.79453076   0.00177382
178.00   3.79212081   0.00183497
180.00   3.78968366   0.00189751
182.00   3.78721931   0.00196145
184.00   3.78472777   0.00202682
186.00   3.78220903   0.00209362
188.00   3.77966309   0.00216187
190.00   3.77708996   0.00223158
192.00   3.77448964   0.00230278
194.00   3.77186212   0.00237548
196.00   3.76920741   0.00244969
198.00   3.76652552   0.00252543
200.00   3.76381644   0.00260272
202.00   3.76108017   0.00268156
204.00   3.75831671   0.00276198
206.00   3.75552607   0.00284399
208.00   3.75270825   0.00292761
210.00   3.74986324   0.00301286
212.00   3.74699105   0.00309974
214.00   3.74409169   0.00318827
216.00   3.74116514   0.00327847
218.00   3.73821142   0.00337036
220.00   3.73523052   0.00346395
222.00   3.73222245   0.00355925
224.00   3.72918721   0.00365629
226.00   3.72612479   0.00375507
228.00   3.72303520   0.00385562
230.00   3.71991844   0.00395794
232.00   3.71677452   0.00406205
234.00   3.71360343   0.00416798
236.00   3.71040517   0.00427573
238.00   3.70717975   0.00438532
240.00   3.70392717   0.00449677
242.00   3.70064743   0.00461009
244.00   3.69734052   0.00472529
246.00   3.69400646   0.00484240
248.00   3.69064525   0.00496143
250.00   3.68725688   0.00508238
252.00   3.68384135   0.00520529
254.00   3.68039868   0.00533016
256.00   3.67692885   0.00545702
258.00   3.67343187   0.00558587
260.00   3.66990775   0.00571672
262.00   3.66635648   0.00584961
264.00   3.66277806   0.00598454
266.00   3.65917251   0.00612153
268.00   3.65553981   0.00626058
270.00   3.65187997   0.00640173
272.00   3.64819300   0.00654498
274.00   3.64447888   0.00669036
276.00   3.64073764   0.00683786
278.00   3.63696926   0.00698752
280.00   3.63317375   0.00713935
282.00   3.62935110   0.00729335
284.00   3.62550133   0.00744956
286.00   3.62162444   0.00760797
288.00   3.61772042   0.00776862
290.00   3.61378927   0.00793151
292.00   3.60983101   0.00809666
294.00   3.60584562   0.00826408
296.00   3.60183312   0.00843380
298.00   3.59779350   0.00860581
300.00   3.59372677   0.00878016
302.00   3.58963292   0.00895683
304.00   3.58551197   0.00913586
306.00   3.58136390   0.00931726
308.00   3.57718873   0.00950104
310.00   3.57298645   0.00968722
312.00   3.56875707   0.00987582
314.00   3.56450059   0.01006684
316.00   3.56021700   0.01026031
318.00   3.55590632   0.01045624
320.00   3.55156855   0.01065465
322.00   3.54720367   0.01085555
324.00   3.54281171   0.01105896
326.00   3.53839266   0.01126489
328.00   3.53394651   0.01147335
330.00   3.52947329   0.01168437
332.00   3.52497297   0.01189796
334.00   3.52044558   0.01211414
336.00   3.51589110   0.01233291
338.00   3.51130955   0.01255430
340.00   3.50670092   0.01277832
342.00   3.50206521   0.01300499
344.00   3.49740243   0.01323432
346.00   3.49271258   0.01346632
348.00   3.48799567   0.01370102
350.00   3.48325168   0.01393843
352.00   3.47848063   0.01417856
354.00   3.47368252   0.01442143
356.00   3.46885735   0.01466705
358.00   3.46400513   0.01491545
360.00   3.45912584   0.01516663
362.00   3.45421950   0.01542061
364.00   3.44928611   0.01567741
366.00   3.44432567   0.01593704
368.00   3.43933819   0.01619951
370.00   3.43432366   0.01646485
372.00   3.42928208   0.01673307
374.00   3.42421347   0.01700418
376.00   3.41911781   0.01727820
378.00   3.41399512   0.01755514
380.00   3.40884540   0.01783503
382.00   3.40366864   0.01811786
384.00   3.39846486   0.01840367
386.00   3.39323405   0.01869247
388.00   3.38797621   0.01898427
390.00   3.38269135   0.01927908
392.00   3.37737947   0.01957692
394.00   3.37204057   0.01987782
396.00   3.36667465   0.02018177
398.00   3.36128173   0.02048881
400.00   3.35586179   0.02079894
402.00   3.35041484   0.02111218
404.00   3.34494089   0.02142854
406.00   3.33943993   0.02174804
408.00   3.33391197   0.02207070
410.00   3.32835701   0.02239653
412.00   3.32277506   0.02272554
414.00   3.31716611   0.02305776
416.00   3.31153017   0.02339319
418.00   3.30586724   0.02373186
420.00   3.30017732   0.02407377
422.00   3.29446042   0.02441895
424.00   3.28871653   0.02476740
426.00   3.28294567   0.02511915
428.00   3.27714783   0.02547421
430.00   3.27132302   0.02583259
432.00   3.26547123   0.02619431
434.00   3.25959247   0.02655939
436.00   3.25368675   0.02692784
438.00   3.24775407   0.02729967
440.00   3.24179442   0.02767491
442.00   3.23580781   0.02805356
444.00   3.22979425   0.02843564
446.00   3.22375373   0.02882117
448.00   3.21768627   0.02921017
450.00   3.21159185   0.02960264
452.00   3.20547049   0.02999861
454.00   3.19932218   0.03039808
456.00   3.19314694   0.03080108
458.00   3.18694476   0.03120762
460.00   3.18071564   0.03161771
462.00   3.17445959   0.03203137
464.00   3.16817661   0.03244862
466.00   3.16186670   0.03286947
468.00   3.15552987   0.03329393
470.00   3.14916612   0.03372203
472.00   3.14277545   0.03415377
474.00   3.13635786   0.03458917
476.00   3.12991336   0.03502825
478.00   3.12344195   0.03547103
480.00   3.11694364   0.03591751
482.00   3.11041842   0.03636771
484.00   3.10386629   0.03682166
486.00   3.09728727   0.03727935
488.00   3.09068135   0.03774082
490.00   3.08404854   0.03820607
492.00   3.07738884   0.03867512
494.00   3.07070225   0.03914798
496.00   3.06398878   0.03962468
498.00   3.05724843   0.04010522
500.00   3.05048119   0.04058962
502.00   3.04368708   0.04107789
504.00   3.03686610   0.04157006
506.00   3.03001825   0.04206613
508.00   3.02314354   0.04256613
510.00   3.01624195   0.04307006
512.00   3.00931351   0.04357795
514.00   3.00235821   0.04408980
516.00   2.99537606   0.04460563
518.00   2.98836705   0.04512547
520.00   2.98133120   0.04564931
522.00   2.97426850   0.04617719
524.00   2.96717896   0.04670911
526.00   2.96006258   0.04724508
528.00   2.95291936   0.04778513
530.00   2.94574931   0.04832928
532.00   2.93855243   0.04887752
534.00   2.93132872   0.04942989
536.00   2.92407819   0.04998639
538.00   2.91680084   0.05054704
540.00   2.90949667   0.05111185
542.00   2.90216569   0.05168085
544.00   2.89480789   0.05225404
546.00   2.88742329   0.05283145
548.00   2.88001188   0.05341308
550.00   2.87257368   0.05399895
552.00   2.86510867   0.05458908
554.00   2.85761687   0.05518348
556.00   2.85009827   0.05578217
558.00   2.84255289   0.05638516
560.00   2.83498073   0.05699246
562.00   2.82738178   0.05760410
564.00   2.81975605   0.05822009
566.00   2.81210355   0.05884044
568.00   2.80442427   0.05946517
570.00   2.79671823   0.06009429
572.00   2.78898542   0.06072782
574.00   2.78122585   0.06136578
576.00   2.77343952   0.06200817
578.00   2.76562644   0.06265502
580.00   2.75778661   0.06330634
582.00   2.74992002   0.06396214
584.00   2.74202669   0.06462244
586.00   2.73410662   0.06528725
588.00   2.72615982   0.06595660
590.00   2.71818627   0.06663049
592.00   2.71018600   0.06730893
594.00   2.70215900   0.06799196
596.00   2.69410527   0.06867957
598.00   2.68602483   0.06937179
600.00   2.67791767   0.07006863
602.00   2.66978379   0.07077011
604.00   2.66162320   0.07147624
606.00   2.65343591   0.07218703
608.00   2.64522191   0.07290250
610.00   2.63698122   0.07362267
612.00   2.62871382   0.07434755
614.00   2.62041974   0.07507716
616.00   2.61209897   0.07581151
618.00   2.60375151   0.07655061
620.00   2.59537737   0.07729449
622.00   2.58697655   0.07804315
624.00   2.57854906   0.07879662
626.00   2.57009490   0.07955490
628.00   2.56161407   0.08031801
630.00   2.55310658   0.08108597
632.00   2.54457243   0.08185879
634.00   2.53601162   0.08263649
636.00   2.52742416   0.08341908
638.00   2.51881005   0.08420658
640.00   2.51016930   0.08499900
642.00   2.50150191   0.08579636
644.00   2.49280788   0.08659866
646.00   2.48408722   0.08740594
648.00   2.47533992   0.08821820
650.00   2.46656600   0.08903546
652.00   2.45776546   0.08985773
654.00   2.44893830   0.09068502
656.00   2.44008453   0.09151736
658.00   2.43120415   0.09235476
660.00   2.42229716   0.09319722
662.00   2.41336356   0.09404478
664.00   2.40440337   0.09489744
666.00   2.39541658   0.09575521
668.00   2.38640320   0.09661812
670.00   2.37736324   0.09748618
672.00   2.36829669   0.09835940
674.00   2.35920356   0.09923779
676.00   2.35008386   0.10012138
678.00   2.34093758   0.10101018
680.00   2.33176474   0.10190419
682.00   2.32256533   0.10280345
684.00   2.31333937   0.10370796
686.00   2.30408684   0.10461773
688.00   2.29480777   0.10553279
690.00   2.28550215   0.10645314
692.00   2.27616998   0.10737881
694.00   2.26681128   0.10830981
696.00   2.25742604   0.10924614
698.00   2.24801427   0.11018783
700.00   2.23857597   0.11113490
702.00   2.22911115   0.11208735
704.00   2.21961981   0.11304521
706.00   2.21010195   0.11400848
708.00   2.20055758   0.11497718
710.00   2.19098671   0.11595133
712.00   2.18138933   0.11693094
714.00   2.17176546   0.11791602
716.00   2.16211509   0.11890660
718.00   2.15243823   0.11990269
720.00   2.14273488   0.12090429
722.00   2.13300505   0.12191143
724.00   2.12324875   0.12292413
726.00   2.11346597   0.12394238
728.00   2.10365672   0.12496622
730.00   2.09382101   0.12599566
732.00   2.08395883   0.12703070
734.00   2.07407020   0.12807137
736.00   2.06415512   0.12911769
738.00   2.05421359   0.13016965
740.00   2.04424561   0.13122729
742.00   2.03425120   0.13229061
744.00   2.02423035   0.13335963
746.00   2.01418307   0.13443436
748.00   2.00410937   0.13551483
750.00   1.99400924   0.13660103
752.00   1.98388270   0.13769300
754.00   1.97372974   0.13879074
756.00   1.96355037   0.13989427
758.00   1.95334460   0.14100361
760.00   1.94311243   0.14211876
762.00   1.93285386   0.14323974
764.00   1.92256890   0.14436657
766.00   1.91225755   0.14549927
768.00   1.90191983   0.14663784
770.00   1.89155572   0.14778231
772.00   1.88116524   0.14893268
774.00   1.87074839   0.15008898
776.00   1.86030518   0.15125121
778.00   1.84983561   0.15241939
780.00   1.83933968   0.15359354
782.00   1.82881740   0.15477367
784.00   1.81826878   0.15595979
786.00   1.80769381   0.15715193
788.00   1.79709251   0.15835009
790.00   1.78646487   0.15955429
792.00   1.77581090   0.16076455
794.00   1.76513061   0.16198088
796.00   1.75442401   0.16320329
798.00   1.74369108   0.16443180
800.00   1.73293185   0.16566642
802.00   1.72214632   0.16690717
804.00   1.71133448   0.16815407
806.00   1.70049635   0.16940712
808.00   1.68963192   0.17066635
810.00   1.67874121   0.17193176
812.00   1.66782422   0.17320338
814.00   1.65688095   0.17448121
816.00   1.64591141   0.17576527
818.00   1.63491560   0.17705558
820.00   1.62389353   0.17835215
822.00   1.61284520   0.17965500
824.00   1.60177061   0.18096414
826.00   1.59066978   0.18227958
828.00   1.57954271   0.18360134
830.00   1.56838939   0.18492944
832.00   1.55720984   0.18626388
834.00   1.54600406   0.18760469
836.00   1.53477206   0.18895188
838.00   1.52351384   0.19030546
840.00   1.51222940   0.19166544
842.00   1.50091875   0.19303185
844.00   1.48958190   0.19440470
846.00   1.47821885   0.19578400
848.00   1.46682960   0.19716976
850.00   1.45541416   0.19856201
852.00   1.44397253   0.19996075
854.00   1.43250473   0.20136600
856.00   1.42101074   0.20277777
858.00   1.40949059   0.20419608
860.00   1.39794427   0.20562095
862.00   1.38637179   0.20705239
864.00   1.37477316   0.20849041
866.00   1.36314837   0.20993502
868.00   1.35149744   0.21138625
870.00   1.33982036   0.21284410
872.00   1.32811716   0.21430860
874.00   1.31638781   0.21577975
876.00   1.30463235   0.21725757
878.00   1.29285076   0.21874208
880.00   1.28104306   0.22023329
882.00   1.26920924   0.22173121
884.00   1.25734932   0.22323586
886.00   1.24546330   0.22474725
888.00   1.23355119   0.22626540
890.00   1.22161298   0.22779032
892.00   1.20964869   0.22932203
894.00   1.19765832   0.23086054
896.00   1.18564187   0.23240587
898.00   1.17359935   0.23395803
900.00   1.16153077   0.23551703
902.00   1.14943613   0.23708289
904.00   1.13731543   0.23865562
906.00   1.12516869   0.24023524
908.00   1.11299590   0.24182177
910.00   1.10079707   0.24341521
912.00   1.08857221   0.24501558
914.00   1.07632132   0.24662290
916.00   1.06404441   0.24823718
918.00   1.05174148   0.24985844
920.00   1.03941254   0.25148668
922.00   1.02705759   0.25312193
924.00   1.01467664   0.25476420
926.00   1.00226969   0.25641350
928.00   0.98983675   0.25806985
930.00   0.97737783   0.25973325
932.00   0.96489292   0.26140374
934.00   0.95238204   0.26308132
936.00   0.93984519   0.26476600
938.00   0.92728237   0.26645780
940.00   0.91469360   0.26815673
942.00   0.90207887   0.26986281
944.00   0.88943819   0.27157606
946.00   0.87677157   0.27329648
948.00   0.86407901   0.27502409
950.00   0.85136052   0.27675891
952.00   0.83861611   0.27850095
954.00   0.82584577   0.28025022
956.00   0.81304952   0.28200674
958.00   0.80022735   0.28377053
960.00   0.78737928   0.28554159
962.00   0.77450532   0.28731994
964.00   0.76160545   0.28910560
966.00   0.74867970   0.29089858
968.00   0.73572807   0.29269890
970.00   0.72275056   0.29450656
972.00   0.70974718   0.29632159
974.00   0.69671793   0.29814400
976.00   0.68366282   0.29997380
978.00   0.67058185   0.30181100
980.00   0.65747504   0.30365563
982.00   0.64434238   0.30550769
984.00   0.63118389   0.30736720
986.00   0.61799956   0.30923417
988.00   0.60478940   0.31110863
990.00   0.59155343   0.31299057
992.00   0.57829163   0.31488002
994.00   0.56500403   0.31677699
996.00   0.55169062   0.31868150
998.00   0.53835142   0.32059355
1000.00   0.52498642   0.32251317
1002.00   0.51159563   0.32444037
1004.00   0.49817906   0.32637516
1006.00   0.48473672   0.32831755
1008.00   0.47126861   0.33026757
1010.00   0.45777473   0.33222522
1012.00   0.44425509   0.33419052
1014.00   0.43070970   0.33616348
1016.00   0.41713856   0.33814412
1018.00   0.40354168   0.34013245
1020.00   0.38991907   0.34212849
1022.00   0.37627073   0.34413224
1024.00   0.36259666   0.34614373
1026.00   0.34889687   0.34816297
1028.00   0.33517137   0.35018997
1030.00   0.32142017   0.35222475
1032.00   0.30764326   0.35426732
1034.00   0.29384066   0.35631769
1036.00   0.28001237   0.35837588
1038.00   0.26615840   0.36044191
1040.00   0.25227875   0.36251578
1042.00   0.23837343   0.36459751
1044.00   0.22444245   0.36668712
1046.00   0.21048580   0.36878462
1048.00   0.19650351   0.37089003
1050.00   0.18249556   0.37300335
1052.00   0.16846197   0.37512460
1054.00   0.15440275   0.37725380
1056.00   0.14031790   0.37939096
1058.00   0.12620742   0.38153609
1060.00   0.11207133   0.38368921
1062.00   0.09790962   0.38585034
1064.00   0.08372231   0.38801948
1066.00   0.06950940   0.39019665
1068.00   0.05527090   0.39238187
1070.00   0.04100681   0.39457514
1072.00   0.02671714   0.39677649
1074.00   0.01240189   0.39898593
1076.00  -0.00193893   0.40120346
1078.00  -0.01630530   0.40342911
1080.00  -0.03069724   0.40566289
1082.00  -0.04511473   0.40790482
1084.00  -0.05955776   0.41015489
1086.00  -0.07402633   0.41241315
1088.00  -0.08852043   0.41467958
1090.00  -0.10304006   0.41695422
1092.00  -0.11758521   0.41923706
1094.00  -0.13215588   0.42152814
1096.00  -0.14675205   0.42382745
1098.00  -0.16137372   0.42613502
1100.00  -0.17602089   0.42845086
1102.00  -0.19069355   0.43077498
1104.00  -0.20539169   0.43310740
1106.00  -0.22011531   0.43544813
1108.00  -0.23486440   0.43779719
1110.00  -0.24963895   0.44015458
1112.00  -0.26443896   0.44252032
1114.00  -0.27926442   0.44489444
1116.00  -0.29411533   0.44727693
1118.00  -0.30899168   0.44966782
1120.00  -0.32389346   0.45206711
1122.00  -0.33882066   0.45447483
1124.00  -0.35377329   0.45689098
1126.00  -0.36875133   0.45931558
1128.00  -0.38375478   0.46174865
1130.00  -0.39878363   0.46419020
1132.00  -0.41383787   0.46664023
1134.00  -0.42891751   0.46909877
1136.00  -0.44402252   0.47156584
1138.00  -0.45915291   0.47404143
1140.00  -0.47430867   0.47652557
1142.00  -0.48948979   0.47901827
1144.00  -0.50469627   0.48151955
1146.00  -0.51992810   0.48402942
1148.00  -0.53518527   0.48654788
1150.00  -0.55046778   0.48907497
1152.00  -0.56577563   0.49161068
1154.00  -0.58110879   0.49415504
1156.00  -0.59646727   0.49670806
1158.00  -0.61185107   0.49926974
1160.00  -0.62726017   0.50184012
1162.00  -0.64269456   0.50441919
1164.00  -0.65815425   0.50700697
1166.00  -0.67363922   0.50960348
1168.00  -0.68914948   0.51220873
1170.00  -0.70468500   0.51482274
1172.00  -0.72024579   0.51744551
1174.00  -0.73583184   0.52007707
1176.00  -0.75144314   0.52271742
1178.00  -0.76707969   0.52536658
1180.00  -0.78274148   0.52802456
1182.00  -0.79842849   0.53069138
1184.00  -0.81414074   0.53336705
1186.00  -0.82987820   0.53605158
1188.00  -0.84564088   0.53874499
1190.00  -0.86142876   0.54144729
1192.00  -0.87724185   0.54415850
1194.00  -0.89308012   0.54687863
1196.00  -0.90894358   0.54960768
1198.00  -0.92483222   0.55234569
1200.00  -0.94074604   0.55509265
1202.00  -0.95668502   0.55784859
1204.00  -0.97264915   0.56061351
1206.00  -0.98863844   0.56338744
1208.00  -1.00465288   0.56617038
1210.00  -1.02069246   0.56896235
1212.00  -1.03675717   0.57176336
1214.00  -1.05284700   0.57457342
1216.00  -1.06896195   0.57739256
1218.00  -1.08510202   0.58022077
1220.00  -1.10126719   0.58305808
1222.00  -1.11745745   0.58590451
1224.00  -1.13367281   0.58876005
1226.00  -1.14991326   0.59162473
1228.00  -1.16617878   0.59449857
1230.00  -1.18246937   0.59738156
1232.00  -1.19878503   0.60027374
1234.00  -1.21512574   0.60317510
1236.00  -1.23149151   0.60608567
1238.00  -1.24788232   0.60900546
1240.00  -1.26429816   0.61193448
1242.00  -1.28073904   0.61487275
1244.00  -1.29720494   0.61782028
1246.00  -1.31369585   0.62077707
1248.00  -1.33021177   0.62374316
1250.00  -1.34675270   0.62671854
1252.00  -1.36331862   0.62970323
1254.00  -1.37990953   0.63269726
1256.00  -1.39652542   0.63570062
1258.00  -1.41316628   0.63871333
1260.00  -1.42983211   0.64173542
1262.00  -1.44652290   0.64476688
1264.00  -1.46323865   0.64780774
1266.00  -1.47997934   0.65085800
1268.00  -1.49674497   0.65391768
1270.00  -1.51353553   0.65698680
1272.00  -1.53035102   0.66006537
1274.00  -1.54719143   0.66315340
1276.00  -1.56405674   0.66625090
1278.00  -1.58094696   0.66935789
1280.00  -1.59786208   0.67247438
1282.00  -1.61480209   0.67560039
1284.00  -1.63176698   0.67873592
1286.00  -1.64875675   0.68188100
1288.00  -1.66577138   0.68503563
1290.00  -1.68281088   0.68819983
1292.00  -1.69987523   0.69137361
1294.00  -1.71696442   0.69455699
1296.00  -1.73407846   0.69774997
1298.00  -1.75121733   0.70095258
1300.00  -1.76838103   0.70416482
1302.00  -1.78556954   0.70738671
1304.00  -1.80278286   0.71061826
1306.00  -1.82002099   0.71385948
1308.00  -1.83728392   0.71711040
1310.00  -1.85457163   0.72037101
1312.00  -1.87188413   0.72364135
1314.00  -1.88922140   0.72692141
1316.00  -1.90658344   0.73021121
1318.00  -1.92397024   0.73351076
1320.00  -1.94138180   0.73682009
1322.00  -1.95881810   0.74013920
1324.00  -1.97627914   0.74346810
1326.00  -1.99376491   0.74680680
1328.00  -2.01127540   0.75015533
1330.00  -2.02881061   0.75351370
1332.00  -2.04637054   0.75688191
1334.00  -2.06395516   0.76025999
1336.00  -2.08156448   0.76364793
1338.00  -2.09919848   0.76704577
1340.00  -2.11685717   0.77045350
1342.00  -2.13454053   0.77387115
1344.00  -2.15224855   0.77729873
1346.00  -2.16998123   0.78073625
1348.00  -2.18773856   0.78418372
1350.00  -2.20552054   0.78764115
1352.00  -2.22332715   0.79110857
1354.00  -2.24115839   0.79458598
1356.00  -2.25901425   0.79807339
1358.00  -2.27689472   0.80157083
1360.00  -2.29479980   0.80507829
1362.00  -2.31272948   0.80859581
1364.00  -2.33068375   0.81212338
1366.00  -2.34866261   0.81566102
1368.00  -2.36666603   0.81920875
1370.00  -2.38469403   0.82276657
1372.00  -2.40274659   0.82633451
1374.00  -2.42082370   0.82991257
1376.00  -2.43892536   0.83350077
1378.00  -2.45705156   0.83709912
1380.00  -2.47520229   0.84070763
1382.00  -2.49337754   0.84432632
1384.00  -2.51157731   0.84795520
1386.00  -2.52980158   0.85159428
1388.00  -2.54805036   0.85524358
1390.00  -2.56632363   0.85890310
1392.00  -2.58462138   0.86257287
1394.00  -2.60294362   0.86625289
1396.00  -2.62129032   0.86994318
1398.00  -2.63966148   0.87364375
1400.00  -2.65805711   0.87735461
1402.00  -2.67647717   0.88107578
1404.00  -2.69492168   0.88480727
1406.00  -2.71339062   0.88854910
1408.00  -2.73188399   0.89230127
1410.00  -2.75040177   0.89606379
1412.00  -2.76894396   0.89983669
1414.00  -2.78751055   0.90361998
1416.00  -2.80610153   0.90741366
1418.00  -2.82471691   0.91121775
1420.00  -2.84335666   0.91503227
1422.00  -2.86202078   0.91885722
1424.00  -2.88070926   0.92269262
1426.00  -2.89942210   0.92653848
1428.00  -2.91815928   0.93039482
1430.00  -2.93692080   0.93426165
1432.00  -2.95570666   0.93813897
1434.00  -2.97451684   0.94202682
1436.00  -2.99335134   0.94592518
1438.00  -3.01221014   0.94983409
1440.00  -3.03109324   0.95375355
1442.00  -3.05000064   0.95768357
1444.00  -3.06893232   0.96162418
1446.00  -3.08788828   0.96557537
1448.00  -3.10686851   0.96953717
1450.00  -3.12587300   0.97350958
1452.00  -3.14490174   0.97749263
1454.00  -3.16395473   0.98148631
1456.00  -3.18303196   0.98549065
1458.00  -3.20213341   0.98950566
1460.00  -3.22125909   0.99353135
1462.00  -3.24040898   0.99756774
1464.00  -3.25958308   1.00161482
1466.00  -3.27878138   1.00567263
1468.00  -3.29800386   1.00974117
1470.00  -3.31725053   1.01382046
1472.00  -3.33652137   1.01791050
1474.00  -3.35581638   1.02201131
1476.00  -3.37513555   1.02612290
1478.00  -3.39447887   1.03024529
1480.00  -3.41384633   1.03437849
1482.00  -3.43323792   1.03852251
1484.00  -3.45265364   1.04267736
1486.00  -3.47209348   1.04684306
1488.00  -3.49155743   1.05101961
1490.00  -3.51104548   1.05520704
1492.00  -3.53055763   1.05940535
1494.00  -3.55009386   1.06361456
1496.00  -3.56965417   1.06783468
1498.00  -3.58923855   1.07206572
1500.00  -3.60884699   1.07630770
1502.00  -3.62847949   1.08056062
1504.00  -3.64813603   1.08482451
1506.00  -3.66781661   1.08909937
1508.00  -3.68752122   1.09338521
1510.00  -3.70724985   1.09768205
1512.00  -3.72700250   1.10198990
1514.00  -3.74677915   1.10630877
1516.00  -3.76657979   1.11063868
1518.00  -3.78640443   1.11497964
1520.00  -3.80625304   1.11933166
1522.00  -3.82612563   1.12369475
1524.00  -3.84602219   1.12806893
1526.00  -3.86594270   1.13245421
1528.00  -3.88588715   1.13685059
1530.00  -3.90585555   1.14125811
1532.00  -3.92584788   1.14567675
1534.00  -3.94586413   1.15010655
1536.00  -3.96590430   1.15454751
1538.00  -3.98596838   1.15899964
1540.00  -4.00605635   1.16346296
1542.00  -4.02616822   1.16793747
1544.00  -4.04630396   1.17242320
1546.00  -4.06646358   1.17692015
1548.00  -4.08664707   1.18142834
1550.00  -4.10685441   1.18594777
1552.00  -4.12708560   1.19047847
1554.00  -4.14734064   1.19502044
1556.00  -4.16761950   1.19957369
1558.00  -4.18792219   1.20413825
1560.00  -4.20824870   1.20871411
1562.00  -4.22859901   1.21330130
1564.00  -4.24897312   1.21789982
1566.00  -4.26937103   1.22250970
1568.00  -4.28979271   1.22713093
1570.00  -4.31023817   1.23176353
1572.00  -4.33070740   1.23640752
1574.00  -4.35120038   1.24106291
1576.00  -4.37171711   1.24572970
1578.00  -4.39225758   1.25040792
1580.00  -4.41282179   1.25509758
1582.00  -4.43340971   1.25979868
1584.00  -4.45402136   1.26451123
1586.00  -4.47465671   1.26923527
1588.00  -4.49531575   1.27397078
1590.00  -4.51599849   1.27871779
1592.00  -4.53670491   1.28347631
1594.00  -4.55743500   1.28824635
1596.00  -4.57818876   1.29302792
1598.00  -4.59896617   1.29782104
1600.00  -4.61976723   1.30262571
1602.00  -4.64059193   1.30744196
1604.00  -4.66144026   1.31226978
1606.00  -4.68231221   1.31710920
1608.00  -4.70320778   1.32196023
1610.00  -4.72412695   1.32682288
1612.00  -4.74506971   1.33169715
1614.00  -4.76603607   1.33658307
1616.00  -4.78702600   1.34148065
1618.00  -4.80803950   1.34638989
1620.00  -4.82907657   1.35131081
1622.00  -4.85013719   1.35624343
1624.00  -4.87122135   1.36118774
1626.00  -4.89232905   1.36614378
1628.00  -4.91346028   1.37111154
1630.00  -4.93461503   1.37609104
1632.00  -4.95579329   1.38108230
1634.00  -4.97699505   1.38608532
1636.00  -4.99822030   1.39110012
1638.00  -5.01946904   1.39612670
1640.00  -5.04074125   1.40116509
1642.00  -5.06203693   1.40621529
1644.00  -5.08335607   1.41127732
1646.00  -5.10469866   1.41635118
1648.00  -5.12606469   1.42143689
1650.00  -5.14745415   1.42653447
1652.00  -5.16886704   1.43164391
1654.00  -5.19030334   1.43676525
1656.00  -5.21176305   1.44189848
1658.00  -5.23324615   1.44704362
1660.00  -5.25475265   1.45220068
1662.00  -5.27628252   1.45736968
1664.00  -5.29783577   1.46255062
1666.00  -5.31941237   1.46774352
1668.00  -5.34101234   1.47294839
1670.00  -5.36263564   1.47816524
1672.00  -5.38428229   1.48339409
1674.00  -5.40595226   1.48863494
1676.00  -5.42764555   1.49388781
1678.00  -5.44936215   1.49915271
1680.00  -5.47110205   1.50442965
1682.00  -5.49286524   1.50971864
1684.00  -5.51465172   1.51501970
1686.00  -5.53646147   1.52033283
1688.00  -5.55829449   1.52565806
1690.00  -5.58015076   1.53099539
1692.00  -5.60203028   1.53634483
1694.00  -5.62393304   1.54170639
1696.00  -5.64585903   1.54708010
1698.00  -5.66780825   1.55246595
1700.00  -5.68978067   1.55786396
1702.00  -5.71177630   1.56327414
1704.00  -5.73379512   1.56869651
1706.00  -5.75583713   1.57413107
1708.00  -5.77790232   1.57957785
1710.00  -5.79999067   1.58503684
1712.00  -5.82210218   1.59050806
1714.00  -5.84423685   1.59599153
1716.00  -5.86639465   1.60148726
1718.00  -5.88857559   1.60699525
1720.00  -5.91077964   1.61251552
1722.00  -5.93300682   1.61804808
1724.00  -5.95525710   1.62359294
1726.00  -5.97753047   1.62915011
1728.00  -5.99982693   1.63471962
1730.00  -6.02214647   1.64030146
1732.00  -6.04448908   1.64589565
1734.00  -6.06685475   1.65150220
1736.00  -6.08924347   1.65712112
1738.00  -6.11165523   1.66275243
1740.00  -6.13409003   1.66839614
1742.00  -6.15654785   1.67405225
1744.00  -6.17902868   1.67972078
1746.00  -6.20153252   1.68540175
1748.00  -6.22405936   1.69109515
1750.00  -6.24660918   1.69680102
1752.00  -6.26918198   1.70251934
1754.00  -6.29177776   1.70825015
1756.00  -6.31439649   1.71399345
1758.00  -6.33703817   1.71974924
1760.00  -6.35970280   1.72551755
1762.00  -6.38239036   1.73129839
1764.00  -6.40510084   1.73709176
1766.00  -6.42783424   1.74289768
1768.00  -6.45059054   1.74871616
1770.00  -6.47336974   1.75454721
1772.00  -6.49617182   1.76039084
1774.00  -6.51899679   1.76624707
1776.00  -6.54184462   1.77211590
1778.00  -6.56471532   1.77799735
1780.00  -6.58760886   1.78389142
1782.00  -6.61052524   1.78979814
1784.00  -6.63346446   1.79571751
1786.00  -6.65642650   1.80164955
1788.00  -6.67941135   1.80759425
1790.00  -6.70241901   1.81355165
1792.00  -6.72544946   1.81952174
1794.00  -6.74850270   1.82550454
1796.00  -6.77157872   1.83150006
1798.00  -6.79467750   1.83750832
1800.00  -6.81779904   1.84352932
1802.00  -6.84094333   1.84956307
1804.00  -6.86411036   1.85560959
1806.00  -6.88730012   1.86166889
1808.00  -6.91051260   1.86774098
1810.00  -6.93374779   1.87382587
1812.00  -6.95700568   1.87992357
1814.00  -6.98028627   1.88603409
1816.00  -7.00358954   1.89215745
1818.00  -7.02691549   1.89829366
1820.00  -7.05026410   1.90444272
1822.00  -7.07363536   1.91060466
1824.00  -7.09702927   1.91677947
1826.00  -7.12044582   1.92296718
1828.00  -7.14388500   1.92916778
1830.00  -7.16734679   1.93538131
1832.00  -7.19083120   1.94160776
1834.00  -7.21433820   1.94784714
1836.00  -7.23786779   1.95409948
1838.00  -7.26141997   1.96036478
1840.00  -7.28499471   1.96664304
1842.00  -7.30859202   1.97293429
1844.00  -7.33221187   1.97923853
1846.00  -7.35585427   1.98555578
1848.00  -7.37951921   1.99188604
1850.00  -7.40320667   1.99822934
1852.00  -7.42691664   2.00458567
1854.00  -7.45064912   2.01095505
1856.00  -7.47440409   2.01733749
1858.00  -7.49818155   2.02373300
1860.00  -7.52198149   2.03014160
1862.00  -7.54580389   2.03656329
1864.00  -7.56964875   2.04299809
1866.00  -7.59351606   2.04944600
1868.00  -7.61740581   2.05590705
1870.00  -7.64131798   2.06238123
1872.00  -7.66525258   2.06886856
1874.00  -7.68920959   2.07536906
1876.00  -7.71318899   2.08188273
1878.00  -7.73719079   2.08840958
1880.00  -7.76121497   2.09494963
1882.00  -7.78526152   2.10150288
1884.00  -7.80933043   2.10806935
1886.00  -7.83342170   2.11464905
1888.00  -7.85753531   2.12124199
1890.00  -7.88167125   2.12784818
1892.00  -7.90582951   2.13446763
1894.00  -7.93001009   2.14110036
1896.00  -7.95421298   2.14774636
1898.00  -7.97843816   2.15440567
1900.00  -8.00268562   2.16107828
1902.00  -8.02695536   2.16776420
1904.00  -8.05124737   2.17446346
1906.00  -8.07556163   2.18117605
1908.00  -8.09989814   2.18790199
1910.00  -8.12425689   2.19464130
1912.00  -8.14863786   2.20139397
1914.00  -8.17304106   2.20816003
1916.00  -8.19746646   2.21493948
1918.00  -8.22191406   2.22173234
1920.00  -8.24638384   2.22853862
1922.00  -8.27087581   2.23535832
1924.00  -8.29538995   2.24219145
1926.00  -8.31992624   2.24903804
1928.00  -8.34448469   2.25589809
1930.00  -8.36906527   2.26277160
1932.00  -8.39366799   2.26965860
1934.00  -8.41829283   2.27655909
1936.00  -8.44293977   2.28347308
1938.00  -8.46760882   2.29040059
1940.00  -8.49229996   2.29734162
1942.00  -8.51701319   2.30429619
1944.00  -8.54174848   2.31126430
1946.00  -8.56650584   2.31824597
1948.00  -8.59128524   2.32524121
1950.00  -8.61608669   2.33225003
1952.00  -8.64091018   2.33927244
1954.00  -8.66575569   2.34630845
1956.00  -8.69062320   2.35335807
1958.00  -8.71551273   2.36042131
1960.00  -8.74042424   2.36749819
1962.00  -8.76535774   2.37458871
1964.00  -8.79031322   2.38169288
1966.00  -8.81529065   2.38881072
1968.00  -8.84029005   2.39594223
1970.00  -8.86531138   2.40308744
1972.00  -8.89035465   2.41024634
1974.00  -8.91541985   2.41741894
1976.00  -8.94050696   2.42460527
1978.00  -8.96561597   2.43180532
1980.00  -8.99074688   2.43901912
1982.00  -9.01589967   2.44624667
1984.00  -9.04107434   2.45348797
1986.00  -9.06627087   2.46074305
1988.00  -9.09148926   2.46801192
1990.00  -9.11672950   2.47529458
1992.00  -9.14199157   2.48259104
1994.00  -9.16727546   2.48990131
1996.00  -9.19258117   2.49722541
1998.00  -9.21790869   2.50456335
2000.00  -9.24325800   2.51191513
2002.00  -9.26862909   2.51928078
2004.00  -9.29402197   2.52666028
2006.00  -9.31943660   2.53405367
2008.00  -9.34487300   2.54146095
2010.00  -9.37033114   2.54888212
2012.00  -9.39581101   2.55631721
2014.00  -9.42131261   2.56376621
2016.00  -9.44683593   2.57122915
2018.00  -9.47238095   2.57870603
2020.00  -9.49794766   2.58619686
2022.00  -9.52353607   2.59370165
2024.00  -9.54914614   2.60122042
2026.00  -9.57477789   2.60875317
2028.00  -9.60043129   2.61629992
2030.00  -9.62610633   2.62386066
2032.00  -9.65180301   2.63143543
2034.00  -9.67752131   2.63902422
2036.00  -9.70326123   2.64662704
2038.00  -9.72902276   2.65424391
2040.00  -9.75480588   2.66187484
2042.00  -9.78061058   2.66951984
2044.00  -9.80643686   2.67717891
2046.00  -9.83228471   2.68485207
2048.00  -9.85815411   2.69253933
2050.00  -9.88404505   2.70024070
2052.00  -9.90995753   2.70795619
2054.00  -9.93589153   2.71568580
2056.00  -9.96184704   2.72342956
2058.00  -9.98782406   2.73118746
2060.00 -10.01382258   2.73895953
2062.00 -10.03984258   2.74674577
2064.00 -10.06588405   2.75454619
2066.00 -10.09194698   2.76236080
2068.00 -10.11803137   2.77018961
2070.00 -10.14413720   2.77803263
2072.00 -10.17026446   2.78588988
2074.00 -10.19641315   2.79376136
2076.00 -10.22258324   2.80164708
2078.00 -10.24877474   2.80954705
2080.00 -10.27498764   2.81746129
2082.00 -10.30122191   2.82538980
2084.00 -10.32747756   2.83333259
2086.00 -10.35375456   2.84128968
2088.00 -10.38005292   2.84926108
2090.00 -10.40637262   2.85724678
2092.00 -10.43271365   2.86524681
2094.00 -10.45907600   2.87326118
2096.00 -10.48545966   2.88128989
2098.00 -10.51186462   2.88933296
2100.00 -10.53829087   2.89739039
2102.00 -10.56473840   2.90546220
2104.00 -10.59120720   2.91354839
2106.00 -10.61769725   2.92164898
2108.00 -10.64420856   2.92976397
2110.00 -10.67074110   2.93789338
2112.00 -10.69729487   2.94603722
2114.00 -10.72386986   2.95419549
2116.00 -10.75046606   2.96236820
2118.00 -10.77708345   2.97055538
2120.00 -10.80372203   2.97875702
2122.00 -10.83038178   2.98697313
2124.00 -10.85706270   2.99520374
2126.00 -10.88376478   3.00344884
2128.00 -10.91048800   3.01170844
2130.00 -10.93723236   3.01998256
2132.00 -10.96399784   3.02827121
2134.00 -10.99078444   3.03657439
2136.00 -11.01759214   3.04489213
2138.00 -11.04442093   3.05322441
2140.00 -11.07127081   3.06157127
2142.00 -11.09814175   3.06993270
2144.00 -11.12503377   3.07830871
2146.00 -11.15194683   3.08669932
2148.00 -11.17888093   3.09510454
2150.00 -11.20583607   3.10352438
2152.00 -11.23281222   3.11195884
2154.00 -11.25980939   3.12040793
2156.00 -11.28682755   3.12887168
2158.00 -11.31386671   3.13735007
2160.00 -11.34092684   3.14584314
2162.00 -11.36800794   3.15435088
2164.00 -11.39511000   3.16287330
2166.00 -11.42223301   3.17141042
2168.00 -11.44937695   3.17996224
2170.00 -11.47654182   3.18852878
2172.00 -11.50372761   3.19711004
2174.00 -11.53093430   3.20570604
2176.00 -11.55816189   3.21431678
2178.00 -11.58541036   3.22294228
2180.00 -11.61267971   3.23158254
2182.00 -11.63996992   3.24023757
2184.00 -11.66728098   3.24890739
2186.00 -11.69461289   3.25759200
2188.00 -11.72196562   3.26629141
2190.00 -11.74933918   3.27500564
2192.00 -11.77673355   3.28373469
2194.00 -11.80414872   3.29247857
2196.00 -11.83158468   3.30123729
2198.00 -11.85904142   3.31001086
2200.00 -11.88651893   3.31879930
2202.00 -11.91401720   3.32760260
2204.00 -11.94153621   3.33642079
2206.00 -11.96907596   3.34525386
2208.00 -11.99663644   3.35410184
2210.00 -12.02421764   3.36296473
2212.00 -12.05181954   3.37184253
2214.00 -12.07944213   3.38073526
2216.00 -12.10708541   3.38964294
2218.00 -12.13474936   3.39856556
2220.00 -12.16243398   3.40750313
2222.00 -12.19013924   3.41645568
2224.00 -12.21786515   3.42542320
2226.00 -12.24561169   3.43440571
2228.00 -12.27337885   3.44340321
2230.00 -12.30116662   3.45241572
2232.00 -12.32897499   3.46144325
2234.00 -12.35680395   3.47048579
2236.00 -12.38465349   3.47954338
2238.00 -12.41252359   3.48861600
2240.00 -12.44041425   3.49770368
2242.00 -12.46832546   3.50680643
2244.00 -12.49625720   3.51592424
2246.00 -12.52420947   3.52505714
2248.00 -12.55218225   3.53420513
2250.00 -12.58017553   3.54336821
2252.00 -12.60818931   3.55254641
2254.00 -12.63622356   3.56173973
2256.00 -12.66427829   3.57094818
2258.00 -12.69235348   3.58017176
2260.00 -12.72044912   3.58941049
2262.00 -12.74856520   3.59866438
2264.00 -12.77670170   3.60793344
2266.00 -12.80485863   3.61721767
2268.00 -12.83303596   3.62651709
2270.00 -12.86123368   3.63583170
2272.00 -12.88945180   3.64516152
2274.00 -12.91769028   3.65450655
2276.00 -12.94594913   3.66386680
2278.00 -12.97422834   3.67324228
2280.00 -13.00252788   3.68263301
2282.00 -13.03084776   3.69203899
2284.00 -13.05918796   3.70146022
2286.00 -13.08754846   3.71089673
2288.00 -13.11592927   3.72034852
2290.00 -13.14433037   3.72981559
2292.00 -13.17275174   3.73929796
2294.00 -13.20119338   3.74879563
2296.00 -13.22965528   3.75830863
2298.00 -13.25813742   3.76783694
2300.00 -13.28663979   3.77738059
2302.00 -13.31516239   3.78693959
2304.00 -13.34370520   3.79651393
2306.00 -13.37226822   3.80610364
2308.00 -13.40085142   3.81570872
2310.00 -13.42945481   3.82532918
2312.00 -13.45807836   3.83496503
2314.00 -13.48672207   3.84461628
2316.00 -13.51538593   3.85428293
2318.00 -13.54406993   3.86396500
2320.00 -13.57277405   3.87366250
2322.00 -13.60149829   3.88337544
2324.00 -13.63024263   3.89310381
2326.00 -13.65900707   3.90284764
2328.00 -13.68779159   3.91260694
2330.00 -13.71659618   3.92238170
2332.00 -13.74542083   3.93217194
2334.00 -13.77426553   3.94197768
2336.00 -13.80313027   3.95179891
2338.00 -13.83201503   3.96163565
2340.00 -13.86091982   3.97148791
2342.00 -13.88984461   3.98135569
2344.00 -13.91878939   3.99123901
2346.00 -13.94775416   4.00113787
2348.00 -13.97673890   4.01105229
2350.00 -14.00574361   4.02098227
2352.00 -14.03476827   4.03092781
2354.00 -14.06381286   4.04088894
2356.00 -14.09287739   4.05086566
2358.00 -14.12196183   4.06085797
2360.00 -14.15106619   4.07086589
2362.00 -14.18019044   4.08088943
2364.00 -14.20933457   4.09092859
2366.00 -14.23849858   4.10098338
2368.00 -14.26768245   4.11105382
2370.00 -14.29688618   4.12113991
2372.00 -14.32610975   4.13124165
2374.00 -14.35535315   4.14135907
2376.00 -14.38461637   4.15149217
2378.00 -14.41389939   4.16164095
2380.00 -14.44320222   4.17180543
2382.00 -14.47252483   4.18198561
2384.00 -14.50186722   4.19218150
2386.00 -14.53122937   4.20239312
2388.00 -14.56061128   4.21262047
2390.00 -14.59001292   4.22286356
2392.00 -14.61943431   4.23312240
2394.00 -14.64887541   4.24339699
2396.00 -14.67833622   4.25368735
2398.00 -14.70781673   4.26399349
2400.00 -14.73731692   4.27431540
2402.00 -14.76683679   4.28465312
2404.00 -14.79637633   4.29500663
2406.00 -14.82593552   4.30537595
2408.00 -14.85551436   4.31576109
2410.00 -14.88511283   4.32616206
2412.00 -14.91473092   4.33657886
2414.00 -14.94436861   4.34701151
2416.00 -14.97402591   4.35746002
2418.00 -15.00370280   4.36792438
2420.00 -15.03339926   4.37840462
2422.00 -15.06311528   4.38890073
2424.00 -15.09285087   4.39941273
2426.00 -15.12260599   4.40994063
2428.00 -15.15238065   4.42048444
2430.00 -15.18217483   4.43104416
2432.00 -15.21198851   4.44161980
2434.00 -15.24182170   4.45221137
2436.00 -15.27167438   4.46281888
2438.00 -15.30154653   4.47344234
2440.00 -15.33143814   4.48408176
2442.00 -15.36134921   4.49473714
2444.00 -15.39127973   4.50540850
2446.00 -15.42122967   4.51609584
2448.00 -15.45119904   4.52679917
2450.00 -15.48118782   4.53751850
2452.00 -15.51119599   4.54825383
2454.00 -15.54122356   4.55900519
2456.00 -15.57127049   4.56977257
2458.00 -15.60133680   4.58055598
2460.00 -15.63142245   4.59135544
2462.00 -15.66152745   4.60217094
2464.00 -15.69165179   4.61300251
2466.00 -15.72179544   4.62385014
2468.00 -15.75195840   4.63471385
2470.00 -15.78214065   4.64559364
2472.00 -15.81234220   4.65648952
2474.00 -15.84256302   4.66740151
2476.00 -15.87280310   4.67832960
2478.00 -15.90306244   4.68927381
2480.00 -15.93334102   4.70023415
2482.00 -15.96363883   4.71121063
2484.00 -15.99395586   4.72220324
2486.00 -16.02429209   4.73321201
2488.00 -16.05464753   4.74423694
2490.00 -16.08502214   4.75527804
2492.00 -16.11541594   4.76633531
2494.00 -16.14582889   4.77740876
2496.00 -16.17626100   4.78849841
2498.00 -16.20671225   4.79960426
2500.00 -16.23718263   4.81072632
2502.00 -16.26767212   4.82186460
2504.00 -16.29818072   4.83301911
2506.00 -16.32870842   4.84418985
2508.00 -16.35925520   4.85537683
2510.00 -16.38982105   4.86658006
2512.00 -16.42040597   4.87779955
2514.00 -16.45100994   4.88903531
2516.00 -16.48163294   4.90028734
2518.00 -16.51227497   4.91155566
2520.00 -16.54293602   4.92284026
2522.00 -16.57361607   4.93414117
2524.00 -16.60431512   4.94545839
2526.00 -16.63503315   4.95679192
2528.00 -16.66577015   4.96814178
2530.00 -16.69652611   4.97950797
2532.00 -16.72730102   4.99089050
2534.00 -16.75809487   5.00228938
2536.00 -16.78890764   5.01370462
2538.00 -16.81973932   5.02513622
2540.00 -16.85058991   5.03658419
2542.00 -16.88145939   5.04804855
2544.00 -16.91234775   5.05952929
2546.00 -16.94325498   5.07102644
2548.00 -16.97418107   5.08253998
2550.00 -17.00512600   5.09406994
2552.00 -17.03608977   5.10561633
2554.00 -17.06707236   5.11717914
2556.00 -17.09807377   5.12875839
2558.00 -17.12909397   5.14035408
2560.00 -17.16013296   5.15196623
2562.00 -17.19119074   5.16359484
2564.00 -17.22226727   5.17523992
2566.00 -17.25336257   5.18690148
2568.00 -17.28447660   5.19857952
2570.00 -17.31560937   5.21027406
2572.00 -17.34676086   5.22198510
2574.00 -17.37793106   5.23371264
2576.00 -17.40911996   5.24545671
2578.00 -17.44032755   5.25721729
2580.00 -17.47155381   5.26899442
2582.00 -17.50279873   5.28078808
2584.00 -17.53406231   5.29259829
2586.00 -17.56534452   5.30442506
2588.00 -17.59664537   5.31626839
2590.00 -17.62796484   5.32812829
2592.00 -17.65930291   5.34000478
2594.00 -17.69065957   5.35189785
2596.00 -17.72203483   5.36380752
2598.00 -17.75342865   5.37573379
2600.00 -17.78484103   5.38767667
2602.00 -17.81627196   5.39963617
2604.00 -17.84772144   5.41161230
2606.00 -17.87918943   5.42360506
2608.00 -17.91067595   5.43561447
2610.00 -17.94218096   5.44764053
2612.00 -17.97370447   5.45968324
2614.00 -18.00524646   5.47174262
2616.00 -18.03680692   5.48381867
2618.00 -18.06838583   5.49591141
2620.00 -18.09998319   5.50802083
2622.00 -18.13159899   5.52014695
2624.00 -18.16323321   5.53228978
2626.00 -18.19488584   5.54444931
2628.00 -18.22655687   5.55662557
2630.00 -18.25824629   5.56881855
2632.00 -18.28995408   5.58102827
2634.00 -18.32168025   5.59325473
2636.00 -18.35342476   5.60549794
2638.00 -18.38518762   5.61775791
2640.00 -18.41696881   5.63003464
2642.00 -18.44876832   5.64232815
2644.00 -18.48058613   5.65463844
2646.00 -18.51242225   5.66696551
2648.00 -18.54427664   5.67930938
2650.00 -18.57614931   5.69167006
2652.00 -18.60804025   5.70404754
2654.00 -18.63994943   5.71644185
2656.00 -18.67187685   5.72885297
2658.00 -18.70382250   5.74128094
2660.00 -18.73578636   5.75372574
2662.00 -18.76776843   5.76618739
2664.00 -18.79976869   5.77866590
2666.00 -18.83178713   5.79116127
2668.00 -18.86382374   5.80367352
2670.00 -18.89587851   5.81620264
2672.00 -18.92795143   5.82874864
2674.00 -18.96004247   5.84131154
2676.00 -18.99215164   5.85389134
2678.00 -19.02427893   5.86648805
2680.00 -19.05642431   5.87910168
2682.00 -19.08858778   5.89173222
2684.00 -19.12076933   5.90437970
2686.00 -19.15296894   5.91704412
2688.00 -19.18518660   5.92972548
2690.00 -19.21742231   5.94242379
2692.00 -19.24967605   5.95513906
2694.00 -19.28194780   5.96787130
2696.00 -19.31423757   5.98062051
2698.00 -19.34654532   5.99338671
2700.00 -19.37887106   6.00616990
2702.00 -19.41121478   6.01897008
2704.00 -19.44357645   6.03178726
2706.00 -19.47595607   6.04462146
2708.00 -19.50835363   6.05747267
2710.00 -19.54076912   6.07034091
2712.00 -19.57320251   6.08322619
2714.00 -19.60565382   6.09612850
2716.00 -19.63812301   6.10904786
2718.00 -19.67061008   6.12198427
2720.00 -19.70311501   6.13493775
2722.00 -19.73563781   6.14790830
2724.00 -19.76817844   6.16089592
2726.00 -19.80073691   6.17390062
2728.00 -19.83331320   6.18692242
2730.00 -19.86590730   6.19996131
2732.00 -19.89851919   6.21301731
2734.00 -19.93114887   6.22609042
2736.00 -19.96379633   6.23918065
2738.00 -19.99646154   6.25228801
2740.00 -20.02914451   6.26541250
2742.00 -20.06184522   6.27855413
2744.00 -20.09456365   6.29171291
2746.00 -20.12729980   6.30488884
2748.00 -20.16005365   6.31808193
2750.00 -20.19282520   6.33129220
2752.00 -20.22561442   6.34451964
2754.00 -20.25842131   6.35776426
2756.00 -20.29124586   6.37102607
2758.00 -20.32408806   6.38430508
2760.00 -20.35694789   6.39760130
2762.00 -20.38982534   6.41091472
2764.00 -20.42272040   6.42424537
2766.00 -20.45563305   6.43759323
2768.00 -20.48856330   6.45095834
2770.00 -20.52151112   6.46434068
2772.00 -20.55447650   6.47774026
2774.00 -20.58745944   6.49115710
2776.00 -20.62045991   6.50459120
2778.00 -20.65347791   6.51804257
2780.00 -20.68651343   6.53151121
2782.00 -20.71956645   6.54499713
2784.00 -20.75263697   6.55850034
2786.00 -20.78572497   6.57202084
2788.00 -20.81883043   6.58555865
2790.00 -20.85195335   6.59911376
2792.00 -20.88509372   6.61268619
2794.00 -20.91825153   6.62627594
2796.00 -20.95142675   6.63988302
2798.00 -20.98461938   6.65350743
2800.00 -21.01782942   6.66714919
2802.00 -21.05105684   6.68080830
2804.00 -21.08430163   6.69448477
2806.00 -21.11756379   6.70817859
2808.00 -21.15084330   6.72188979
2810.00 -21.18414015   6.73561836
2812.00 -21.21745433   6.74936432
2814.00 -21.25078582   6.76312767
2816.00 -21.28413462   6.77690842
2818.00 -21.31750071   6.79070656
2820.00 -21.35088409   6.80452212
2822.00 -21.38428473   6.81835510
2824.00 -21.41770263   6.83220550
2826.00 -21.45113777   6.84607333
2828.00 -21.48459015   6.85995860
2830.00 -21.51805974   6.87386131
2832.00 -21.55154655   6.88778148
2834.00 -21.58505056   6.90171910
2836.00 -21.61857175   6.91567418
2838.00 -21.65211012   6.92964674
2840.00 -21.68566565   6.94363677
2842.00 -21.71923833   6.95764428
2844.00 -21.75282815   6.97166929
2846.00 -21.78643510   6.98571180
2848.00 -21.82005916   6.99977180
2850.00 -21.85370033   7.01384932
2852.00 -21.88735859   7.02794436
2854.00 -21.92103393   7.04205692
2856.00 -21.95472633   7.05618701
2858.00 -21.98843580   7.07033463
2860.00 -22.02216230   7.08449980
2862.00 -22.05590584   7.09868252
2864.00 -22.08966640   7.11288279
2866.00 -22.12344397   7.12710063
2868.00 -22.15723854   7.14133604
2870.00 -22.19105009   7.15558902
2872.00 -22.22487861   7.16985959
2874.00 -22.25872410   7.18414774
2876.00 -22.29258654   7.19845349
2878.00 -22.32646591   7.21277684
2880.00 -22.36036221   7.22711780
2882.00 -22.39427542   7.24147637
2884.00 -22.42820554   7.25585257
2886.00 -22.46215254   7.27024639
2888.00 -22.49611642   7.28465784
2890.00 -22.53009717   7.29908694
2892.00 -22.56409478   7.31353368
2894.00 -22.59810923   7.32799807
2896.00 -22.63214050   7.34248013
2898.00 -22.66618860   7.35697985
2900.00 -22.70025351   7.37149724
2902.00 -22.73433521   7.38603231
2904.00 -22.76843369   7.40058507
2906.00 -22.80254894   7.41515551
2908.00 -22.83668096   7.42974365
2910.00 -22.87082972   7.44434950
2912.00 -22.90499521   7.45897306
2914.00 -22.93917743   7.47361433
2916.00 -22.97337637   7.48827333
2918.00 -23.00759200   7.50295005
2920.00 -23.04182432   7.51764451
2922.00 -23.07607332   7.53235671
2924.00 -23.11033898   7.54708666
2926.00 -23.14462129   7.56183436
2928.00 -23.17892024   7.57659982
2930.00 -23.21323583   7.59138305
2932.00 -23.24756802   7.60618405
2934.00 -23.28191683   7.62100282
2936.00 -23.31628222   7.63583939
2938.00 -23.35066420   7.65069374
2940.00 -23.38506274   7.66556589
2942.00 -23.41947785   7.68045584
2944.00 -23.45390949   7.69536361
2946.00 -23.48835768   7.71028919
2948.00 -23.52282238   7.72523258
2950.00 -23.55730359   7.74019381
2952.00 -23.59180130   7.75517287
2954.00 -23.62631549   7.77016977
2956.00 -23.66084615   7.78518452
2958.00 -23.69539328   7.80021712
2960.00 -23.72995686   7.81526757
2962.00 -23.76453688   7.83033589
2964.00 -23.79913332   7.84542208
2966.00 -23.83374617   7.86052615
2968.00 -23.86837543   7.87564810
2970.00 -23.90302107   7.89078794
2972.00 -23.93768309   7.90594567
2974.00 -23.97236148   7.92112130
2976.00 -24.00705622   7.93631484
2978.00 -24.04176731   7.95152628
2980.00 -24.07649472   7.96675565
2982.00 -24.11123846   7.98200294
2984.00 -24.14599849   7.99726816
2986.00 -24.18077483   8.01255132
2988.00 -24.21556744   8.02785242
2990.00 -24.25037632   8.04317147
2992.00 -24.28520146   8.05850847
2994.00 -24.32004285   8.07386342
2996.00 -24.35490047   8.08923635
2998.00 -24.38977432   8.10462725
3000.00 -24.42466437   8.12003612
3002.00 -24.45957063   8.13546297
3004.00 -24.49449306   8.15090782
3006.00 -24.52943168   8.16637066
3008.00 -24.56438645   8.18185150
3010.00 -24.59935737   8.19735035
3012.00 -24.63434444   8.21286720
3014.00 -24.66934763   8.22840208
3016.00 -24.70436693   8.24395498
3018.00 -24.73940233   8.25952591
3020.00 -24.77445383   8.27511487
3022.00 -24.80952140   8.29072188
3024.00 -24.84460504   8.30634693
3026.00 -24.87970474   8.32199004
3028.00 -24.91482047   8.33765120
3030.00 -24.94995224   8.35333043
3032.00 -24.98510002   8.36902772
3034.00 -25.02026381   8.38474310
3036.00 -25.05544360   8.40047655
3038.00 -25.09063936   8.41622809
3040.00 -25.12585110   8.43199772
3042.00 -25.16107879   8.44778545
3044.00 -25.19632243   8.46359128
3046.00 -25.23158201   8.47941523
3048.00 -25.26685750   8.49525729
3050.00 -25.30214891   8.51111746
3052.00 -25.33745621   8.52699577
3054.00 -25.37277940   8.54289221
3056.00 -25.40811846   8.55880678
3058.00 -25.44347339   8.57473950
3060.00 -25.47884416   8.59069036
3062.00 -25.51423078   8.60665938
3064.00 -25.54963322   8.62264656
3066.00 -25.58505147   8.63865191
3068.00 -25.62048552   8.65467542
3070.00 -25.65593536   8.67071711
3072.00 -25.69140099   8.68677699
3074.00 -25.72688237   8.70285505
3076.00 -25.76237951   8.71895130
3078.00 -25.79789239   8.73506576
3080.00 -25.83342100   8.75119841
3082.00 -25.86896533   8.76734928
3084.00 -25.90452536   8.78351836
3086.00 -25.94010109   8.79970566
3088.00 -25.97569250   8.81591118
3090.00 -26.01129957   8.83213494
3092.00 -26.04692231   8.84837693
3094.00 -26.08256069   8.86463717
3096.00 -26.11821470   8.88091565
3098.00 -26.15388433   8.89721239
3100.00 -26.18956957   8.91352738
3102.00 -26.22527041   8.92986064
3104.00 -26.26098683   8.94621216
3106.00 -26.29671883   8.96258196
3108.00 -26.33246638   8.97897004
3110.00 -26.36822949   8.99537641
3112.00 -26.40400813   9.01180106
3114.00 -26.43980229   9.02824401
3116.00 -26.47561197   9.04470526
3118.00 -26.51143715   9.06118482
3120.00 -26.54727781   9.07768269
3122.00 -26.58313395   9.09419887
3124.00 -26.61900556   9.11073338
3126.00 -26.65489262   9.12728621
3128.00 -26.69079511   9.14385738
3130.00 -26.72671304   9.16044688
3132.00 -26.76264638   9.17705473
3134.00 -26.79859513   9.19368092
3136.00 -26.83455926   9.21032547
3138.00 -26.87053878   9.22698838
3140.00 -26.90653366   9.24366965
3142.00 -26.94254390   9.26036929
3144.00 -26.97856948   9.27708730
3146.00 -27.01461039   9.29382370
3148.00 -27.05066662   9.31057847
3150.00 -27.08673816   9.32735164
3152.00 -27.12282499   9.34414320
3154.00 -27.15892711   9.36095316
3156.00 -27.19504450   9.37778153
3158.00 -27.23117714   9.39462831
3160.00 -27.26732503   9.41149350
3162.00 -27.30348816   9.42837711
3164.00 -27.33966651   9.44527915
3166.00 -27.37586006   9.46219961
3168.00 -27.41206882   9.47913852
3170.00 -27.44829276   9.49609586
3172.00 -27.48453188   9.51307165
3174.00 -27.52078616   9.53006589
3176.00 -27.55705559   9.54707858
3178.00 -27.59334015   9.56410974
3180.00 -27.62963984   9.58115936
3182.00 -27.66595465   9.59822745
3184.00 -27.70228455   9.61531402
3186.00 -27.73862954   9.63241907
3188.00 -27.77498962   9.64954260
3190.00 -27.81136475   9.66668462
3192.00 -27.84775494   9.68384514
3194.00 -27.88416017   9.70102416
3196.00 -27.92058043   9.71822169
3198.00 -27.95701570   9.73543772
3200.00 -27.99346598   9.75267227
3202.00 -28.02993126   9.76992534
3204.00 -28.06641151   9.78719693
3206.00 -28.10290673   9.80448706
3208.00 -28.13941690   9.82179572
3210.00 -28.17594202   9.83912292
3212.00 -28.21248207   9.85646866
3214.00 -28.24903704   9.87383295
3216.00 -28.28560692   9.89121580
3218.00 -28.32219170   9.90861720
3220.00 -28.35879135   9.92603717
3222.00 -28.39540588   9.94347570
3224.00 -28.43203527   9.96093281
3226.00 -28.46867950   9.97840850
3228.00 -28.50533857   9.99590277
3230.00 -28.54201246  10.01341563
3232.00 -28.57870116  10.03094708
3234.00 -28.61540466  10.04849713
3236.00 -28.65212294  10.06606577
3238.00 -28.68885600  10.08365303
3240.00 -28.72560383  10.10125890
3242.00 -28.76236640  10.11888338
3244.00 -28.79914371  10.13652648
3246.00 -28.83593574  10.15418821
3248.00 -28.87274249  10.17186857
3250.00 -28.90956394  10.18956756
3252.00 -28.94640008  10.20728519
3254.00 -28.98325089  10.22502147
3256.00 -29.02011637  10.24277639
3258.00 -29.05699651  10.26054997
3260.00 -29.09389128  10.27834220
3262.00 -29.13080068  10.29615310
3264.00 -29.16772470  10.31398267
3266.00 -29.20466332  10.33183090
3268.00 -29.24161654  10.34969782
3270.00 -29.27858433  10.36758341
3272.00 -29.31556670  10.38548769
3274.00 -29.35256362  10.40341066
3276.00 -29.38957508  10.42135232
3278.00 -29.42660107  10.43931268
3280.00 -29.46364158  10.45729175
3282.00 -29.50069660  10.47528952
3284.00 -29.53776612  10.49330601
3286.00 -29.57485012  10.51134121
3288.00 -29.61194858  10.52939514
3290.00 -29.64906151  10.54746779
3292.00 -29.68618888  10.56555917
3294.00 -29.72333069  10.58366928
3296.00 -29.76048692  10.60179814
3298.00 -29.79765756  10.61994574
3300.00 -29.83484260  10.63811209
3302.00 -29.87204202  10.65629719
3304.00 -29.90925582  10.67450104
3306.00 -29.94648398  10.69272366
3308.00 -29.98372648  10.71096505
3310.00 -30.02098333  10.72922520
3312.00 -30.05825450  10.74750413
3314.00 -30.09553998  10.76580184
3316.00 -30.13283976  10.78411833
3318.00 -30.17015383  10.80245361
3320.00 -30.20748218  10.82080768
3322.00 -30.24482479  10.83918055
3324.00 -30.28218166  10.85757222
3326.00 -30.31955276  10.87598269
3328.00 -30.35693809  10.89441198
3330.00 -30.39433764  10.91286007
3332.00 -30.43175139  10.93132699
3334.00 -30.46917933  10.94981272
3336.00 -30.50662145  10.96831729
3338.00 -30.54407774  10.98684068
3340.00 -30.58154818  11.00538291
3342.00 -30.61903277  11.02394398
3344.00 -30.65653148  11.04252389
3346.00 -30.69404432  11.06112265
3348.00 -30.73157126  11.07974026
3350.00 -30.76911229  11.09837673
3352.00 -30.80666741  11.11703205
3354.00 -30.84423660  11.13570624
3356.00 -30.88181984  11.15439930
3358.00 -30.91941713  11.17311124
3360.00 -30.95702845  11.19184204
3362.00 -30.99465380  11.21059174
3364.00 -31.03229315  11.22936031
3366.00 -31.06994650  11.24814778
3368.00 -31.10761384  11.26695413
3370.00 -31.14529514  11.28577939
3372.00 -31.18299041  11.30462355
3374.00 -31.22069963  11.32348661
3376.00 -31.25842278  11.34236858
3378.00 -31.29615986  11.36126947
3380.00 -31.33391084  11.38018927
3382.00 -31.37167573  11.39912800
3384.00 -31.40945451  11.41808565
3386.00 -31.44724716  11.43706223
3388.00 -31.48505367  11.45605775
3390.00 -31.52287404  11.47507220
3392.00 -31.56070824  11.49410560
3394.00 -31.59855627  11.51315794
3396.00 -31.63641811  11.53222923
3398.00 -31.67429376  11.55131948
3400.00 -31.71218320  11.57042868
3402.00 -31.75008641  11.58955685
3404.00 -31.78800339  11.60870398
3406.00 -31.82593413  11.62787008
3408.00 -31.86387861  11.64705515
3410.00 -31.90183681  11.66625920
3412.00 -31.93980874  11.68548224
3414.00 -31.97779436  11.70472426
3416.00 -32.01579369  11.72398527
3418.00 -32.05380669  11.74326527
3420.00 -32.09183336  11.76256427
3422.00 -32.12987369  11.78188227
3424.00 -32.16792766  11.80121927
3426.00 -32.20599526  11.82057528
3428.00 -32.24407649  11.83995031
3430.00 -32.28217132  11.85934435
3432.00 -32.32027975  11.87875741
3434.00 -32.35840176  11.89818950
3436.00 -32.39653734  11.91764061
3438.00 -32.43468648  11.93711076
3440.00 -32.47284917  11.95659994
3442.00 -32.51102540  11.97610815
3444.00 -32.54921514  11.99563542
3446.00 -32.58741840  12.01518172
3448.00 -32.62563516  12.03474708
3450.00 -32.66386540  12.05433150
3452.00 -32.70210912  12.07393497
3454.00 -32.74036630  12.09355750
3456.00 -32.77863693  12.11319909
3458.00 -32.81692099  12.13285976
3460.00 -32.85521849  12.15253950
3462.00 -32.89352939  12.17223831
3464.00 -32.93185370  12.19195621
3466.00 -32.97019140  12.21169319
3468.00 -33.00854247  12.23144925
3470.00 -33.04690691  12.25122441
3472.00 -33.08528470  12.27101866
3474.00 -33.12367583  12.29083200
3476.00 -33.16208029  12.31066445
3478.00 -33.20049806  12.33051601
3480.00 -33.23892914  12.35038667
3482.00 -33.27737352  12.37027645
3484.00 -33.31583117  12.39018534
3486.00 -33.35430209  12.41011336
3488.00 -33.39278626  12.43006049
3490.00 -33.43128368  12.45002675
3492.00 -33.46979433  12.47001215
3494.00 -33.50831820  12.49001667
3496.00 -33.54685528  12.51004034
3498.00 -33.58540555  12.53008314
3500.00 -33.62396900  12.55014509
3502.00 -33.66254562  12.57022619
3504.00 -33.70113540  12.59032643
3506.00 -33.73973833  12.61044584
3508.00 -33.77835439  12.63058440
3510.00 -33.81698358  12.65074212
3512.00 -33.85562587  12.67091901
3514.00 -33.89428126  12.69111507
3516.00 -33.93294974  12.71133029
3518.00 -33.97163129  12.73156470
3520.00 -34.01032590  12.75181828
3522.00 -34.04903356  12.77209105
3524.00 -34.08775426  12.79238300
3526.00 -34.12648798  12.81269414
3528.00 -34.16523471  12.83302447
3530.00 -34.20399445  12.85337400
3532.00 -34.24276717  12.87374272
3534.00 -34.28155287  12.89413065
3536.00 -34.32035154  12.91453779
3538.00 -34.35916315  12.93496413
3540.00 -34.39798771  12.95540969
3542.00 -34.43682519  12.97587446
3544.00 -34.47567559  12.99635845
3546.00 -34.51453889  13.01686167
3548.00 -34.55341508  13.03738411
3550.00 -34.59230416  13.05792578
3552.00 -34.63120610  13.07848668
3554.00 -34.67012089  13.09906681
3556.00 -34.70904853  13.11966619
3558.00 -34.74798899  13.14028481
3560.00 -34.78694228  13.16092267
3562.00 -34.82590837  13.18157978
3564.00 -34.86488726  13.20225614
3566.00 -34.90387893  13.22295176
3568.00 -34.94288337  13.24366663
3570.00 -34.98190056  13.26440077
3572.00 -35.02093050  13.28515417
3574.00 -35.05997318  13.30592684
3576.00 -35.09902858  13.32671878
3578.00 -35.13809668  13.34752999
3580.00 -35.17717749  13.36836048
3582.00 -35.21627097  13.38921025
3584.00 -35.25537714  13.41007930
3586.00 -35.29449596  13.43096764
3588.00 -35.33362743  13.45187527
3590.00 -35.37277154  13.47280219
3592.00 -35.41192827  13.49374841
3594.00 -35.45109761  13.51471393
3596.00 -35.49027956  13.53569874
3598.00 -35.52947409  13.55670287
3600.00 -35.56868120  13.57772630
3602.00 -35.60790087  13.59876904
3604.00 -35.64713309  13.61983109
3606.00 -35.68637786  13.64091246
3608.00 -35.72563515  13.66201315
3610.00 -35.76490496  13.68313317
3612.00 -35.80418727  13.70427251
3614.00 -35.84348207  13.72543118
3616.00 -35.88278935  13.74660918
3618.00 -35.92210909  13.76780652
3620.00 -35.96144130  13.78902319
3622.00 -36.00078594  13.81025921
3624.00 -36.04014302  13.83151457
3626.00 -36.07951251  13.85278927
3628.00 -36.11889441  13.87408333
3630.00 -36.15828871  13.89539674
3632.00 -36.19769538  13.91672950
3634.00 -36.23711443  13.93808162
3636.00 -36.27654583  13.95945310
3638.00 -36.31598958  13.98084395
3640.00 -36.35544567  14.00225416
3642.00 -36.39491408  14.02368375
3644.00 -36.43439479  14.04513270
3646.00 -36.47388780  14.06660104
3648.00 -36.51339310  14.08808875
3650.00 -36.55291068  14.10959584
3652.00 -36.59244051  14.13112231
3654.00 -36.63198259  14.15266818
3656.00 -36.67153691  14.17423343
3658.00 -36.71110345  14.19581807
3660.00 -36.75068221  14.21742211
3662.00 -36.79027317  14.23904555
3664.00 -36.82987632  14.26068839
3666.00 -36.86949164  14.28235063
3668.00 -36.90911913  14.30403227
3670.00 -36.94875877  14.32573333
3672.00 -36.98841055  14.34745380
3674.00 -37.02807446  14.36919368
3676.00 -37.06775048  14.39095298
3678.00 -37.10743861  14.41273170
3680.00 -37.14713883  14.43452984
3682.00 -37.18685113  14.45634741
3684.00 -37.22657550  14.47818440
3686.00 -37.26631192  14.50004083
3688.00 -37.30606039  14.52191669
3690.00 -37.34582089  14.54381198
3692.00 -37.38559341  14.56572672
3694.00 -37.42537794  14.58766089
3696.00 -37.46517446  14.60961451
3698.00 -37.50498296  14.63158757
3700.00 -37.54480344  14.65358008
3702.00 -37.58463588  14.67559205
3704.00 -37.62448026  14.69762347
3706.00 -37.66433658  14.71967434
3708.00 -37.70420482  14.74174468
3710.00 -37.74408497  14.76383447
3712.00 -37.78397702  14.78594373
3714.00 -37.82388096  14.80807246
3716.00 -37.86379677  14.83022066
3718.00 -37.90372444  14.85238832
3720.00 -37.94366397  14.87457547
3722.00 -37.98361533  14.89678209
3724.00 -38.02357852  14.91900819
3726.00 -38.06355353  14.94125377
3728.00 -38.10354033  14.96351883
3730.00 -38.14353893  14.98580339
3732.00 -38.18354931  15.00810743
3734.00 -38.22357145  15.03043096
3736.00 -38.26360535  15.05277399
3738.00 -38.30365098  15.07513652
3740.00 -38.34370835  15.09751854
3742.00 -38.38377744  15.11992007
3744.00 -38.42385823  15.14234110
3746.00 -38.46395072  15.16478163
3748.00 -38.50405488  15.18724168
3750.00 -38.54417072  15.20972123
3752.00 -38.58429822  15.23222030
3754.00 -38.62443736  15.25473889
3756.00 -38.66458814  15.27727699
3758.00 -38.70475053  15.29983461
3760.00 -38.74492454  15.32241176
3762.00 -38.78511014  15.34500843
3764.00 -38.82530733  15.36762463
3766.00 -38.86551610  15.39026036
3768.00 -38.90573642  15.41291562
3770.00 -38.94596830  15.43559042
3772.00 -38.98621171  15.45828475
3774.00 -39.02646665  15.48099863
3776.00 -39.06673310  15.50373204
3778.00 -39.10701105  15.52648500
3780.00 -39.14730049  15.54925750
3782.00 -39.18760141  15.57204955
3784.00 -39.22791380  15.59486115
3786.00 -39.26823764  15.61769230
3788.00 -39.30857292  15.64054301
3790.00 -39.34891963  15.66341328
3792.00 -39.38927775  15.68630310
3794.00 -39.42964729  15.70921249
3796.00 -39.47002821  15.73214144
3798.00 -39.51042052  15.75508995
3800.00 -39.55082419  15.77805804
3802.00 -39.59123923  15.80104569
3804.00 -39.63166561  15.82405291
3806.00 -39.67210332  15.84707971
3808.00 -39.71255235  15.87012609
3810.00 -39.75301269  15.89319204
3812.00 -39.79348433  15.91627758
3814.00 -39.83396726  15.93938270
3816.00 -39.87446146  15.96250740
3818.00 -39.91496692  15.98565169
3820.00 -39.95548363  16.00881557
3822.00 -39.99601157  16.03199904
3824.00 -40.03655074  16.05520210
3826.00 -40.07710113  16.07842476
3828.00 -40.11766272  16.10166702
3830.00 -40.15823549  16.12492888
3832.00 -40.19881945  16.14821033
3834.00 -40.23941457  16.17151139
3836.00 -40.28002084  16.19483206
3838.00 -40.32063825  16.21817233
3840.00 -40.36126680  16.24153221
3842.00 -40.40190646  16.26491171
3844.00 -40.44255722  16.28831081
3846.00 -40.48321909  16.31172954
3848.00 -40.52389203  16.33516788
3850.00 -40.56457604  16.35862584
3852.00 -40.60527111  16.38210342
3854.00 -40.64597723  16.40560062
3856.00 -40.68669437  16.42911745
3858.00 -40.72742255  16.45265390
3860.00 -40.76816173  16.47620999
3862.00 -40.80891191  16.49978570
3864.00 -40.84967307  16.52338105
3866.00 -40.89044521  16.54699603
3868.00 -40.93122831  16.57063065
3870.00 -40.97202236  16.59428491
3872.00 -41.01282735  16.61795881
3874.00 -41.05364327  16.64165235
3876.00 -41.09447010  16.66536553
3878.00 -41.13530783  16.68909836
3880.00 -41.17615645  16.71285083
3882.00 -41.21701595  16.73662296
3884.00 -41.25788632  16.76041474
3886.00 -41.29876755  16.78422617
3888.00 -41.33965961  16.80805725
3890.00 -41.38056251  16.83190799
3892.00 -41.42147622  16.85577839
3894.00 -41.46240074  16.87966845
3896.00 -41.50333606  16.90357817
3898.00 -41.54428216  16.92750755
3900.00 -41.58523903  16.95145660
3902.00 -41.62620666  16.97542532
3904.00 -41.66718504  16.99941371
3906.00 -41.70817415  17.02342176
3908.00 -41.74917399  17.04744949
3910.00 -41.79018453  17.07149689
3912.00 -41.83120578  17.09556397
3914.00 -41.87223772  17.11965072
3916.00 -41.91328033  17.14375716
3918.00 -41.95433360  17.16788327
3920.00 -41.99539753  17.19202907
3922.00 -42.03647210  17.21619455
3924.00 -42.07755729  17.24037971
3926.00 -42.11865310  17.26458456
3928.00 -42.15975952  17.28880911
3930.00 -42.20087653  17.31305334
3932.00 -42.24200411  17.33731726
3934.00 -42.28314227  17.36160088
3936.00 -42.32429099  17.38590419
3938.00 -42.36545025  17.41022720
3940.00 -42.40662004  17.43456991
3942.00 -42.44780035  17.45893231
3944.00 -42.48899117  17.48331442
3946.00 -42.53019249  17.50771623
3948.00 -42.57140430  17.53213775
3950.00 -42.61262658  17.55657897
3952.00 -42.65385932  17.58103990
3954.00 -42.69510251  17.60552054
3956.00 -42.73635614  17.63002089
3958.00 -42.77762020  17.65454095
3960.00 -42.81889467  17.67908073
3962.00 -42.86017954  17.70364022
3964.00 -42.90147480  17.72821942
3966.00 -42.94278044  17.75281835
3968.00 -42.98409645  17.77743699
3970.00 -43.02542282  17.80207536
3972.00 -43.06675952  17.82673344
3974.00 -43.10810656  17.85141125
3976.00 -43.14946392  17.87610879
3978.00 -43.19083158  17.90082605
3980.00 -43.23220954  17.92556304
3982.00 -43.27359779  17.95031976
3984.00 -43.31499631  17.97509621
3986.00 -43.35640508  17.99989239
3988.00 -43.39782411  18.02470831
3990.00 -43.43925337  18.04954396
3992.00 -43.48069286  18.07439935
3994.00 -43.52214256  18.09927447
3996.00 -43.56360246  18.12416934
3998.00 -43.60507255  18.14908394
4000.00 -43.64655282  18.17401829
4002.00 -43.68804325  18.19897237
4004.00 -43.72954384  18.22394621
4006.00 -43.77105457  18.24893978
4008.00 -43.81257543  18.27395311
4010.00 -43.85410640  18.29898618
4012.00 -43.89564749  18.32403900
4014.00 -43.93719867  18.34911158
4016.00 -43.97875993  18.37420390
4018.00 -44.02033126  18.39931598
4020.00 -44.06191265  18.42444781
4022.00 -44.10350409  18.44959940
4024.00 -44.14510557  18.47477074
4026.00 -44.18671707  18.49996185
4028.00 -44.22833858  18.52517271
4030.00 -44.26997009  18.55040333
4032.00 -44.31161159  18.57565371
4034.00 -44.35326307  18.60092386
4036.00 -44.39492451  18.62621377
4038.00 -44.43659591  18.65152345
4040.00 -44.47827725  18.67685289
4042.00 -44.51996851  18.70220210
4044.00 -44.56166970  18.72757107
4046.00 -44.60338079  18.75295982
4048.00 -44.64510177  18.77836834
4050.00 -44.68683264  18.80379663
4052.00 -44.72857338  18.82924470
4054.00 -44.77032398  18.85471253
4056.00 -44.81208442  18.88020015
4058.00 -44.85385470  18.90570754
4060.00 -44.89563481  18.93123470
4062.00 -44.93742472  18.95678165
4064.00 -44.97922444  18.98234837
4066.00 -45.02103395  19.00793488
4068.00 -45.06285323  19.03354116
4070.00 -45.10468227  19.05916723
4072.00 -45.14652107  19.08481309
4074.00 -45.18836961  19.11047873
4076.00 -45.23022789  19.13616415
4078.00 -45.27209588  19.16186936
4080.00 -45.31397357  19.18759436
4082.00 -45.35586096  19.21333915
4084.00 -45.39775803  19.23910373
4086.00 -45.43966478  19.26488809
4088.00 -45.48158118  19.29069225
4090.00 -45.52350723  19.31651621
4092.00 -45.56544292  19.34235995
4094.00 -45.60738823  19.36822349
4096.00 -45.64934316  19.39410683
4098.00 -45.69130768  19.42000996
4100.00 -45.73328179  19.44593289
4102.00 -45.77526549  19.47187562
4104.00 -45.81725874  19.49783814
4106.00 -45.85926155  19.52382047
4108.00 -45.90127391  19.54982260
4110.00 -45.94329579  19.57584453
4112.00 -45.98532719  19.60188626
4114.00 -46.02736810  19.62794780
4116.00 -46.06941851  19.65402914
4118.00 -46.11147840  19.68013028
4120.00 -46.15354776  19.70625123
4122.00 -46.19562658  19.73239199
4124.00 -46.23771485  19.75855256
4126.00 -46.27981256  19.78473293
4128.00 -46.32191969  19.81093311
4130.00 -46.36403624  19.83715311
4132.00 -46.40616219  19.86339291
4134.00 -46.44829753  19.88965253
4136.00 -46.49044225  19.91593196
4138.00 -46.53259633  19.94223120
4140.00 -46.57475978  19.96855026
4142.00 -46.61693256  19.99488913
4144.00 -46.65911468  20.02124781
4146.00 -46.70130611  20.04762631
4148.00 -46.74350686  20.07402463
4150.00 -46.78571690  20.10044277
4152.00 -46.82793623  20.12688073
4154.00 -46.87016484  20.15333850
4156.00 -46.91240270  20.17981609
4158.00 -46.95464982  20.20631351
4160.00 -46.99690617  20.23283074
4162.00 -47.03917175  20.25936780
4164.00 -47.08144655  20.28592468
4166.00 -47.12373055  20.31250138
4168.00 -47.16602375  20.33909791
4170.00 -47.20832612  20.36571426
4172.00 -47.25063767  20.39235044
4174.00 -47.29295837  20.41900644
4176.00 -47.33528822  20.44568227
4178.00 -47.37762720  20.47237792
4180.00 -47.41997531  20.49909340
4182.00 -47.46233252  20.52582871
4184.00 -47.50469884  20.55258385
4186.00 -47.54707424  20.57935882
4188.00 -47.58945872  20.60615362
4190.00 -47.63185227  20.63296825
4192.00 -47.67425487  20.65980271
4194.00 -47.71666651  20.68665700
4196.00 -47.75908718  20.71353112
4198.00 -47.80151686  20.74042508
4200.00 -47.84395556  20.76733887
4202.00 -47.88640325  20.79427249
4204.00 -47.92885992  20.82122594
4206.00 -47.97132557  20.84819923
4208.00 -48.01380018  20.87519236
4210.00 -48.05628373  20.90220532
4212.00 -48.09877623  20.92923812
4214.00 -48.14127765  20.95629075
4216.00 -48.18378798  20.98336322
4218.00 -48.22630722  21.01045553
4220.00 -48.26883534  21.03756768
4222.00 -48.31137235  21.06469966
4224.00 -48.35391822  21.09185148
4226.00 -48.39647296  21.11902315
4228.00 -48.43903653  21.14621465
4230.00 -48.48160894  21.17342599
4232.00 -48.52419018  21.20065717
4234.00 -48.56678022  21.22790819
4236.00 -48.60937906  21.25517906
4238.00 -48.65198669  21.28246976
4240.00 -48.69460309  21.30978031
4242.00 -48.73722826  21.33711070
4244.00 -48.77986218  21.36446093
4246.00 -48.82250485  21.39183101
4248.00 -48.86515624  21.41922093
4250.00 -48.90781635  21.44663069
4252.00 -48.95048517  21.47406029
4254.00 -48.99316268  21.50150974
4256.00 -49.03584888  21.52897904
4258.00 -49.07854375  21.55646818
4260.00 -49.12124728  21.58397716
4262.00 -49.16395946  21.61150599
4264.00 -49.20668027  21.63905467
4266.00 -49.24940971  21.66662319
4268.00 -49.29214777  21.69421156
4270.00 -49.33489443  21.72181977
4272.00 -49.37764969  21.74944783
4274.00 -49.42041352  21.77709574
4276.00 -49.46318592  21.80476350
4278.00 -49.50596688  21.83245110
4280.00 -49.54875638  21.86015855
4282.00 -49.59155442  21.88788585
4284.00 -49.63436099  21.91563300
4286.00 -49.67717606  21.94339999
4288.00 -49.71999963  21.97118683
4290.00 -49.76283170  21.99899353
4292.00 -49.80567224  22.02682007
4294.00 -49.84852124  22.05466646
4296.00 -49.89137870  22.08253270
4298.00 -49.93424460  22.11041878
4300.00 -49.97711894  22.13832472
4302.00 -50.02000169  22.16625051
4304.00 -50.06289285  22.19419614
4306.00 -50.10579241  22.22216163
4308.00 -50.14870036  22.25014697
4310.00 -50.19161668  22.27815215
4312.00 -50.23454136  22.30617719
4314.00 -50.27747439  22.33422208
4316.00 -50.32041577  22.36228681
4318.00 -50.36336547  22.39037140
4320.00 -50.40632349  22.41847584
4322.00 -50.44928982  22.44660012
4324.00 -50.49226443  22.47474426
4326.00 -50.53524734  22.50290825
4328.00 -50.57823851  22.53109209
4330.00 -50.62123795  22.55929578
4332.00 -50.66424563  22.58751932
4334.00 -50.70726155  22.61576271
4336.00 -50.75028570  22.64402595
4338.00 -50.79331806  22.67230905
4340.00 -50.83635862  22.70061199
4342.00 -50.87940738  22.72893478
4344.00 -50.92246431  22.75727743
4346.00 -50.96552942  22.78563992
4348.00 -51.00860268  22.81402227
4350.00 -51.05168409  22.84242447
4352.00 -51.09477364  22.87084651
4354.00 -51.13787131  22.89928841
4356.00 -51.18097709  22.92775016
4358.00 -51.22409097  22.95623175
4360.00 -51.26721294  22.98473320
4362.00 -51.31034299  23.01325450
4364.00 -51.35348111  23.04179565
4366.00 -51.39662728  23.07035664
4368.00 -51.43978150  23.09893749
4370.00 -51.48294375  23.12753819
4372.00 -51.52611402  23.15615873
4374.00 -51.56929230  23.18479913
4376.00 -51.61247858  23.21345937
4378.00 -51.65567285  23.24213947
4380.00 -51.69887510  23.27083941
4382.00 -51.74208531  23.29955920
4384.00 -51.78530347  23.32829884
4386.00 -51.82852958  23.35705833
4388.00 -51.87176361  23.38583767
4390.00 -51.91500557  23.41463685
4392.00 -51.95825544  23.44345588
4394.00 -52.00151320  23.47229476
4396.00 -52.04477885  23.50115349
4398.00 -52.08805237  23.53003207
4400.00 -52.13133376  23.55893049
4402.00 -52.17462300  23.58784876
4404.00 -52.21792008  23.61678687
4406.00 -52.26122499  23.64574483
4408.00 -52.30453771  23.67472264
4410.00 -52.34785825  23.70372029
4412.00 -52.39118658  23.73273779
4414.00 -52.43452269  23.76177513
4416.00 -52.47786658  23.79083232
4418.00 -52.52121823  23.81990935
4420.00 -52.56457763  23.84900623
4422.00 -52.60794477  23.87812295
4424.00 -52.65131964  23.90725952
4426.00 -52.69470223  23.93641592
4428.00 -52.73809252  23.96559217
4430.00 -52.78149050  23.99478827
4432.00 -52.82489617  24.02400420
4434.00 -52.86830951  24.05323998
4436.00 -52.91173051  24.08249560
4438.00 -52.95515917  24.11177106
4440.00 -52.99859546  24.14106636
4442.00 -53.04203937  24.17038150
4444.00 -53.08549091  24.19971648
4446.00 -53.12895004  24.22907131
4448.00 -53.17241677  24.25844597
4450.00 -53.21589109  24.28784047
4452.00 -53.25937297  24.31725480
4454.00 -53.30286242  24.34668898
4456.00 -53.34635941  24.37614299
4458.00 -53.38986394  24.40561685
4460.00 -53.43337600  24.43511053
4462.00 -53.47689557  24.46462406
4464.00 -53.52042265  24.49415742
4466.00 -53.56395722  24.52371061
4468.00 -53.60749927  24.55328364
4470.00 -53.65104879  24.58287651
4472.00 -53.69460577  24.61248920
4474.00 -53.73817020  24.64212174
4476.00 -53.78174207  24.67177410
4478.00 -53.82532136  24.70144630
4480.00 -53.86890807  24.73113833
4482.00 -53.91250218  24.76085019
4484.00 -53.95610368  24.79058188
4486.00 -53.99971257  24.82033340
4488.00 -54.04332882  24.85010475
4490.00 -54.08695244  24.87989593
4492.00 -54.13058340  24.90970694
4494.00 -54.17422170  24.93953777
4496.00 -54.21786732  24.96938844
4498.00 -54.26152026  24.99925893
4500.00 -54.30518050  25.02914925
4502.00 -54.34884804  25.05905939
4504.00 -54.39252285  25.08898936
4506.00 -54.43620494  25.11893915
4508.00 -54.47989429  25.14890877
4510.00 -54.52359088  25.17889821
4512.00 -54.56729471  25.20890747
4514.00 -54.61100576  25.23893656
4516.00 -54.65472403  25.26898546
4518.00 -54.69844951  25.29905419
4520.00 -54.74218217  25.32914274
4522.00 -54.78592202  25.35925110
4524.00 -54.82966904  25.38937929
4526.00 -54.87342322  25.41952729
4528.00 -54.91718454  25.44969511
4530.00 -54.96095300  25.47988275
4532.00 -55.00472859  25.51009020
4534.00 -55.04851129  25.54031747
4536.00 -55.09230110  25.57056456
4538.00 -55.13609800  25.60083145
4540.00 -55.17990198  25.63111816
4542.00 -55.22371304  25.66142469
4544.00 -55.26753115  25.69175102
4546.00 -55.31135631  25.72209717
4548.00 -55.35518851  25.75246312
4550.00 -55.39902774  25.78284889
4552.00 -55.44287398  25.81325446
4554.00 -55.48672722  25.84367984
4556.00 -55.53058746  25.87412503
4558.00 -55.57445469  25.90459003
4560.00 -55.61832888  25.93507483
4562.00 -55.66221003  25.96557943
4564.00 -55.70609814  25.99610384
4566.00 -55.74999318  26.02664805
4568.00 -55.79389515  26.05721207
4570.00 -55.83780404  26.08779588
4572.00 -55.88171983  26.11839950
4574.00 -55.92564252  26.14902292
4576.00 -55.96957209  26.17966613
4578.00 -56.01350853  26.21032914
4580.00 -56.05745184  26.24101195
4582.00 -56.10140199  26.27171456
4584.00 -56.14535899  26.30243696
4586.00 -56.18932281  26.33317916
4588.00 -56.23329346  26.36394115
4590.00 -56.27727090  26.39472293
4592.00 -56.32125515  26.42552451
4594.00 -56.36524618  26.45634587
4596.00 -56.40924398  26.48718703
4598.00 -56.45324855  26.51804798
4600.00 -56.49725987  26.54892871
4602.00 -56.54127793  26.57982923
4604.00 -56.58530272  26.61074954
4606.00 -56.62933423  26.64168963
4608.00 -56.67337245  26.67264951
4610.00 -56.71741737  26.70362917
4612.00 -56.76146897  26.73462861
4614.00 -56.80552725  26.76564783
4616.00 -56.84959219  26.79668684
4618.00 -56.89366379  26.82774562
4620.00 -56.93774203  26.85882418
4622.00 -56.98182690  26.88992252
4624.00 -57.02591839  26.92104064
4626.00 -57.07001650  26.95217853
4628.00 -57.11412120  26.98333620
4630.00 -57.15823249  27.01451364
4632.00 -57.20235036  27.04571085
4634.00 -57.24647480  27.07692784
4636.00 -57.29060579  27.10816459
4638.00 -57.33474333  27.13942111
4640.00 -57.37888740  27.17069741
4642.00 -57.42303799  27.20199347
4644.00 -57.46719510  27.23330929
4646.00 -57.51135871  27.26464488
4648.00 -57.55552881  27.29600023
4650.00 -57.59970539  27.32737535
4652.00 -57.64388844  27.35877023
4654.00 -57.68807794  27.39018487
4656.00 -57.73227390  27.42161927
4658.00 -57.77647629  27.45307342
4660.00 -57.82068510  27.48454734
4662.00 -57.86490033  27.51604100
4664.00 -57.90912197  27.54755443
4666.00 -57.95335000  27.57908761
4668.00 -57.99758441  27.61064054
4670.00 -58.04182519  27.64221322
4672.00 -58.08607234  27.67380565
4674.00 -58.13032583  27.70541784
4676.00 -58.17458566  27.73704976
4678.00 -58.21885183  27.76870144
4680.00 -58.26312431  27.80037286
4682.00 -58.30740309  27.83206403
4684.00 -58.35168817  27.86377494
4686.00 -58.39597954  27.89550559
4688.00 -58.44027719  27.92725598
4690.00 -58.48458109  27.95902611
4692.00 -58.52889125  27.99081598
4694.00 -58.57320765  28.02262559
4696.00 -58.61753029  28.05445493
4698.00 -58.66185914  28.08630401
4700.00 -58.70619421  28.11817282
4702.00 -58.75053547  28.15006136
4704.00 -58.79488292  28.18196963
4706.00 -58.83923655  28.21389763
4708.00 -58.88359635  28.24584536
4710.00 -58.92796230  28.27781282
4712.00 -58.97233440  28.30980000
4714.00 -59.01671263  28.34180691
4716.00 -59.06109699  28.37383354
4718.00 -59.10548746  28.40587989
4720.00 -59.14988404  28.43794596
4722.00 -59.19428671  28.47003175
4724.00 -59.23869545  28.50213726
4726.00 -59.28311027  28.53426248
4728.00 -59.32753115  28.56640742
4730.00 -59.37195808  28.59857207
4732.00 -59.41639105  28.63075644
4734.00 -59.46083004  28.66296051
4736.00 -59.50527505  28.69518430
4738.00 -59.54972607  28.72742779
4740.00 -59.59418308  28.75969099
4742.00 -59.63864608  28.79197389
4744.00 -59.68311506  28.82427650
4746.00 -59.72759000  28.85659881
4748.00 -59.77207089  28.88894083
4750.00 -59.81655772  28.92130254
4752.00 -59.86105049  28.95368395
4754.00 -59.90554917  28.98608505
4756.00 -59.95005377  29.01850585
4758.00 -59.99456427  29.05094635
4760.00 -60.03908066  29.08340654
4762.00 -60.08360292  29.11588642
4764.00 -60.12813106  29.14838598
4766.00 -60.17266505  29.18090524
4768.00 -60.21720489  29.21344418
4770.00 -60.26175056  29.24600281
4772.00 -60.30630206  29.27858112
4774.00 -60.35085938  29.31117912
4776.00 -60.39542250  29.34379679
4778.00 -60.43999141  29.37643414
4780.00 -60.48456611  29.40909117
4782.00 -60.52914658  29.44176788
4784.00 -60.57373281  29.47446426
4786.00 -60.61832480  29.50718032
4788.00 -60.66292252  29.53991604
4790.00 -60.70752598  29.57267144
4792.00 -60.75213516  29.60544650
4794.00 -60.79675004  29.63824123
4796.00 -60.84137062  29.67105563
4798.00 -60.88599690  29.70388968
4800.00 -60.93062884  29.73674341
4802.00 -60.97526646  29.76961679
4804.00 -61.01990973  29.80250983
4806.00 -61.06455865  29.83542252
4808.00 -61.10921321  29.86835488
4810.00 -61.15387339  29.90130689
4812.00 -61.19853918  29.93427854
4814.00 -61.24321058  29.96726986
4816.00 -61.28788757  30.00028082
4818.00 -61.33257014  30.03331142
4820.00 -61.37725829  30.06636168
4822.00 -61.42195200  30.09943157
4824.00 -61.46665126  30.13252111
4826.00 -61.51135606  30.16563029
4828.00 -61.55606639  30.19875911
4830.00 -61.60078224  30.23190757
4832.00 -61.64550360  30.26507567
4834.00 -61.69023046  30.29826339
4836.00 -61.73496281  30.33147075
4838.00 -61.77970063  30.36469775
4840.00 -61.82444393  30.39794437
4842.00 -61.86919268  30.43121061
4844.00 -61.91394687  30.46449649
4846.00 -61.95870651  30.49780199
4848.00 -62.00347156  30.53112711
4850.00 -62.04824204  30.56447185
4852.00 -62.09301792  30.59783621
4854.00 -62.13779919  30.63122018
4856.00 -62.18258584  30.66462378
4858.00 -62.22737787  30.69804698
4860.00 -62.27217527  30.73148980
4862.00 -62.31697801  30.76495223
4864.00 -62.36178610  30.79843426
4866.00 -62.40659952  30.83193590
4868.00 -62.45141826  30.86545715
4870.00 -62.49624231  30.89899800
4872.00 -62.54107167  30.93255845
4874.00 -62.58590631  30.96613850
4876.00 -62.63074623  30.99973815
4878.00 -62.67559142  31.03335739
4880.00 -62.72044187  31.06699623
4882.00 -62.76529757  31.10065466
4884.00 -62.81015851  31.13433268
4886.00 -62.85502468  31.16803029
4888.00 -62.89989606  31.20174748
4890.00 -62.94477265  31.23548426
4892.00 -62.98965444  31.26924062
4894.00 -63.03454141  31.30301657
4896.00 -63.07943356  31.33681209
4898.00 -63.12433087  31.37062719
4900.00 -63.16923334  31.40446186
4902.00 -63.21414096  31.43831611
4904.00 -63.25905371  31.47218993
4906.00 -63.30397158  31.50608332
4908.00 -63.34889457  31.53999628
4910.00 -63.39382266  31.57392880
4912.00 -63.43875585  31.60788089
4914.00 -63.48369412  31.64185254
4916.00 -63.52863746  31.67584374
4918.00 -63.57358586  31.70985451
4920.00 -63.61853932  31.74388483
4922.00 -63.66349782  31.77793471
4924.00 -63.70846135  31.81200414
4926.00 -63.75342990  31.84609312
4928.00 -63.79840346  31.88020165
4930.00 -63.84338202  31.91432972
4932.00 -63.88836557  31.94847734
4934.00 -63.93335411  31.98264451
4936.00 -63.97834761  32.01683121
4938.00 -64.02334607  32.05103745
4940.00 -64.06834948  32.08526323
4942.00 -64.11335784  32.11950854
4944.00 -64.15837112  32.15377338
4946.00 -64.20338931  32.18805775
4948.00 -64.24841242  32.22236166
4950.00 -64.29344043  32.25668509
4952.00 -64.33847332  32.29102804
4954.00 -64.38351109  32.32539052
4956.00 -64.42855373  32.35977251
4958.00 -64.47360122  32.39417403
4960.00 -64.51865357  32.42859506
4962.00 -64.56371074  32.46303560
4964.00 -64.60877275  32.49749566
4966.00 -64.65383957  32.53197522
4968.00 -64.69891120  32.56647430
4970.00 -64.74398763  32.60099288
4972.00 -64.78906884  32.63553096
4974.00 -64.83415482  32.67008855
4976.00 -64.87924557  32.70466563
4978.00 -64.92434108  32.73926221
4980.00 -64.96944133  32.77387829
4982.00 -65.01454632  32.80851386
4984.00 -65.05965603  32.84316892
4986.00 -65.10477046  32.87784347
4988.00 -65.14988959  32.91253751
4990.00 -65.19501341  32.94725103
4992.00 -65.24014192  32.98198404
4994.00 -65.28527510  33.01673652
4996.00 -65.33041295  33.05150848
4998.00 -65.37555545  33.08629992
5000.00 -65.42070260  33.12111084
