wavelength(nm)         real         imag
100.00   3.86240438   0.00035926
102.00   3.86088566   0.00038125
104.00   3.85933688   0.00040412
106.00   3.85775804   0.00042788
108.00   3.85614914   0.00045256
110.00   3.85451017   0.00047817
112.00   3.85284115   0.00050472
114.00   3.85114207   0.00053225
116.00   3.84941293   0.00056075
118.00   3.84765374   0.00059025
120.00   3.84586448   0.00062078
122.00   3.84404518   0.00065233
124.00   3.84219581   0.00068494
126.00   3.84031640   0.00071862
128.00   3.83840693   0.00075338
130.00   3.83646741   0.00078925
132.00   3.83449783   0.00082623
134.00   3.83249821   0.00086435
136.00   3.83046854   0.00090363
138.00   3.82840882   0.00094408
140.00   3.82631905   0.00098572
142.00   3.82419923   0.00102857
144.00   3.82204937   0.00107264
146.00   3.81986946   0.00111795
148.00   3.81765951   0.00116452
150.00   3.81541951   0.00121236
152.00   3.81314947   0.00126150
154.00   3.81084940   0.00131195
156.00   3.80851928   0.00136372
158.00   3.80615912   0.00141684
160.00   3.80376892   0.00147132
162.00   3.80134869   0.00152718
164.00   3.79889842   0.00158443
166.00   3.79641812   0.00164310
168.00   3.79390778   0.00170320
170.00   3.79136741   0.00176474
172.00   3.78879701   0.00182775
174.00   3.78619657   0.00189224
176.00   3.78356611   0.00195823
178.00   3.78090562   0.00202574
180.00   3.77821510   0.00209478
182.00   3.77549456   0.00216537
184.00   3.77274399   0.00223753
186.00   3.76996340   0.00231127
188.00   3.76715279   0.00238661
190.00   3.76431215   0.00246358
192.00   3.76144150   0.00254218
194.00   3.75854083   0.00262244
196.00   3.75561013   0.00270436
198.00   3.75264943   0.00278798
200.00   3.74965871   0.00287329
202.00   3.74663797   0.00296034
204.00   3.74358723   0.00304912
206.00   3.74050647   0.00313966
208.00   3.73739570   0.00323197
210.00   3.73425493   0.00332607
212.00   3.73108415   0.00342199
214.00   3.72788336   0.00351972
216.00   3.72465257   0.00361930
218.00   3.72139178   0.00372074
220.00   3.71810098   0.00382406
222.00   3.71478019   0.00392927
224.00   3.71142940   0.00403640
226.00   3.70804861   0.00414545
228.00   3.70463783   0.00425645
230.00   3.70119705   0.00436941
232.00   3.69772628   0.00448435
234.00   3.69422552   0.00460129
236.00   3.69069477   0.00472024
238.00   3.68713404   0.00484122
240.00   3.68354331   0.00496426
242.00   3.67992261   0.00508935
244.00   3.67627192   0.00521654
246.00   3.67259125   0.00534582
248.00   3.66888060   0.00547722
250.00   3.66513997   0.00561075
252.00   3.66136936   0.00574644
254.00   3.65756878   0.00588429
256.00   3.65373823   0.00602433
258.00   3.64987770   0.00616658
260.00   3.64598721   0.00631104
262.00   3.64206675   0.00645774
264.00   3.63811632   0.00660670
266.00   3.63413593   0.00675792
268.00   3.63012557   0.00691144
270.00   3.62608526   0.00706726
272.00   3.62201498   0.00722541
274.00   3.61791475   0.00738589
276.00   3.61378456   0.00754873
278.00   3.60962441   0.00771395
280.00   3.60543432   0.00788156
282.00   3.60121427   0.00805158
284.00   3.59696428   0.00822402
286.00   3.59268434   0.00839890
288.00   3.58837445   0.00857625
290.00   3.58403463   0.00875607
292.00   3.57966486   0.00893839
294.00   3.57526515   0.00912322
296.00   3.57083550   0.00931058
298.00   3.56637592   0.00950048
300.00   3.56188641   0.00969295
302.00   3.55736697   0.00988799
304.00   3.55281759   0.01008563
306.00   3.54823829   0.01028589
308.00   3.54362906   0.01048878
310.00   3.53898991   0.01069431
312.00   3.53432084   0.01090252
314.00   3.52962185   0.01111340
316.00   3.52489295   0.01132698
318.00   3.52013413   0.01154328
320.00   3.51534539   0.01176232
322.00   3.51052674   0.01198410
324.00   3.50567819   0.01220865
326.00   3.50079973   0.01243599
328.00   3.49589136   0.01266613
330.00   3.49095309   0.01289909
332.00   3.48598493   0.01313488
334.00   3.48098686   0.01337353
336.00   3.47595890   0.01361505
338.00   3.47090104   0.01385945
340.00   3.46581329   0.01410676
342.00   3.46069566   0.01435699
344.00   3.45554813   0.01461016
346.00   3.45037072   0.01486629
348.00   3.44516343   0.01512539
350.00   3.43992626   0.01538748
352.00   3.43465921   0.01565257
354.00   3.42936229   0.01592069
356.00   3.42403549   0.01619185
358.00   3.41867882   0.01646607
360.00   3.41329228   0.01674336
362.00   3.40787588   0.01702375
364.00   3.40242961   0.01730724
366.00   3.39695348   0.01759386
368.00   3.39144749   0.01788362
370.00   3.38591165   0.01817655
372.00   3.38034595   0.01847265
374.00   3.37475040   0.01877194
376.00   3.36912500   0.01907445
378.00   3.36346975   0.01938019
380.00   3.35778466   0.01968917
382.00   3.35206972   0.02000141
384.00   3.34632495   0.02031693
386.00   3.34055034   0.02063575
388.00   3.33474589   0.02095788
390.00   3.32891161   0.02128334
392.00   3.32304751   0.02161215
394.00   3.31715357   0.02194433
396.00   3.31122981   0.02227988
398.00   3.30527623   0.02261884
400.00   3.29929283   0.02296121
402.00   3.29327962   0.02330701
404.00   3.28723659   0.02365626
406.00   3.28116375   0.02400898
408.00   3.27506110   0.02436518
410.00   3.26892864   0.02472488
412.00   3.26276639   0.02508810
414.00   3.25657433   0.02545486
416.00   3.25035247   0.02582516
418.00   3.24410082   0.02619904
420.00   3.23781937   0.02657649
422.00   3.23150814   0.02695756
424.00   3.22516712   0.02734224
426.00   3.21879631   0.02773055
428.00   3.21239572   0.02812252
430.00   3.20596536   0.02851816
432.00   3.19950522   0.02891749
434.00   3.19301530   0.02932052
436.00   3.18649562   0.02972727
438.00   3.17994617   0.03013776
440.00   3.17336695   0.03055201
442.00   3.16675797   0.03097002
444.00   3.16011924   0.03139183
446.00   3.15345074   0.03181744
448.00   3.14675250   0.03224688
450.00   3.14002450   0.03268015
452.00   3.13326676   0.03311728
454.00   3.12647927   0.03355828
456.00   3.11966205   0.03400318
458.00   3.11281508   0.03445198
460.00   3.10593838   0.03490470
462.00   3.09903195   0.03536137
464.00   3.09209578   0.03582200
466.00   3.08512990   0.03628660
468.00   3.07813428   0.03675519
470.00   3.07110895   0.03722779
472.00   3.06405390   0.03770441
474.00   3.05696914   0.03818508
476.00   3.04985467   0.03866981
478.00   3.04271049   0.03915862
480.00   3.03553660   0.03965151
482.00   3.02833301   0.04014852
484.00   3.02109973   0.04064966
486.00   3.01383675   0.04115494
488.00   3.00654407   0.04166438
490.00   2.99922171   0.04217799
492.00   2.99186966   0.04269581
494.00   2.98448793   0.04321783
496.00   2.97707652   0.04374408
498.00   2.96963544   0.04427458
500.00   2.96216468   0.04480934
502.00   2.95466425   0.04534838
504.00   2.94713416   0.04589171
506.00   2.93957440   0.04643935
508.00   2.93198498   0.04699133
510.00   2.92436591   0.04754765
512.00   2.91671718   0.04810834
514.00   2.90903880   0.04867340
516.00   2.90133078   0.04924286
518.00   2.89359312   0.04981674
520.00   2.88582581   0.05039504
522.00   2.87802887   0.05097780
524.00   2.87020229   0.05156501
526.00   2.86234609   0.05215671
528.00   2.85446026   0.05275291
530.00   2.84654480   0.05335362
532.00   2.83859973   0.05395886
534.00   2.83062504   0.05456865
536.00   2.82262074   0.05518300
538.00   2.81458683   0.05580194
540.00   2.80652332   0.05642547
542.00   2.79843020   0.05705362
544.00   2.79030748   0.05768641
546.00   2.78215517   0.05832384
548.00   2.77397327   0.05896594
550.00   2.76576178   0.05961271
552.00   2.75752071   0.06026419
554.00   2.74925006   0.06092039
556.00   2.74094983   0.06158132
558.00   2.73262002   0.06224699
560.00   2.72426065   0.06291744
562.00   2.71587171   0.06359266
564.00   2.70745320   0.06427269
566.00   2.69900514   0.06495753
568.00   2.69052753   0.06564721
570.00   2.68202036   0.06634173
572.00   2.67348364   0.06704113
574.00   2.66491738   0.06774540
576.00   2.65632158   0.06845458
578.00   2.64769625   0.06916867
580.00   2.63904138   0.06988770
582.00   2.63035698   0.07061168
584.00   2.62164306   0.07134063
586.00   2.61289961   0.07207456
588.00   2.60412665   0.07281349
590.00   2.59532417   0.07355743
592.00   2.58649218   0.07430641
594.00   2.57763069   0.07506045
596.00   2.56873969   0.07581955
598.00   2.55981920   0.07658373
600.00   2.55086921   0.07735301
602.00   2.54188973   0.07812742
604.00   2.53288076   0.07890695
606.00   2.52384231   0.07969164
608.00   2.51477439   0.08048149
610.00   2.50567698   0.08127653
612.00   2.49655011   0.08207677
614.00   2.48739376   0.08288223
616.00   2.47820796   0.08369292
618.00   2.46899269   0.08450886
620.00   2.45974797   0.08533007
622.00   2.45047380   0.08615657
624.00   2.44117018   0.08698836
626.00   2.43183712   0.08782547
628.00   2.42247462   0.08866792
630.00   2.41308269   0.08951572
632.00   2.40366132   0.09036888
634.00   2.39421052   0.09122743
636.00   2.38473031   0.09209138
638.00   2.37522067   0.09296075
640.00   2.36568162   0.09383555
642.00   2.35611316   0.09471580
644.00   2.34651529   0.09560152
646.00   2.33688802   0.09649272
648.00   2.32723136   0.09738942
650.00   2.31754530   0.09829164
652.00   2.30782985   0.09919939
654.00   2.29808501   0.10011269
656.00   2.28831079   0.10103156
658.00   2.27850720   0.10195601
660.00   2.26867423   0.10288607
662.00   2.25881190   0.10382174
664.00   2.24892020   0.10476304
666.00   2.23899914   0.10570999
668.00   2.22904872   0.10666260
670.00   2.21906896   0.10762090
672.00   2.20905984   0.10858490
674.00   2.19902139   0.10955462
676.00   2.18895359   0.11053006
678.00   2.17885646   0.11151126
680.00   2.16873001   0.11249822
682.00   2.15857422   0.11349096
684.00   2.14838912   0.11448950
686.00   2.13817470   0.11549386
688.00   2.12793097   0.11650405
690.00   2.11765793   0.11752008
692.00   2.10735559   0.11854198
694.00   2.09702394   0.11956976
696.00   2.08666301   0.12060344
698.00   2.07627278   0.12164303
700.00   2.06585327   0.12268855
702.00   2.05540448   0.12374002
704.00   2.04492642   0.12479746
706.00   2.03441908   0.12586087
708.00   2.02388247   0.12693028
710.00   2.01331660   0.12800570
712.00   2.00272148   0.12908715
714.00   1.99209710   0.13017465
716.00   1.98144347   0.13126821
718.00   1.97076060   0.13236785
720.00   1.96004848   0.13347358
722.00   1.94930714   0.13458542
724.00   1.93853656   0.13570340
726.00   1.92773676   0.13682751
728.00   1.91690773   0.13795779
730.00   1.90604949   0.13909425
732.00   1.89516204   0.14023690
734.00   1.88424538   0.14138576
736.00   1.87329952   0.14254084
738.00   1.86232446   0.14370217
740.00   1.85132021   0.14486976
742.00   1.84028677   0.14604362
744.00   1.82922415   0.14722378
746.00   1.81813235   0.14841024
748.00   1.80701138   0.14960303
750.00   1.79586123   0.15080216
752.00   1.78468193   0.15200765
754.00   1.77347346   0.15321952
756.00   1.76223584   0.15443777
758.00   1.75096907   0.15566243
760.00   1.73967315   0.15689351
762.00   1.72834810   0.15813104
764.00   1.71699391   0.15937502
766.00   1.70561059   0.16062547
768.00   1.69419815   0.16188241
770.00   1.68275658   0.16314585
772.00   1.67128590   0.16441582
774.00   1.65978611   0.16569232
776.00   1.64825721   0.16697538
778.00   1.63669922   0.16826501
780.00   1.62511213   0.16956122
782.00   1.61349595   0.17086404
784.00   1.60185068   0.17217347
786.00   1.59017633   0.17348954
788.00   1.57847291   0.17481227
790.00   1.56674042   0.17614166
792.00   1.55497886   0.17747774
794.00   1.54318824   0.17882051
796.00   1.53136857   0.18017000
798.00   1.51951984   0.18152623
800.00   1.50764207   0.18288921
802.00   1.49573527   0.18425895
804.00   1.48379942   0.18563547
806.00   1.47183455   0.18701879
808.00   1.45984066   0.18840893
810.00   1.44781774   0.18980590
812.00   1.43576581   0.19120971
814.00   1.42368487   0.19262039
816.00   1.41157493   0.19403794
818.00   1.39943599   0.19546239
820.00   1.38726806   0.19689376
822.00   1.37507114   0.19833205
824.00   1.36284523   0.19977728
826.00   1.35059035   0.20122948
828.00   1.33830650   0.20268865
830.00   1.32599368   0.20415482
832.00   1.31365189   0.20562799
834.00   1.30128115   0.20710819
836.00   1.28888147   0.20859543
838.00   1.27645283   0.21008973
840.00   1.26399526   0.21159111
842.00   1.25150875   0.21309957
844.00   1.23899331   0.21461514
846.00   1.22644894   0.21613783
848.00   1.21387566   0.21766765
850.00   1.20127346   0.21920464
852.00   1.18864236   0.22074879
854.00   1.17598235   0.22230013
856.00   1.16329345   0.22385868
858.00   1.15057565   0.22542444
860.00   1.13782897   0.22699744
862.00   1.12505341   0.22857768
864.00   1.11224897   0.23016520
866.00   1.09941567   0.23176000
868.00   1.08655350   0.23336210
870.00   1.07366247   0.23497151
872.00   1.06074258   0.23658826
874.00   1.04779385   0.23821235
876.00   1.03481628   0.23984381
878.00   1.02180987   0.24148265
880.00   1.00877463   0.24312888
882.00   0.99571057   0.24478253
884.00   0.98261768   0.24644360
886.00   0.96949598   0.24811212
888.00   0.95634548   0.24978810
890.00   0.94316617   0.25147155
892.00   0.92995806   0.25316250
894.00   0.91672116   0.25486095
896.00   0.90345548   0.25656693
898.00   0.89016101   0.25828045
900.00   0.87683777   0.26000153
902.00   0.86348577   0.26173017
904.00   0.85010499   0.26346641
906.00   0.83669547   0.26521025
908.00   0.82325719   0.26696171
910.00   0.80979016   0.26872081
912.00   0.79629440   0.27048756
914.00   0.78276990   0.27226198
916.00   0.76921667   0.27404408
918.00   0.75563472   0.27583388
920.00   0.74202405   0.27763140
922.00   0.72838468   0.27943665
924.00   0.71471659   0.28124965
926.00   0.70101981   0.28307041
928.00   0.68729434   0.28489895
930.00   0.67354017   0.28673529
932.00   0.65975733   0.28857944
934.00   0.64594581   0.29043142
936.00   0.63210562   0.29229124
938.00   0.61823676   0.29415892
940.00   0.60433925   0.29603447
942.00   0.59041309   0.29791792
944.00   0.57645828   0.29980927
946.00   0.56247483   0.30170855
948.00   0.54846274   0.30361577
950.00   0.53442203   0.30553094
952.00   0.52035270   0.30745408
954.00   0.50625475   0.30938521
956.00   0.49212819   0.31132434
958.00   0.47797302   0.31327149
960.00   0.46378926   0.31522667
962.00   0.44957691   0.31718991
964.00   0.43533597   0.31916120
966.00   0.42106645   0.32114058
968.00   0.40676835   0.32312806
970.00   0.39244169   0.32512365
972.00   0.37808647   0.32712737
974.00   0.36370269   0.32913924
976.00   0.34929037   0.33115926
978.00   0.33484950   0.33318747
980.00   0.32038009   0.33522386
982.00   0.30588215   0.33726846
984.00   0.29135569   0.33932129
986.00   0.27680071   0.34138236
988.00   0.26221722   0.34345168
990.00   0.24760522   0.34552927
992.00   0.23296473   0.34761515
994.00   0.21829574   0.34970933
996.00   0.20359826   0.35181183
998.00   0.18887230   0.35392266
1000.00   0.17411787   0.35604185
1002.00   0.15933497   0.35816940
1004.00   0.14452360   0.36030533
1006.00   0.12968378   0.36244965
1008.00   0.11481552   0.36460239
1010.00   0.09991881   0.36676356
1012.00   0.08499366   0.36893318
1014.00   0.07004008   0.37111125
1016.00   0.05505808   0.37329780
1018.00   0.04004766   0.37549283
1020.00   0.02500883   0.37769638
1022.00   0.00994160   0.37990845
1024.00  -0.00515404   0.38212905
1026.00  -0.02027806   0.38435821
1028.00  -0.03543047   0.38659594
1030.00  -0.05061126   0.38884226
1032.00  -0.06582042   0.39109717
1034.00  -0.08105795   0.39336070
1036.00  -0.09632383   0.39563287
1038.00  -0.11161807   0.39791368
1040.00  -0.12694066   0.40020315
1042.00  -0.14229159   0.40250130
1044.00  -0.15767085   0.40480815
1046.00  -0.17307843   0.40712371
1048.00  -0.18851434   0.40944799
1050.00  -0.20397856   0.41178101
1052.00  -0.21947109   0.41412279
1054.00  -0.23499191   0.41647334
1056.00  -0.25054104   0.41883268
1058.00  -0.26611845   0.42120083
1060.00  -0.28172414   0.42357779
1062.00  -0.29735810   0.42596359
1064.00  -0.31302033   0.42835823
1066.00  -0.32871083   0.43076174
1068.00  -0.34442957   0.43317414
1070.00  -0.36017657   0.43559543
1072.00  -0.37595180   0.43802563
1074.00  -0.39175527   0.44046476
1076.00  -0.40758697   0.44291283
1078.00  -0.42344689   0.44536986
1080.00  -0.43933502   0.44783586
1082.00  -0.45525136   0.45031086
1084.00  -0.47119590   0.45279486
1086.00  -0.48716863   0.45528788
1088.00  -0.50316955   0.45778993
1090.00  -0.51919865   0.46030104
1092.00  -0.53525592   0.46282121
1094.00  -0.55134136   0.46535047
1096.00  -0.56745496   0.46788882
1098.00  -0.58359671   0.47043629
1100.00  -0.59976661   0.47299288
1102.00  -0.61596465   0.47555862
1104.00  -0.63219081   0.47813352
1106.00  -0.64844511   0.48071760
1108.00  -0.66472752   0.48331086
1110.00  -0.68103805   0.48591333
1112.00  -0.69737667   0.48852502
1114.00  -0.71374340   0.49114594
1116.00  -0.73013822   0.49377612
1118.00  -0.74656112   0.49641557
1120.00  -0.76301210   0.49906429
1122.00  -0.77949115   0.50172232
1124.00  -0.79599826   0.50438966
1126.00  -0.81253343   0.50706632
1128.00  -0.82909664   0.50975233
1130.00  -0.84568790   0.51244770
1132.00  -0.86230719   0.51515245
1134.00  -0.87895451   0.51786658
1136.00  -0.89562986   0.52059012
1138.00  -0.91233321   0.52332308
1140.00  -0.92906457   0.52606547
1142.00  -0.94582394   0.52881732
1144.00  -0.96261129   0.53157863
1146.00  -0.97942663   0.53434942
1148.00  -0.99626995   0.53712971
1150.00  -1.01314124   0.53991951
1152.00  -1.03004049   0.54271884
1154.00  -1.04696770   0.54552771
1156.00  -1.06392286   0.54834614
1158.00  -1.08090596   0.55117414
1160.00  -1.09791700   0.55401173
1162.00  -1.11495597   0.55685893
1164.00  -1.13202286   0.55971574
1166.00  -1.14911766   0.56258218
1168.00  -1.16624037   0.56545828
1170.00  -1.18339097   0.56834404
1172.00  -1.20056947   0.57123948
1174.00  -1.21777586   0.57414461
1176.00  -1.23501012   0.57705945
1178.00  -1.25227225   0.57998402
1180.00  -1.26956225   0.58291833
1182.00  -1.28688010   0.58586239
1184.00  -1.30422580   0.58881622
1186.00  -1.32159934   0.59177984
1188.00  -1.33900072   0.59475326
1190.00  -1.35642992   0.59773650
1192.00  -1.37388694   0.60072956
1194.00  -1.39137177   0.60373247
1196.00  -1.40888441   0.60674525
1198.00  -1.42642484   0.60976790
1200.00  -1.44399306   0.61280044
1202.00  -1.46158907   0.61584288
1204.00  -1.47921285   0.61889525
1206.00  -1.49686440   0.62195756
1208.00  -1.51454370   0.62502981
1210.00  -1.53225077   0.62811203
1212.00  -1.54998557   0.63120424
1214.00  -1.56774811   0.63430644
1216.00  -1.58553839   0.63741865
1218.00  -1.60335638   0.64054089
1220.00  -1.62120209   0.64367317
1222.00  -1.63907551   0.64681551
1224.00  -1.65697663   0.64996792
1226.00  -1.67490544   0.65313042
1228.00  -1.69286194   0.65630301
1230.00  -1.71084611   0.65948573
1232.00  -1.72885795   0.66267858
1234.00  -1.74689746   0.66588157
1236.00  -1.76496462   0.66909473
1238.00  -1.78305943   0.67231806
1240.00  -1.80118187   0.67555158
1242.00  -1.81933195   0.67879531
1244.00  -1.83750966   0.68204926
1246.00  -1.85571498   0.68531345
1248.00  -1.87394791   0.68858789
1250.00  -1.89220844   0.69187260
1252.00  -1.91049656   0.69516758
1254.00  -1.92881227   0.69847286
1256.00  -1.94715556   0.70178846
1258.00  -1.96552642   0.70511438
1260.00  -1.98392484   0.70845064
1262.00  -2.00235082   0.71179725
1264.00  -2.02080434   0.71515424
1266.00  -2.03928540   0.71852161
1268.00  -2.05779400   0.72189938
1270.00  -2.07633012   0.72528757
1272.00  -2.09489376   0.72868618
1274.00  -2.11348490   0.73209525
1276.00  -2.13210355   0.73551477
1278.00  -2.15074969   0.73894476
1280.00  -2.16942331   0.74238525
1282.00  -2.18812441   0.74583623
1284.00  -2.20685298   0.74929774
1286.00  -2.22560902   0.75276978
1288.00  -2.24439250   0.75625237
1290.00  -2.26320343   0.75974552
1292.00  -2.28204181   0.76324925
1294.00  -2.30090761   0.76676357
1296.00  -2.31980083   0.77028850
1298.00  -2.33872147   0.77382405
1300.00  -2.35766951   0.77737024
1302.00  -2.37664495   0.78092708
1304.00  -2.39564779   0.78449458
1306.00  -2.41467800   0.78807277
1308.00  -2.43373559   0.79166165
1310.00  -2.45282055   0.79526124
1312.00  -2.47193286   0.79887156
1314.00  -2.49107253   0.80249262
1316.00  -2.51023954   0.80612443
1318.00  -2.52943388   0.80976701
1320.00  -2.54865555   0.81342037
1322.00  -2.56790454   0.81708454
1324.00  -2.58718084   0.82075951
1326.00  -2.60648445   0.82444531
1328.00  -2.62581534   0.82814196
1330.00  -2.64517353   0.83184946
1332.00  -2.66455899   0.83556784
1334.00  -2.68397172   0.83929710
1336.00  -2.70341171   0.84303726
1338.00  -2.72287896   0.84678833
1340.00  -2.74237345   0.85055034
1342.00  -2.76189519   0.85432329
1344.00  -2.78144415   0.85810720
1346.00  -2.80102033   0.86190208
1348.00  -2.82062372   0.86570795
1350.00  -2.84025433   0.86952483
1352.00  -2.85991212   0.87335272
1354.00  -2.87959711   0.87719164
1356.00  -2.89930928   0.88104161
1358.00  -2.91904862   0.88490264
1360.00  -2.93881512   0.88877474
1362.00  -2.95860878   0.89265794
1364.00  -2.97842959   0.89655224
1366.00  -2.99827753   0.90045766
1368.00  -3.01815261   0.90437421
1370.00  -3.03805481   0.90830191
1372.00  -3.05798412   0.91224077
1374.00  -3.07794054   0.91619081
1376.00  -3.09792406   0.92015204
1378.00  -3.11793467   0.92412447
1380.00  -3.13797236   0.92810813
1382.00  -3.15803712   0.93210302
1384.00  -3.17812895   0.93610916
1386.00  -3.19824783   0.94012656
1388.00  -3.21839376   0.94415524
1390.00  -3.23856673   0.94819521
1392.00  -3.25876673   0.95224649
1394.00  -3.27899376   0.95630909
1396.00  -3.29924779   0.96038302
1398.00  -3.31952884   0.96446831
1400.00  -3.33983688   0.96856495
1402.00  -3.36017191   0.97267298
1404.00  -3.38053392   0.97679240
1406.00  -3.40092290   0.98092322
1408.00  -3.42133885   0.98506547
1410.00  -3.44178175   0.98921915
1412.00  -3.46225160   0.99338429
1414.00  -3.48274839   0.99756088
1416.00  -3.50327210   1.00174896
1418.00  -3.52382274   1.00594853
1420.00  -3.54440029   1.01015960
1422.00  -3.56500474   1.01438220
1424.00  -3.58563609   1.01861633
1426.00  -3.60629433   1.02286201
1428.00  -3.62697944   1.02711926
1430.00  -3.64769143   1.03138808
1432.00  -3.66843027   1.03566850
1434.00  -3.68919597   1.03996052
1436.00  -3.70998851   1.04426416
1438.00  -3.73080789   1.04857944
1440.00  -3.75165409   1.05290637
1442.00  -3.77252712   1.05724497
1444.00  -3.79342695   1.06159524
1446.00  -3.81435358   1.06595720
1448.00  -3.83530700   1.07033087
1450.00  -3.85628721   1.07471626
1452.00  -3.87729420   1.07911338
1454.00  -3.89832795   1.08352225
1456.00  -3.91938845   1.08794289
1458.00  -3.94047571   1.09237530
1460.00  -3.96158970   1.09681950
1462.00  -3.98273043   1.10127551
1464.00  -4.00389788   1.10574334
1466.00  -4.02509204   1.11022300
1468.00  -4.04631291   1.11471450
1470.00  -4.06756047   1.11921787
1472.00  -4.08883472   1.12373312
1474.00  -4.11013565   1.12826025
1476.00  -4.13146325   1.13279929
1478.00  -4.15281752   1.13735025
1480.00  -4.17419843   1.14191313
1482.00  -4.19560599   1.14648797
1484.00  -4.21704018   1.15107476
1486.00  -4.23850099   1.15567352
1488.00  -4.25998843   1.16028428
1490.00  -4.28150247   1.16490703
1492.00  -4.30304311   1.16954181
1494.00  -4.32461034   1.17418861
1496.00  -4.34620415   1.17884745
1498.00  -4.36782454   1.18351836
1500.00  -4.38947149   1.18820133
1502.00  -4.41114499   1.19289639
1504.00  -4.43284504   1.19760355
1506.00  -4.45457162   1.20232283
1508.00  -4.47632474   1.20705423
1510.00  -4.49810437   1.21179777
1512.00  -4.51991051   1.21655347
1514.00  -4.54174315   1.22132133
1516.00  -4.56360229   1.22610138
1518.00  -4.58548791   1.23089363
1520.00  -4.60740000   1.23569809
1522.00  -4.62933855   1.24051477
1524.00  -4.65130356   1.24534369
1526.00  -4.67329502   1.25018486
1528.00  -4.69531292   1.25503830
1530.00  -4.71735724   1.25990402
1532.00  -4.73942799   1.26478203
1534.00  -4.76152514   1.26967236
1536.00  -4.78364870   1.27457500
1538.00  -4.80579865   1.27948998
1540.00  -4.82797498   1.28441730
1542.00  -4.85017769   1.28935699
1544.00  -4.87240676   1.29430906
1546.00  -4.89466219   1.29927352
1548.00  -4.91694396   1.30425038
1550.00  -4.93925207   1.30923966
1552.00  -4.96158651   1.31424137
1554.00  -4.98394727   1.31925552
1556.00  -5.00633434   1.32428214
1558.00  -5.02874771   1.32932122
1560.00  -5.05118737   1.33437280
1562.00  -5.07365332   1.33943687
1564.00  -5.09614554   1.34451346
1566.00  -5.11866402   1.34960258
1568.00  -5.14120875   1.35470424
1570.00  -5.16377974   1.35981845
1572.00  -5.18637696   1.36494523
1574.00  -5.20900040   1.37008459
1576.00  -5.23165007   1.37523655
1578.00  -5.25432594   1.38040112
1580.00  -5.27702801   1.38557832
1582.00  -5.29975627   1.39076814
1584.00  -5.32251071   1.39597062
1586.00  -5.34529133   1.40118577
1588.00  -5.36809810   1.40641359
1590.00  -5.39093103   1.41165410
1592.00  -5.41379010   1.41690732
1594.00  -5.43667531   1.42217325
1596.00  -5.45958664   1.42745192
1598.00  -5.48252408   1.43274333
1600.00  -5.50548763   1.43804751
1602.00  -5.52847728   1.44336445
1604.00  -5.55149302   1.44869418
1606.00  -5.57453483   1.45403671
1608.00  -5.59760271   1.45939205
1610.00  -5.62069665   1.46476022
1612.00  -5.64381664   1.47014123
1614.00  -5.66696267   1.47553510
1616.00  -5.69013473   1.48094183
1618.00  -5.71333281   1.48636144
1620.00  -5.73655690   1.49179394
1622.00  -5.75980700   1.49723935
1624.00  -5.78308308   1.50269768
1626.00  -5.80638516   1.50816895
1628.00  -5.82971320   1.51365316
1630.00  -5.85306721   1.51915034
1632.00  -5.87644717   1.52466049
1634.00  -5.89985308   1.53018363
1636.00  -5.92328492   1.53571977
1638.00  -5.94674269   1.54126892
1640.00  -5.97022638   1.54683110
1642.00  -5.99373597   1.55240632
1644.00  -6.01727146   1.55799460
1646.00  -6.04083284   1.56359595
1648.00  -6.06442010   1.56921037
1650.00  -6.08803322   1.57483789
1652.00  -6.11167220   1.58047852
1654.00  -6.13533704   1.58613227
1656.00  -6.15902771   1.59179916
1658.00  -6.18274421   1.59747919
1660.00  -6.20648654   1.60317239
1662.00  -6.23025467   1.60887875
1664.00  -6.25404860   1.61459831
1666.00  -6.27786833   1.62033107
1668.00  -6.30171384   1.62607704
1670.00  -6.32558512   1.63183624
1672.00  -6.34948216   1.63760868
1674.00  -6.37340496   1.64339437
1676.00  -6.39735349   1.64919333
1678.00  -6.42132776   1.65500557
1680.00  -6.44532776   1.66083111
1682.00  -6.46935347   1.66666995
1684.00  -6.49340488   1.67252211
1686.00  -6.51748199   1.67838760
1688.00  -6.54158478   1.68426644
1690.00  -6.56571324   1.69015864
1692.00  -6.58986737   1.69606421
1694.00  -6.61404716   1.70198317
1696.00  -6.63825259   1.70791552
1698.00  -6.66248366   1.71386129
1700.00  -6.68674035   1.71982048
1702.00  -6.71102266   1.72579311
1704.00  -6.73533057   1.73177919
1706.00  -6.75966408   1.73777874
1708.00  -6.78402318   1.74379176
1710.00  -6.80840785   1.74981828
1712.00  -6.83281809   1.75585829
1714.00  -6.85725389   1.76191182
1716.00  -6.88171523   1.76797889
1718.00  -6.90620211   1.77405949
1720.00  -6.93071452   1.78015365
1722.00  -6.95525244   1.78626138
1724.00  -6.97981587   1.79238269
1726.00  -7.00440480   1.79851759
1728.00  -7.02901922   1.80466610
1730.00  -7.05365911   1.81082824
1732.00  -7.07832447   1.81700400
1734.00  -7.10301529   1.82319341
1736.00  -7.12773155   1.82939648
1738.00  -7.15247326   1.83561323
1740.00  -7.17724039   1.84184366
1742.00  -7.20203294   1.84808778
1744.00  -7.22685089   1.85434562
1746.00  -7.25169425   1.86061718
1748.00  -7.27656299   1.86690248
1750.00  -7.30145710   1.87320152
1752.00  -7.32637659   1.87951433
1754.00  -7.35132143   1.88584092
1756.00  -7.37629162   1.89218129
1758.00  -7.40128715   1.89853547
1760.00  -7.42630800   1.90490345
1762.00  -7.45135418   1.91128527
1764.00  -7.47642566   1.91768092
1766.00  -7.50152243   1.92409043
1768.00  -7.52664449   1.93051380
1770.00  -7.55179183   1.93695105
1772.00  -7.57696444   1.94340219
1774.00  -7.60216230   1.94986723
1776.00  -7.62738541   1.95634619
1778.00  -7.65263375   1.96283908
1780.00  -7.67790732   1.96934591
1782.00  -7.70320611   1.97586669
1784.00  -7.72853010   1.98240144
1786.00  -7.75387929   1.98895018
1788.00  -7.77925366   1.99551290
1790.00  -7.80465321   2.00208963
1792.00  -7.83007793   2.00868037
1794.00  -7.85552779   2.01528515
1796.00  -7.88100281   2.02190397
1798.00  -7.90650295   2.02853685
1800.00  -7.93202822   2.03518379
1802.00  -7.95757861   2.04184482
1804.00  -7.98315410   2.04851994
1806.00  -8.00875468   2.05520917
1808.00  -8.03438034   2.06191251
1810.00  -8.06003108   2.06862999
1812.00  -8.08570688   2.07536161
1814.00  -8.11140773   2.08210739
1816.00  -8.13713362   2.08886734
1818.00  -8.16288455   2.09564147
1820.00  -8.18866049   2.10242979
1822.00  -8.21446145   2.10923233
1824.00  -8.24028741   2.11604908
1826.00  -8.26613836   2.12288006
1828.00  -8.29201429   2.12972529
1830.00  -8.31791518   2.13658478
1832.00  -8.34384104   2.14345853
1834.00  -8.36979185   2.15034657
1836.00  -8.39576759   2.15724890
1838.00  -8.42176826   2.16416554
1840.00  -8.44779385   2.17109650
1842.00  -8.47384435   2.17804179
1844.00  -8.49991974   2.18500143
1846.00  -8.52602002   2.19197542
1848.00  -8.55214518   2.19896378
1850.00  -8.57829520   2.20596652
1852.00  -8.60447008   2.21298366
1854.00  -8.63066980   2.22001521
1856.00  -8.65689435   2.22706117
1858.00  -8.68314373   2.23412157
1860.00  -8.70941792   2.24119641
1862.00  -8.73571692   2.24828570
1864.00  -8.76204071   2.25538946
1866.00  -8.78838928   2.26250771
1868.00  -8.81476262   2.26964045
1870.00  -8.84116072   2.27678769
1872.00  -8.86758357   2.28394945
1874.00  -8.89403116   2.29112574
1876.00  -8.92050348   2.29831657
1878.00  -8.94700052   2.30552196
1880.00  -8.97352227   2.31274192
1882.00  -9.00006872   2.31997645
1884.00  -9.02663985   2.32722558
1886.00  -9.05323566   2.33448931
1888.00  -9.07985613   2.34176765
1890.00  -9.10650126   2.34906063
1892.00  -9.13317103   2.35636824
1894.00  -9.15986544   2.36369051
1896.00  -9.18658447   2.37102744
1898.00  -9.21332812   2.37837905
1900.00  -9.24009637   2.38574534
1902.00  -9.26688920   2.39312634
1904.00  -9.29370662   2.40052206
1906.00  -9.32054861   2.40793249
1908.00  -9.34741516   2.41535767
1910.00  -9.37430626   2.42279760
1912.00  -9.40122190   2.43025229
1914.00  -9.42816206   2.43772175
1916.00  -9.45512674   2.44520600
1918.00  -9.48211593   2.45270505
1920.00  -9.50912961   2.46021890
1922.00  -9.53616778   2.46774758
1924.00  -9.56323042   2.47529110
1926.00  -9.59031752   2.48284946
1928.00  -9.61742908   2.49042268
1930.00  -9.64456508   2.49801077
1932.00  -9.67172551   2.50561375
1934.00  -9.69891036   2.51323162
1936.00  -9.72611962   2.52086439
1938.00  -9.75335328   2.52851209
1940.00  -9.78061132   2.53617471
1942.00  -9.80789375   2.54385228
1944.00  -9.83520054   2.55154481
1946.00  -9.86253169   2.55925230
1948.00  -9.88988718   2.56697477
1950.00  -9.91726700   2.57471223
1952.00  -9.94467115   2.58246469
1954.00  -9.97209961   2.59023216
1956.00  -9.99955238   2.59801467
1958.00 -10.02702943   2.60581221
1960.00 -10.05453076   2.61362480
1962.00 -10.08205636   2.62145246
1964.00 -10.10960622   2.62929518
1966.00 -10.13718033   2.63715300
1968.00 -10.16477868   2.64502591
1970.00 -10.19240125   2.65291393
1972.00 -10.22004803   2.66081707
1974.00 -10.24771902   2.66873535
1976.00 -10.27541420   2.67666877
1978.00 -10.30313356   2.68461735
1980.00 -10.33087710   2.69258109
1982.00 -10.35864479   2.70056002
1984.00 -10.38643663   2.70855414
1986.00 -10.41425262   2.71656346
1988.00 -10.44209272   2.72458800
1990.00 -10.46995695   2.73262777
1992.00 -10.49784528   2.74068277
1994.00 -10.52575770   2.74875303
1996.00 -10.55369421   2.75683855
1998.00 -10.58165479   2.76493934
2000.00 -10.60963943   2.77305542
2002.00 -10.63764812   2.78118680
2004.00 -10.66568085   2.78933349
2006.00 -10.69373761   2.79749550
2008.00 -10.72181839   2.80567284
2010.00 -10.74992317   2.81386552
2012.00 -10.77805195   2.82207357
2014.00 -10.80620472   2.83029698
2016.00 -10.83438145   2.83853576
2018.00 -10.86258215   2.84678994
2020.00 -10.89080680   2.85505953
2022.00 -10.91905539   2.86334452
2024.00 -10.94732790   2.87164495
2026.00 -10.97562434   2.87996081
2028.00 -11.00394468   2.88829211
2030.00 -11.03228892   2.89663888
2032.00 -11.06065704   2.90500112
2034.00 -11.08904904   2.91337885
2036.00 -11.11746490   2.92177207
2038.00 -11.14590461   2.93018079
2040.00 -11.17436816   2.93860504
2042.00 -11.20285553   2.94704481
2044.00 -11.23136673   2.95550013
2046.00 -11.25990173   2.96397099
2048.00 -11.28846053   2.97245743
2050.00 -11.31704311   2.98095943
2052.00 -11.34564947   2.98947703
2054.00 -11.37427958   2.99801022
2056.00 -11.40293345   3.00655902
2058.00 -11.43161106   3.01512344
2060.00 -11.46031239   3.02370350
2062.00 -11.48903745   3.03229920
2064.00 -11.51778621   3.04091055
2066.00 -11.54655866   3.04953758
2068.00 -11.57535480   3.05818028
2070.00 -11.60417460   3.06683866
2072.00 -11.63301807   3.07551275
2074.00 -11.66188519   3.08420256
2076.00 -11.69077595   3.09290808
2078.00 -11.71969034   3.10162934
2080.00 -11.74862834   3.11036635
2082.00 -11.77758994   3.11911911
2084.00 -11.80657514   3.12788765
2086.00 -11.83558392   3.13667196
2088.00 -11.86461628   3.14547206
2090.00 -11.89367219   3.15428797
2092.00 -11.92275165   3.16311969
2094.00 -11.95185464   3.17196723
2096.00 -11.98098117   3.18083062
2098.00 -12.01013120   3.18970984
2100.00 -12.03930474   3.19860493
2102.00 -12.06850177   3.20751589
2104.00 -12.09772228   3.21644273
2106.00 -12.12696626   3.22538546
2108.00 -12.15623370   3.23434409
2110.00 -12.18552458   3.24331864
2112.00 -12.21483890   3.25230911
2114.00 -12.24417664   3.26131552
2116.00 -12.27353780   3.27033788
2118.00 -12.30292235   3.27937620
2120.00 -12.33233029   3.28843049
2122.00 -12.36176161   3.29750076
2124.00 -12.39121630   3.30658702
2126.00 -12.42069434   3.31568928
2128.00 -12.45019573   3.32480756
2130.00 -12.47972044   3.33394186
2132.00 -12.50926848   3.34309221
2134.00 -12.53883983   3.35225859
2136.00 -12.56843447   3.36144104
2138.00 -12.59805240   3.37063956
2140.00 -12.62769361   3.37985416
2142.00 -12.65735808   3.38908485
2144.00 -12.68704580   3.39833164
2146.00 -12.71675676   3.40759454
2148.00 -12.74649095   3.41687357
2150.00 -12.77624836   3.42616874
2152.00 -12.80602897   3.43548005
2154.00 -12.83583278   3.44480752
2156.00 -12.86565977   3.45415116
2158.00 -12.89550994   3.46351098
2160.00 -12.92538326   3.47288698
2162.00 -12.95527973   3.48227919
2164.00 -12.98519933   3.49168761
2166.00 -13.01514207   3.50111226
2168.00 -13.04510791   3.51055313
2170.00 -13.07509686   3.52001025
2172.00 -13.10510890   3.52948363
2174.00 -13.13514402   3.53897328
2176.00 -13.16520220   3.54847920
2178.00 -13.19528344   3.55800140
2180.00 -13.22538773   3.56753991
2182.00 -13.25551504   3.57709473
2184.00 -13.28566538   3.58666586
2186.00 -13.31583873   3.59625333
2188.00 -13.34603507   3.60585714
2190.00 -13.37625441   3.61547730
2192.00 -13.40649671   3.62511383
2194.00 -13.43676198   3.63476673
2196.00 -13.46705020   3.64443601
2198.00 -13.49736136   3.65412169
2200.00 -13.52769545   3.66382378
2202.00 -13.55805245   3.67354228
2204.00 -13.58843236   3.68327721
2206.00 -13.61883516   3.69302858
2208.00 -13.64926085   3.70279639
2210.00 -13.67970940   3.71258067
2212.00 -13.71018081   3.72238142
2214.00 -13.74067507   3.73219864
2216.00 -13.77119216   3.74203236
2218.00 -13.80173207   3.75188259
2220.00 -13.83229480   3.76174932
2222.00 -13.86288032   3.77163258
2224.00 -13.89348863   3.78153237
2226.00 -13.92411972   3.79144870
2228.00 -13.95477357   3.80138159
2230.00 -13.98545018   3.81133105
2232.00 -14.01614952   3.82129708
2234.00 -14.04687160   3.83127970
2236.00 -14.07761639   3.84127891
2238.00 -14.10838389   3.85129474
2240.00 -14.13917408   3.86132718
2242.00 -14.16998695   3.87137625
2244.00 -14.20082249   3.88144195
2246.00 -14.23168070   3.89152431
2248.00 -14.26256154   3.90162333
2250.00 -14.29346503   3.91173902
2252.00 -14.32439113   3.92187139
2254.00 -14.35533985   3.93202045
2256.00 -14.38631116   3.94218621
2258.00 -14.41730507   3.95236869
2260.00 -14.44832155   3.96256788
2262.00 -14.47936059   3.97278381
2264.00 -14.51042219   3.98301649
2266.00 -14.54150632   3.99326591
2268.00 -14.57261298   4.00353211
2270.00 -14.60374216   4.01381507
2272.00 -14.63489385   4.02411482
2274.00 -14.66606803   4.03443137
2276.00 -14.69726469   4.04476472
2278.00 -14.72848381   4.05511488
2280.00 -14.75972540   4.06548187
2282.00 -14.79098943   4.07586570
2284.00 -14.82227589   4.08626638
2286.00 -14.85358477   4.09668391
2288.00 -14.88491607   4.10711831
2290.00 -14.91626976   4.11756958
2292.00 -14.94764584   4.12803774
2294.00 -14.97904429   4.13852280
2296.00 -15.01046510   4.14902477
2298.00 -15.04190826   4.15954366
2300.00 -15.07337376   4.17007947
2302.00 -15.10486159   4.18063223
2304.00 -15.13637173   4.19120193
2306.00 -15.16790417   4.20178859
2308.00 -15.19945890   4.21239222
2310.00 -15.23103591   4.22301283
2312.00 -15.26263519   4.23365043
2314.00 -15.29425672   4.24430502
2316.00 -15.32590050   4.25497663
2318.00 -15.35756650   4.26566526
2320.00 -15.38925472   4.27637091
2322.00 -15.42096515   4.28709361
2324.00 -15.45269777   4.29783335
2326.00 -15.48445258   4.30859016
2328.00 -15.51622955   4.31936403
2330.00 -15.54802868   4.33015499
2332.00 -15.57984996   4.34096303
2334.00 -15.61169338   4.35178818
2336.00 -15.64355891   4.36263043
2338.00 -15.67544656   4.37348981
2340.00 -15.70735630   4.38436631
2342.00 -15.73928813   4.39525996
2344.00 -15.77124203   4.40617075
2346.00 -15.80321800   4.41709870
2348.00 -15.83521601   4.42804383
2350.00 -15.86723607   4.43900613
2352.00 -15.89927814   4.44998562
2354.00 -15.93134224   4.46098232
2356.00 -15.96342833   4.47199622
2358.00 -15.99553641   4.48302734
2360.00 -16.02766647   4.49407569
2362.00 -16.05981850   4.50514128
2364.00 -16.09199247   4.51622412
2366.00 -16.12418839   4.52732421
2368.00 -16.15640624   4.53844158
2370.00 -16.18864600   4.54957622
2372.00 -16.22090767   4.56072816
2374.00 -16.25319123   4.57189739
2376.00 -16.28549668   4.58308392
2378.00 -16.31782399   4.59428778
2380.00 -16.35017315   4.60550896
2382.00 -16.38254416   4.61674748
2384.00 -16.41493700   4.62800335
2386.00 -16.44735166   4.63927657
2388.00 -16.47978813   4.65056716
2390.00 -16.51224639   4.66187513
2392.00 -16.54472644   4.67320048
2394.00 -16.57722825   4.68454323
2396.00 -16.60975183   4.69590338
2398.00 -16.64229715   4.70728095
2400.00 -16.67486420   4.71867594
2402.00 -16.70745298   4.73008837
2404.00 -16.74006347   4.74151824
2406.00 -16.77269565   4.75296556
2408.00 -16.80534952   4.76443035
2410.00 -16.83802507   4.77591261
2412.00 -16.87072227   4.78741235
2414.00 -16.90344112   4.79892959
2416.00 -16.93618161   4.81046432
2418.00 -16.96894372   4.82201657
2420.00 -17.00172745   4.83358634
2422.00 -17.03453277   4.84517363
2424.00 -17.06735968   4.85677847
2426.00 -17.10020817   4.86840086
2428.00 -17.13307822   4.88004080
2430.00 -17.16596982   4.89169832
2432.00 -17.19888296   4.90337341
2434.00 -17.23181762   4.91506609
2436.00 -17.26477380   4.92677636
2438.00 -17.29775148   4.93850424
2440.00 -17.33075065   4.95024974
2442.00 -17.36377129   4.96201286
2444.00 -17.39681340   4.97379362
2446.00 -17.42987696   4.98559202
2448.00 -17.46296196   4.99740808
2450.00 -17.49606839   5.00924180
2452.00 -17.52919624   5.02109319
2454.00 -17.56234548   5.03296226
2456.00 -17.59551612   5.04484902
2458.00 -17.62870813   5.05675348
2460.00 -17.66192152   5.06867566
2462.00 -17.69515625   5.08061555
2464.00 -17.72841233   5.09257317
2466.00 -17.76168973   5.10454853
2468.00 -17.79498845   5.11654163
2470.00 -17.82830848   5.12855250
2472.00 -17.86164979   5.14058112
2474.00 -17.89501239   5.15262753
2476.00 -17.92839625   5.16469171
2478.00 -17.96180137   5.17677369
2480.00 -17.99522773   5.18887348
2482.00 -18.02867531   5.20099107
2484.00 -18.06214412   5.21312649
2486.00 -18.09563413   5.22527973
2488.00 -18.12914533   5.23745082
2490.00 -18.16267772   5.24963976
2492.00 -18.19623127   5.26184655
2494.00 -18.22980597   5.27407121
2496.00 -18.26340182   5.28631374
2498.00 -18.29701880   5.29857417
2500.00 -18.33065690   5.31085248
2502.00 -18.36431610   5.32314870
2504.00 -18.39799640   5.33546284
2506.00 -18.43169777   5.34779489
2508.00 -18.46542022   5.36014488
2510.00 -18.49916372   5.37251281
2512.00 -18.53292826   5.38489868
2514.00 -18.56671383   5.39730252
2516.00 -18.60052042   5.40972432
2518.00 -18.63434802   5.42216410
2520.00 -18.66819661   5.43462186
2522.00 -18.70206618   5.44709762
2524.00 -18.73595672   5.45959138
2526.00 -18.76986822   5.47210315
2528.00 -18.80380066   5.48463295
2530.00 -18.83775402   5.49718078
2532.00 -18.87172831   5.50974664
2534.00 -18.90572351   5.52233056
2536.00 -18.93973959   5.53493253
2538.00 -18.97377656   5.54755256
2540.00 -19.00783439   5.56019068
2542.00 -19.04191309   5.57284688
2544.00 -19.07601262   5.58552117
2546.00 -19.11013298   5.59821356
2548.00 -19.14427417   5.61092406
2550.00 -19.17843616   5.62365269
2552.00 -19.21261894   5.63639944
2554.00 -19.24682250   5.64916433
2556.00 -19.28104683   5.66194736
2558.00 -19.31529191   5.67474855
2560.00 -19.34955774   5.68756791
2562.00 -19.38384430   5.70040544
2564.00 -19.41815157   5.71326115
2566.00 -19.45247955   5.72613505
2568.00 -19.48682822   5.73902715
2570.00 -19.52119758   5.75193745
2572.00 -19.55558759   5.76486598
2574.00 -19.58999827   5.77781273
2576.00 -19.62442958   5.79077771
2578.00 -19.65888153   5.80376094
2580.00 -19.69335409   5.81676241
2582.00 -19.72784726   5.82978215
2584.00 -19.76236101   5.84282016
2586.00 -19.79689535   5.85587645
2588.00 -19.83145025   5.86895102
2590.00 -19.86602571   5.88204389
2592.00 -19.90062171   5.89515506
2594.00 -19.93523823   5.90828454
2596.00 -19.96987527   5.92143235
2598.00 -20.00453282   5.93459848
2600.00 -20.03921085   5.94778295
2602.00 -20.07390937   5.96098577
2604.00 -20.10862834   5.97420695
2606.00 -20.14336777   5.98744649
2608.00 -20.17812764   6.00070440
2610.00 -20.21290794   6.01398069
2612.00 -20.24770865   6.02727537
2614.00 -20.28252977   6.04058845
2616.00 -20.31737127   6.05391994
2618.00 -20.35223315   6.06726984
2620.00 -20.38711539   6.08063817
2622.00 -20.42201799   6.09402493
2624.00 -20.45694092   6.10743013
2626.00 -20.49188418   6.12085378
2628.00 -20.52684775   6.13429589
2630.00 -20.56183162   6.14775646
2632.00 -20.59683578   6.16123551
2634.00 -20.63186021   6.17473304
2636.00 -20.66690491   6.18824906
2638.00 -20.70196985   6.20178358
2640.00 -20.73705503   6.21533661
2642.00 -20.77216044   6.22890816
2644.00 -20.80728606   6.24249823
2646.00 -20.84243187   6.25610684
2648.00 -20.87759787   6.26973399
2650.00 -20.91278405   6.28337968
2652.00 -20.94799038   6.29704394
2654.00 -20.98321686   6.31072676
2656.00 -21.01846348   6.32442816
2658.00 -21.05373022   6.33814814
2660.00 -21.08901707   6.35188672
2662.00 -21.12432401   6.36564389
2664.00 -21.15965104   6.37941967
2666.00 -21.19499814   6.39321407
2668.00 -21.23036529   6.40702709
2670.00 -21.26575249   6.42085875
2672.00 -21.30115973   6.43470905
2674.00 -21.33658698   6.44857799
2676.00 -21.37203424   6.46246560
2678.00 -21.40750150   6.47637187
2680.00 -21.44298874   6.49029681
2682.00 -21.47849594   6.50424044
2684.00 -21.51402310   6.51820276
2686.00 -21.54957021   6.53218377
2688.00 -21.58513724   6.54618350
2690.00 -21.62072419   6.56020193
2692.00 -21.65633105   6.57423909
2694.00 -21.69195779   6.58829498
2696.00 -21.72760442   6.60236961
2698.00 -21.76327091   6.61646299
2700.00 -21.79895726   6.63057513
2702.00 -21.83466344   6.64470602
2704.00 -21.87038946   6.65885569
2706.00 -21.90613529   6.67302414
2708.00 -21.94190092   6.68721137
2710.00 -21.97768633   6.70141740
2712.00 -22.01349153   6.71564224
2714.00 -22.04931649   6.72988588
2716.00 -22.08516120   6.74414835
2718.00 -22.12102564   6.75842964
2720.00 -22.15690981   6.77272977
2722.00 -22.19281370   6.78704874
2724.00 -22.22873728   6.80138656
2726.00 -22.26468055   6.81574325
2728.00 -22.30064349   6.83011880
2730.00 -22.33662609   6.84451322
2732.00 -22.37262834   6.85892653
2734.00 -22.40865022   6.87335873
2736.00 -22.44469172   6.88780983
2738.00 -22.48075284   6.90227983
2740.00 -22.51683355   6.91676875
2742.00 -22.55293384   6.93127660
2744.00 -22.58905370   6.94580337
2746.00 -22.62519312   6.96034908
2748.00 -22.66135208   6.97491374
2750.00 -22.69753058   6.98949735
2752.00 -22.73372859   7.00409992
2754.00 -22.76994611   7.01872146
2756.00 -22.80618312   7.03336198
2758.00 -22.84243961   7.04802149
2760.00 -22.87871557   7.06269998
2762.00 -22.91501098   7.07739748
2764.00 -22.95132583   7.09211399
2766.00 -22.98766011   7.10684951
2768.00 -23.02401380   7.12160405
2770.00 -23.06038690   7.13637763
2772.00 -23.09677938   7.15117025
2774.00 -23.13319125   7.16598191
2776.00 -23.16962247   7.18081263
2778.00 -23.20607304   7.19566240
2780.00 -23.24254296   7.21053125
2782.00 -23.27903219   7.22541918
2784.00 -23.31554074   7.24032619
2786.00 -23.35206858   7.25525229
2788.00 -23.38861571   7.27019750
2790.00 -23.42518212   7.28516181
2792.00 -23.46176778   7.30014524
2794.00 -23.49837269   7.31514779
2796.00 -23.53499683   7.33016947
2798.00 -23.57164019   7.34521029
2800.00 -23.60830276   7.36027025
2802.00 -23.64498453   7.37534937
2804.00 -23.68168547   7.39044765
2806.00 -23.71840559   7.40556509
2808.00 -23.75514485   7.42070171
2810.00 -23.79190327   7.43585752
2812.00 -23.82868081   7.45103252
2814.00 -23.86547746   7.46622671
2816.00 -23.90229323   7.48144011
2818.00 -23.93912808   7.49667272
2820.00 -23.97598200   7.51192456
2822.00 -24.01285500   7.52719562
2824.00 -24.04974704   7.54248592
2826.00 -24.08665812   7.55779545
2828.00 -24.12358823   7.57312424
2830.00 -24.16053735   7.58847229
2832.00 -24.19750547   7.60383960
2834.00 -24.23449257   7.61922619
2836.00 -24.27149865   7.63463205
2838.00 -24.30852369   7.65005720
2840.00 -24.34556767   7.66550165
2842.00 -24.38263059   7.68096540
2844.00 -24.41971243   7.69644845
2846.00 -24.45681318   7.71195082
2848.00 -24.49393282   7.72747252
2850.00 -24.53107134   7.74301354
2852.00 -24.56822874   7.75857391
2854.00 -24.60540498   7.77415362
2856.00 -24.64260007   7.78975268
2858.00 -24.67981399   7.80537110
2860.00 -24.71704673   7.82100889
2862.00 -24.75429827   7.83666605
2864.00 -24.79156860   7.85234260
2866.00 -24.82885771   7.86803853
2868.00 -24.86616558   7.88375386
2870.00 -24.90349220   7.89948859
2872.00 -24.94083756   7.91524274
2874.00 -24.97820164   7.93101629
2876.00 -25.01558444   7.94680928
2878.00 -25.05298593   7.96262169
2880.00 -25.09040611   7.97845355
2882.00 -25.12784496   7.99430485
2884.00 -25.16530247   8.01017560
2886.00 -25.20277863   8.02606581
2888.00 -25.24027342   8.04197549
2890.00 -25.27778683   8.05790464
2892.00 -25.31531885   8.07385328
2894.00 -25.35286946   8.08982140
2896.00 -25.39043865   8.10580902
2898.00 -25.42802641   8.12181614
2900.00 -25.46563272   8.13784277
2902.00 -25.50325758   8.15388891
2904.00 -25.54090096   8.16995458
2906.00 -25.57856286   8.18603978
2908.00 -25.61624326   8.20214452
2910.00 -25.65394215   8.21826880
2912.00 -25.69165951   8.23441263
2914.00 -25.72939534   8.25057601
2916.00 -25.76714961   8.26675897
2918.00 -25.80492232   8.28296149
2920.00 -25.84271346   8.29918360
2922.00 -25.88052300   8.31542529
2924.00 -25.91835094   8.33168657
2926.00 -25.95619727   8.34796745
2928.00 -25.99406196   8.36426794
2930.00 -26.03194501   8.38058804
2932.00 -26.06984641   8.39692776
2934.00 -26.10776613   8.41328711
2936.00 -26.14570418   8.42966609
2938.00 -26.18366053   8.44606471
2940.00 -26.22163517   8.46248298
2942.00 -26.25962808   8.47892090
2944.00 -26.29763927   8.49537849
2946.00 -26.33566870   8.51185574
2948.00 -26.37371638   8.52835266
2950.00 -26.41178228   8.54486927
2952.00 -26.44986639   8.56140556
2954.00 -26.48796870   8.57796155
2956.00 -26.52608919   8.59453724
2958.00 -26.56422786   8.61113263
2960.00 -26.60238469   8.62774775
2962.00 -26.64055967   8.64438258
2964.00 -26.67875278   8.66103714
2966.00 -26.71696400   8.67771143
2968.00 -26.75519334   8.69440547
2970.00 -26.79344077   8.71111925
2972.00 -26.83170628   8.72785279
2974.00 -26.86998985   8.74460609
2976.00 -26.90829148   8.76137916
2978.00 -26.94661115   8.77817200
2980.00 -26.98494885   8.79498462
2982.00 -27.02330456   8.81181703
2984.00 -27.06167828   8.82866923
2986.00 -27.10006998   8.84554124
2988.00 -27.13847966   8.86243305
2990.00 -27.17690729   8.87934467
2992.00 -27.21535288   8.89627611
2994.00 -27.25381640   8.91322739
2996.00 -27.29229784   8.93019849
2998.00 -27.33079719   8.94718943
3000.00 -27.36931444   8.96420022
3002.00 -27.40784957   8.98123086
3004.00 -27.44640256   8.99828136
3006.00 -27.48497342   9.01535173
3008.00 -27.52356211   9.03244197
3010.00 -27.56216864   9.04955208
3012.00 -27.60079298   9.06668209
3014.00 -27.63943512   9.08383198
3016.00 -27.67809505   9.10100177
3018.00 -27.71677276   9.11819146
3020.00 -27.75546823   9.13540106
3022.00 -27.79418145   9.15263058
3024.00 -27.83291241   9.16988003
3026.00 -27.87166109   9.18714940
3028.00 -27.91042748   9.20443870
3030.00 -27.94921156   9.22174795
3032.00 -27.98801333   9.23907715
3034.00 -28.02683277   9.25642630
3036.00 -28.06566987   9.27379542
3038.00 -28.10452461   9.29118450
3040.00 -28.14339698   9.30859355
3042.00 -28.18228697   9.32602258
3044.00 -28.22119456   9.34347160
3046.00 -28.26011974   9.36094061
3048.00 -28.29906250   9.37842962
3050.00 -28.33802282   9.39593863
3052.00 -28.37700070   9.41346765
3054.00 -28.41599611   9.43101670
3056.00 -28.45500904   9.44858576
3058.00 -28.49403949   9.46617485
3060.00 -28.53308743   9.48378398
3062.00 -28.57215286   9.50141315
3064.00 -28.61123576   9.51906237
3066.00 -28.65033611   9.53673164
3068.00 -28.68945391   9.55442097
3070.00 -28.72858914   9.57213036
3072.00 -28.76774179   9.58985983
3074.00 -28.80691185   9.60760938
3076.00 -28.84609929   9.62537901
3078.00 -28.88530411   9.64316873
3080.00 -28.92452630   9.66097855
3082.00 -28.96376584   9.67880847
3084.00 -29.00302272   9.69665849
3086.00 -29.04229692   9.71452864
3088.00 -29.08158843   9.73241890
3090.00 -29.12089724   9.75032929
3092.00 -29.16022334   9.76825981
3094.00 -29.19956670   9.78621047
3096.00 -29.23892733   9.80418127
3098.00 -29.27830520   9.82217223
3100.00 -29.31770030   9.84018334
3102.00 -29.35711262   9.85821461
3104.00 -29.39654214   9.87626605
3106.00 -29.43598886   9.89433767
3108.00 -29.47545275   9.91242946
3110.00 -29.51493381   9.93054144
3112.00 -29.55443202   9.94867361
3114.00 -29.59394737   9.96682598
3116.00 -29.63347985   9.98499855
3118.00 -29.67302943  10.00319134
3120.00 -29.71259612  10.02140433
3122.00 -29.75217989  10.03963755
3124.00 -29.79178073  10.05789100
3126.00 -29.83139863  10.07616467
3128.00 -29.87103357  10.09445859
3130.00 -29.91068554  10.11277275
3132.00 -29.95035454  10.13110716
3134.00 -29.99004054  10.14946182
3136.00 -30.02974353  10.16783675
3138.00 -30.06946350  10.18623194
3140.00 -30.10920043  10.20464741
3142.00 -30.14895431  10.22308315
3144.00 -30.18872514  10.24153918
3146.00 -30.22851289  10.26001550
3148.00 -30.26831755  10.27851211
3150.00 -30.30813911  10.29702903
3152.00 -30.34797755  10.31556625
3154.00 -30.38783286  10.33412379
3156.00 -30.42770504  10.35270164
3158.00 -30.46759405  10.37129982
3160.00 -30.50749990  10.38991833
3162.00 -30.54742257  10.40855717
3164.00 -30.58736204  10.42721636
3166.00 -30.62731831  10.44589589
3168.00 -30.66729135  10.46459577
3170.00 -30.70728115  10.48331601
3172.00 -30.74728771  10.50205661
3174.00 -30.78731101  10.52081758
3176.00 -30.82735103  10.53959893
3178.00 -30.86740776  10.55840065
3180.00 -30.90748119  10.57722276
3182.00 -30.94757130  10.59606526
3184.00 -30.98767809  10.61492816
3186.00 -31.02780153  10.63381146
3188.00 -31.06794162  10.65271517
3190.00 -31.10809834  10.67163929
3192.00 -31.14827167  10.69058382
3194.00 -31.18846161  10.70954878
3196.00 -31.22866815  10.72853417
3198.00 -31.26889125  10.74754000
3200.00 -31.30913093  10.76656626
3202.00 -31.34938715  10.78561297
3204.00 -31.38965991  10.80468013
3206.00 -31.42994920  10.82376775
3208.00 -31.47025500  10.84287583
3210.00 -31.51057729  10.86200437
3212.00 -31.55091607  10.88115339
3214.00 -31.59127132  10.90032288
3216.00 -31.63164302  10.91951286
3218.00 -31.67203117  10.93872333
3220.00 -31.71243575  10.95795428
3222.00 -31.75285675  10.97720574
3224.00 -31.79329415  10.99647770
3226.00 -31.83374794  11.01577017
3228.00 -31.87421811  11.03508316
3230.00 -31.91470464  11.05441667
3232.00 -31.95520752  11.07377070
3234.00 -31.99572674  11.09314526
3236.00 -32.03626228  11.11254035
3238.00 -32.07681414  11.13195599
3240.00 -32.11738228  11.15139217
3242.00 -32.15796672  11.17084891
3244.00 -32.19856742  11.19032620
3246.00 -32.23918438  11.20982405
3248.00 -32.27981758  11.22934247
3250.00 -32.32046701  11.24888146
3252.00 -32.36113265  11.26844103
3254.00 -32.40181450  11.28802118
3256.00 -32.44251254  11.30762192
3258.00 -32.48322676  11.32724325
3260.00 -32.52395714  11.34688518
3262.00 -32.56470366  11.36654771
3264.00 -32.60546633  11.38623084
3266.00 -32.64624511  11.40593460
3268.00 -32.68704001  11.42565896
3270.00 -32.72785100  11.44540395
3272.00 -32.76867807  11.46516957
3274.00 -32.80952121  11.48495583
3276.00 -32.85038041  11.50476271
3278.00 -32.89125565  11.52459025
3280.00 -32.93214692  11.54443843
3282.00 -32.97305420  11.56430726
3284.00 -33.01397748  11.58419675
3286.00 -33.05491676  11.60410691
3288.00 -33.09587201  11.62403773
3290.00 -33.13684322  11.64398922
3292.00 -33.17783037  11.66396140
3294.00 -33.21883347  11.68395425
3296.00 -33.25985248  11.70396779
3298.00 -33.30088740  11.72400203
3300.00 -33.34193822  11.74405696
3302.00 -33.38300492  11.76413260
3304.00 -33.42408749  11.78422894
3306.00 -33.46518591  11.80434599
3308.00 -33.50630017  11.82448376
3310.00 -33.54743026  11.84464226
3312.00 -33.58857616  11.86482147
3314.00 -33.62973787  11.88502142
3316.00 -33.67091536  11.90524211
3318.00 -33.71210862  11.92548354
3320.00 -33.75331765  11.94574571
3322.00 -33.79454242  11.96602863
3324.00 -33.83578293  11.98633231
3326.00 -33.87703916  12.00665675
3328.00 -33.91831109  12.02700195
3330.00 -33.95959872  12.04736792
3332.00 -34.00090203  12.06775467
3334.00 -34.04222100  12.08816220
3336.00 -34.08355563  12.10859051
3338.00 -34.12490590  12.12903960
3340.00 -34.16627179  12.14950949
3342.00 -34.20765330  12.17000018
3344.00 -34.24905040  12.19051167
3346.00 -34.29046310  12.21104397
3348.00 -34.33189136  12.23159708
3350.00 -34.37333519  12.25217101
3352.00 -34.41479456  12.27276575
3354.00 -34.45626946  12.29338132
3356.00 -34.49775988  12.31401773
3358.00 -34.53926581  12.33467496
3360.00 -34.58078723  12.35535304
3362.00 -34.62232413  12.37605196
3364.00 -34.66387649  12.39677173
3366.00 -34.70544431  12.41751235
3368.00 -34.74702757  12.43827383
3370.00 -34.78862625  12.45905617
3372.00 -34.83024034  12.47985938
3374.00 -34.87186983  12.50068346
3376.00 -34.91351470  12.52152841
3378.00 -34.95517495  12.54239424
3380.00 -34.99685055  12.56328096
3382.00 -35.03854150  12.58418857
3384.00 -35.08024778  12.60511707
3386.00 -35.12196938  12.62606647
3388.00 -35.16370628  12.64703677
3390.00 -35.20545848  12.66802798
3392.00 -35.24722595  12.68904010
3394.00 -35.28900868  12.71007314
3396.00 -35.33080667  12.73112709
3398.00 -35.37261989  12.75220197
3400.00 -35.41444834  12.77329778
3402.00 -35.45629200  12.79441452
3404.00 -35.49815085  12.81555220
3406.00 -35.54002489  12.83671082
3408.00 -35.58191410  12.85789039
3410.00 -35.62381846  12.87909091
3412.00 -35.66573797  12.90031238
3414.00 -35.70767261  12.92155481
3416.00 -35.74962237  12.94281821
3418.00 -35.79158723  12.96410257
3420.00 -35.83356717  12.98540790
3422.00 -35.87556220  13.00673422
3424.00 -35.91757228  13.02808151
3426.00 -35.95959742  13.04944978
3428.00 -36.00163759  13.07083905
3430.00 -36.04369279  13.09224931
3432.00 -36.08576299  13.11368056
3434.00 -36.12784819  13.13513282
3436.00 -36.16994838  13.15660608
3438.00 -36.21206353  13.17810036
3440.00 -36.25419363  13.19961565
3442.00 -36.29633868  13.22115195
3444.00 -36.33849866  13.24270928
3446.00 -36.38067355  13.26428763
3448.00 -36.42286335  13.28588702
3450.00 -36.46506803  13.30750744
3452.00 -36.50728759  13.32914890
3454.00 -36.54952201  13.35081140
3456.00 -36.59177128  13.37249495
3458.00 -36.63403538  13.39419955
3460.00 -36.67631430  13.41592521
3462.00 -36.71860803  13.43767193
3464.00 -36.76091656  13.45943970
3466.00 -36.80323987  13.48122855
3468.00 -36.84557794  13.50303847
3470.00 -36.88793077  13.52486946
3472.00 -36.93029834  13.54672154
3474.00 -36.97268064  13.56859469
3476.00 -37.01507765  13.59048894
3478.00 -37.05748936  13.61240427
3480.00 -37.09991576  13.63434070
3482.00 -37.14235684  13.65629823
3484.00 -37.18481257  13.67827687
3486.00 -37.22728295  13.70027661
3488.00 -37.26976797  13.72229746
3490.00 -37.31226760  13.74433943
3492.00 -37.35478184  13.76640252
3494.00 -37.39731068  13.78848673
3496.00 -37.43985409  13.81059206
3498.00 -37.48241207  13.83271853
3500.00 -37.52498461  13.85486613
3502.00 -37.56757168  13.87703487
3504.00 -37.61017328  13.89922475
3506.00 -37.65278939  13.92143578
3508.00 -37.69542000  13.94366796
3510.00 -37.73806510  13.96592129
3512.00 -37.78072467  13.98819578
3514.00 -37.82339870  14.01049143
3516.00 -37.86608718  14.03280825
3518.00 -37.90879009  14.05514624
3520.00 -37.95150742  14.07750539
3522.00 -37.99423915  14.09988573
3524.00 -38.03698527  14.12228724
3526.00 -38.07974578  14.14470994
3528.00 -38.12252065  14.16715383
3530.00 -38.16530987  14.18961891
3532.00 -38.20811343  14.21210518
3534.00 -38.25093132  14.23461265
3536.00 -38.29376351  14.25714132
3538.00 -38.33661001  14.27969120
3540.00 -38.37947079  14.30226229
3542.00 -38.42234584  14.32485460
3544.00 -38.46523515  14.34746812
3546.00 -38.50813871  14.37010286
3548.00 -38.55105650  14.39275883
3550.00 -38.59398850  14.41543602
3552.00 -38.63693471  14.43813444
3554.00 -38.67989511  14.46085411
3556.00 -38.72286969  14.48359500
3558.00 -38.76585843  14.50635715
3560.00 -38.80886133  14.52914053
3562.00 -38.85187836  14.55194517
3564.00 -38.89490952  14.57477106
3566.00 -38.93795478  14.59761821
3568.00 -38.98101415  14.62048661
3570.00 -39.02408760  14.64337628
3572.00 -39.06717512  14.66628722
3574.00 -39.11027669  14.68921943
3576.00 -39.15339231  14.71217291
3578.00 -39.19652196  14.73514767
3580.00 -39.23966563  14.75814371
3582.00 -39.28282330  14.78116104
3584.00 -39.32599497  14.80419965
3586.00 -39.36918061  14.82725955
3588.00 -39.41238021  14.85034075
3590.00 -39.45559376  14.87344325
3592.00 -39.49882126  14.89656705
3594.00 -39.54206267  14.91971215
3596.00 -39.58531799  14.94287857
3598.00 -39.62858721  14.96606629
3600.00 -39.67187032  14.98927533
3602.00 -39.71516729  15.01250569
3604.00 -39.75847812  15.03575737
3606.00 -39.80180280  15.05903037
3608.00 -39.84514130  15.08232470
3610.00 -39.88849362  15.10564037
3612.00 -39.93185975  15.12897737
3614.00 -39.97523966  15.15233571
3616.00 -40.01863335  15.17571539
3618.00 -40.06204080  15.19911641
3620.00 -40.10546201  15.22253879
3622.00 -40.14889694  15.24598251
3624.00 -40.19234561  15.26944759
3626.00 -40.23580798  15.29293403
3628.00 -40.27928405  15.31644183
3630.00 -40.32277380  15.33997099
3632.00 -40.36627722  15.36352152
3634.00 -40.40979429  15.38709342
3636.00 -40.45332501  15.41068670
3638.00 -40.49686936  15.43430135
3640.00 -40.54042732  15.45793738
3642.00 -40.58399889  15.48159480
3644.00 -40.62758405  15.50527360
3646.00 -40.67118278  15.52897380
3648.00 -40.71479507  15.55269538
3650.00 -40.75842092  15.57643837
3652.00 -40.80206030  15.60020275
3654.00 -40.84571320  15.62398853
3656.00 -40.88937961  15.64779572
3658.00 -40.93305952  15.67162432
3660.00 -40.97675291  15.69547433
3662.00 -41.02045977  15.71934575
3664.00 -41.06418008  15.74323859
3666.00 -41.10791384  15.76715285
3668.00 -41.15166102  15.79108854
3670.00 -41.19542163  15.81504565
3672.00 -41.23919563  15.83902419
3674.00 -41.28298302  15.86302417
3676.00 -41.32678379  15.88704558
3678.00 -41.37059793  15.91108843
3680.00 -41.41442541  15.93515272
3682.00 -41.45826622  15.95923845
3684.00 -41.50212036  15.98334563
3686.00 -41.54598781  16.00747427
3688.00 -41.58986855  16.03162435
3690.00 -41.63376258  16.05579590
3692.00 -41.67766988  16.07998890
3694.00 -41.72159043  16.10420336
3696.00 -41.76552422  16.12843929
3698.00 -41.80947124  16.15269669
3700.00 -41.85343148  16.17697556
3702.00 -41.89740492  16.20127590
3704.00 -41.94139155  16.22559772
3706.00 -41.98539136  16.24994102
3708.00 -42.02940433  16.27430580
3710.00 -42.07343044  16.29869206
3712.00 -42.11746970  16.32309982
3714.00 -42.16152207  16.34752906
3716.00 -42.20558756  16.37197980
3718.00 -42.24966614  16.39645203
3720.00 -42.29375780  16.42094576
3722.00 -42.33786254  16.44546100
3724.00 -42.38198032  16.46999774
3726.00 -42.42611116  16.49455598
3728.00 -42.47025502  16.51913574
3730.00 -42.51441189  16.54373701
3732.00 -42.55858177  16.56835979
3734.00 -42.60276464  16.59300410
3736.00 -42.64696049  16.61766992
3738.00 -42.69116930  16.64235727
3740.00 -42.73539105  16.66706614
3742.00 -42.77962575  16.69179654
3744.00 -42.82387336  16.71654848
3746.00 -42.86813389  16.74132194
3748.00 -42.91240731  16.76611695
3750.00 -42.95669362  16.79093349
3752.00 -43.00099280  16.81577158
3754.00 -43.04530483  16.84063121
3756.00 -43.08962970  16.86551239
3758.00 -43.13396741  16.89041512
3760.00 -43.17831793  16.91533940
3762.00 -43.22268126  16.94028524
3764.00 -43.26705737  16.96525263
3766.00 -43.31144626  16.99024159
3768.00 -43.35584792  17.01525210
3770.00 -43.40026233  17.04028419
3772.00 -43.44468947  17.06533784
3774.00 -43.48912934  17.09041306
3776.00 -43.53358191  17.11550985
3778.00 -43.57804719  17.14062822
3780.00 -43.62252515  17.16576817
3782.00 -43.66701577  17.19092969
3784.00 -43.71151906  17.21611280
3786.00 -43.75603499  17.24131750
3788.00 -43.80056355  17.26654378
3790.00 -43.84510473  17.29179165
3792.00 -43.88965851  17.31706112
3794.00 -43.93422489  17.34235218
3796.00 -43.97880384  17.36766484
3798.00 -44.02339536  17.39299909
3800.00 -44.06799942  17.41835495
3802.00 -44.11261603  17.44373242
3804.00 -44.15724516  17.46913149
3806.00 -44.20188680  17.49455217
3808.00 -44.24654094  17.51999446
3810.00 -44.29120757  17.54545837
3812.00 -44.33588667  17.57094389
3814.00 -44.38057822  17.59645103
3816.00 -44.42528222  17.62197979
3818.00 -44.46999866  17.64753018
3820.00 -44.51472751  17.67310219
3822.00 -44.55946876  17.69869583
3824.00 -44.60422242  17.72431109
3826.00 -44.64898844  17.74994800
3828.00 -44.69376684  17.77560653
3830.00 -44.73855759  17.80128670
3832.00 -44.78336067  17.82698852
3834.00 -44.82817609  17.85271197
3836.00 -44.87300381  17.87845707
3838.00 -44.91784384  17.90422381
3840.00 -44.96269615  17.93001220
3842.00 -45.00756074  17.95582224
3844.00 -45.05243759  17.98165393
3846.00 -45.09732668  18.00750728
3848.00 -45.14222801  18.03338229
3850.00 -45.18714156  18.05927895
3852.00 -45.23206731  18.08519727
3854.00 -45.27700526  18.11113726
3856.00 -45.32195539  18.13709891
3858.00 -45.36691769  18.16308223
3860.00 -45.41189214  18.18908722
3862.00 -45.45687873  18.21511389
3864.00 -45.50187745  18.24116222
3866.00 -45.54688829  18.26723223
3868.00 -45.59191123  18.29332392
3870.00 -45.63694626  18.31943729
3872.00 -45.68199336  18.34557234
3874.00 -45.72705252  18.37172907
3876.00 -45.77212374  18.39790749
3878.00 -45.81720698  18.42410760
3880.00 -45.86230226  18.45032940
3882.00 -45.90740954  18.47657289
3884.00 -45.95252881  18.50283808
3886.00 -45.99766008  18.52912496
3888.00 -46.04280331  18.55543354
3890.00 -46.08795849  18.58176382
3892.00 -46.13312562  18.60811580
3894.00 -46.17830468  18.63448948
3896.00 -46.22349566  18.66088487
3898.00 -46.26869854  18.68730197
3900.00 -46.31391332  18.71374078
3902.00 -46.35913997  18.74020130
3904.00 -46.40437848  18.76668353
3906.00 -46.44962885  18.79318748
3908.00 -46.49489106  18.81971315
3910.00 -46.54016509  18.84626053
3912.00 -46.58545093  18.87282964
3914.00 -46.63074857  18.89942047
3916.00 -46.67605800  18.92603302
3918.00 -46.72137919  18.95266730
3920.00 -46.76671215  18.97932331
3922.00 -46.81205686  19.00600105
3924.00 -46.85741330  19.03270052
3926.00 -46.90278145  19.05942172
3928.00 -46.94816132  19.08616466
3930.00 -46.99355288  19.11292934
3932.00 -47.03895612  19.13971576
3934.00 -47.08437102  19.16652391
3936.00 -47.12979758  19.19335381
3938.00 -47.17523579  19.22020546
3940.00 -47.22068562  19.24707885
3942.00 -47.26614706  19.27397399
3944.00 -47.31162011  19.30089087
3946.00 -47.35710474  19.32782951
3948.00 -47.40260095  19.35478991
3950.00 -47.44810873  19.38177205
3952.00 -47.49362805  19.40877596
3954.00 -47.53915891  19.43580162
3956.00 -47.58470129  19.46284904
3958.00 -47.63025519  19.48991822
3960.00 -47.67582058  19.51700917
3962.00 -47.72139745  19.54412188
3964.00 -47.76698579  19.57125635
3966.00 -47.81258560  19.59841260
3968.00 -47.85819684  19.62559061
3970.00 -47.90381952  19.65279040
3972.00 -47.94945362  19.68001195
3974.00 -47.99509912  19.70725528
3976.00 -48.04075602  19.73452039
3978.00 -48.08642429  19.76180728
3980.00 -48.13210393  19.78911594
3982.00 -48.17779492  19.81644638
3984.00 -48.22349726  19.84379861
3986.00 -48.26921092  19.87117262
3988.00 -48.31493589  19.89856841
3990.00 -48.36067216  19.92598599
3992.00 -48.40641973  19.95342536
3994.00 -48.45217856  19.98088652
3996.00 -48.49794866  20.00836947
3998.00 -48.54373001  20.03587421
4000.00 -48.58952259  20.06340075
4002.00 -48.63532640  20.09094908
4004.00 -48.68114141  20.11851921
4006.00 -48.72696762  20.14611113
4008.00 -48.77280502  20.17372486
4010.00 -48.81865358  20.20136039
4012.00 -48.86451330  20.22901772
4014.00 -48.91038417  20.25669685
4016.00 -48.95626617  20.28439779
4018.00 -49.00215928  20.31212053
4020.00 -49.04806350  20.33986509
4022.00 -49.09397881  20.36763145
4024.00 -49.13990521  20.39541962
4026.00 -49.18584266  20.42322961
4028.00 -49.23179117  20.45106141
4030.00 -49.27775072  20.47891502
4032.00 -49.32372130  20.50679045
4034.00 -49.36970289  20.53468770
4036.00 -49.41569549  20.56260676
4038.00 -49.46169907  20.59054765
4040.00 -49.50771362  20.61851035
4042.00 -49.55373914  20.64649488
4044.00 -49.59977560  20.67450124
4046.00 -49.64582301  20.70252941
4048.00 -49.69188133  20.73057942
4050.00 -49.73795057  20.75865125
4052.00 -49.78403070  20.78674491
4054.00 -49.83012172  20.81486040
4056.00 -49.87622360  20.84299772
4058.00 -49.92233635  20.87115688
4060.00 -49.96845994  20.89933786
4062.00 -50.01459436  20.92754069
4064.00 -50.06073960  20.95576534
4066.00 -50.10689565  20.98401184
4068.00 -50.15306249  21.01228017
4070.00 -50.19924011  21.04057034
4072.00 -50.24542850  21.06888236
4074.00 -50.29162764  21.09721621
4076.00 -50.33783752  21.12557191
4078.00 -50.38405814  21.15394945
4080.00 -50.43028946  21.18234884
4082.00 -50.47653149  21.21077007
4084.00 -50.52278421  21.23921315
4086.00 -50.56904761  21.26767807
4088.00 -50.61532167  21.29616485
4090.00 -50.66160638  21.32467348
4092.00 -50.70790173  21.35320395
4094.00 -50.75420770  21.38175628
4096.00 -50.80052428  21.41033047
4098.00 -50.84685147  21.43892651
4100.00 -50.89318924  21.46754440
4102.00 -50.93953758  21.49618415
4104.00 -50.98589648  21.52484576
4106.00 -51.03226593  21.55352922
4108.00 -51.07864592  21.58223455
4110.00 -51.12503642  21.61096174
4112.00 -51.17143744  21.63971078
4114.00 -51.21784895  21.66848169
4116.00 -51.26427094  21.69727447
4118.00 -51.31070340  21.72608910
4120.00 -51.35714632  21.75492560
4122.00 -51.40359968  21.78378397
4124.00 -51.45006348  21.81266421
4126.00 -51.49653769  21.84156631
4128.00 -51.54302231  21.87049028
4130.00 -51.58951732  21.89943612
4132.00 -51.63602271  21.92840383
4134.00 -51.68253846  21.95739342
4136.00 -51.72906457  21.98640487
4138.00 -51.77560102  22.01543820
4140.00 -51.82214780  22.04449340
4142.00 -51.86870490  22.07357048
4144.00 -51.91527229  22.10266943
4146.00 -51.96184998  22.13179026
4148.00 -52.00843794  22.16093296
4150.00 -52.05503617  22.19009754
4152.00 -52.10164465  22.21928401
4154.00 -52.14826336  22.24849235
4156.00 -52.19489230  22.27772257
4158.00 -52.24153145  22.30697467
4160.00 -52.28818081  22.33624866
4162.00 -52.33484034  22.36554452
4164.00 -52.38151006  22.39486227
4166.00 -52.42818993  22.42420191
4168.00 -52.47487995  22.45356342
4170.00 -52.52158011  22.48294683
4172.00 -52.56829039  22.51235212
4174.00 -52.61501078  22.54177929
4176.00 -52.66174126  22.57122836
4178.00 -52.70848183  22.60069931
4180.00 -52.75523247  22.63019215
4182.00 -52.80199317  22.65970688
4184.00 -52.84876392  22.68924350
4186.00 -52.89554470  22.71880201
4188.00 -52.94233549  22.74838241
4190.00 -52.98913630  22.77798471
4192.00 -53.03594710  22.80760890
4194.00 -53.08276788  22.83725498
4196.00 -53.12959863  22.86692295
4198.00 -53.17643933  22.89661282
4200.00 -53.22328998  22.92632458
4202.00 -53.27015056  22.95605824
4204.00 -53.31702106  22.98581379
4206.00 -53.36390146  23.01559124
4208.00 -53.41079176  23.04539059
4210.00 -53.45769193  23.07521184
4212.00 -53.50460197  23.10505498
4214.00 -53.55152186  23.13492002
4216.00 -53.59845160  23.16480697
4218.00 -53.64539116  23.19471581
4220.00 -53.69234054  23.22464655
4222.00 -53.73929972  23.25459919
4224.00 -53.78626869  23.28457374
4226.00 -53.83324744  23.31457018
4228.00 -53.88023595  23.34458853
4230.00 -53.92723422  23.37462878
4232.00 -53.97424222  23.40469093
4234.00 -54.02125995  23.43477499
4236.00 -54.06828740  23.46488095
4238.00 -54.11532454  23.49500881
4240.00 -54.16237138  23.52515858
4242.00 -54.20942788  23.55533026
4244.00 -54.25649406  23.58552384
4246.00 -54.30356988  23.61573932
4248.00 -54.35065534  23.64597671
4250.00 -54.39775042  23.67623601
4252.00 -54.44485511  23.70651722
4254.00 -54.49196941  23.73682033
4256.00 -54.53909329  23.76714535
4258.00 -54.58622674  23.79749228
4260.00 -54.63336976  23.82786111
4262.00 -54.68052232  23.85825186
4264.00 -54.72768442  23.88866451
4266.00 -54.77485604  23.91909907
4268.00 -54.82203718  23.94955555
4270.00 -54.86922781  23.98003393
4272.00 -54.91642792  24.01053422
4274.00 -54.96363751  24.04105642
4276.00 -55.01085656  24.07160054
4278.00 -55.05808505  24.10216656
4280.00 -55.10532298  24.13275449
4282.00 -55.15257033  24.16336434
4284.00 -55.19982709  24.19399610
4286.00 -55.24709325  24.22464977
4288.00 -55.29436879  24.25532535
4290.00 -55.34165370  24.28602284
4292.00 -55.38894797  24.31674225
4294.00 -55.43625159  24.34748356
4296.00 -55.48356453  24.37824679
4298.00 -55.53088680  24.40903194
4300.00 -55.57821838  24.43983899
4302.00 -55.62555925  24.47066796
4304.00 -55.67290941  24.50151885
4306.00 -55.72026883  24.53239164
4308.00 -55.76763752  24.56328635
4310.00 -55.81501544  24.59420297
4312.00 -55.86240260  24.62514151
4314.00 -55.90979898  24.65610196
4316.00 -55.95720457  24.68708433
4318.00 -56.00461935  24.71808861
4320.00 -56.05204331  24.74911480
4322.00 -56.09947644  24.78016290
4324.00 -56.14691873  24.81123292
4326.00 -56.19437016  24.84232486
4328.00 -56.24183073  24.87343871
4330.00 -56.28930041  24.90457447
4332.00 -56.33677920  24.93573215
4334.00 -56.38426708  24.96691174
4336.00 -56.43176404  24.99811325
4338.00 -56.47927008  25.02933667
4340.00 -56.52678517  25.06058201
4342.00 -56.57430930  25.09184925
4344.00 -56.62184246  25.12313842
4346.00 -56.66938464  25.15444950
4348.00 -56.71693583  25.18578249
4350.00 -56.76449601  25.21713739
4352.00 -56.81206517  25.24851422
4354.00 -56.85964330  25.27991295
4356.00 -56.90723039  25.31133360
4358.00 -56.95482642  25.34277616
4360.00 -57.00243138  25.37424064
4362.00 -57.05004525  25.40572703
4364.00 -57.09766804  25.43723533
4366.00 -57.14529971  25.46876555
4368.00 -57.19294027  25.50031768
4370.00 -57.24058969  25.53189172
4372.00 -57.28824797  25.56348768
4374.00 -57.33591510  25.59510554
4376.00 -57.38359105  25.62674533
4378.00 -57.43127582  25.65840702
4380.00 -57.47896940  25.69009063
4382.00 -57.52667177  25.72179615
4384.00 -57.57438292  25.75352358
4386.00 -57.62210284  25.78527292
4388.00 -57.66983152  25.81704418
4390.00 -57.71756894  25.84883734
4392.00 -57.76531509  25.88065242
4394.00 -57.81306995  25.91248941
4396.00 -57.86083353  25.94434831
4398.00 -57.90860579  25.97622912
4400.00 -57.95638674  26.00813184
4402.00 -58.00417635  26.04005647
4404.00 -58.05197463  26.07200301
4406.00 -58.09978154  26.10397146
4408.00 -58.14759709  26.13596181
4410.00 -58.19542125  26.16797408
4412.00 -58.24325402  26.20000826
4414.00 -58.29109539  26.23206434
4416.00 -58.33894533  26.26414233
4418.00 -58.38680385  26.29624223
4420.00 -58.43467092  26.32836404
4422.00 -58.48254654  26.36050775
4424.00 -58.53043068  26.39267337
4426.00 -58.57832335  26.42486090
4428.00 -58.62622452  26.45707033
4430.00 -58.67413419  26.48930167
4432.00 -58.72205234  26.52155491
4434.00 -58.76997896  26.55383006
4436.00 -58.81791404  26.58612711
4438.00 -58.86585756  26.61844607
4440.00 -58.91380951  26.65078693
4442.00 -58.96176989  26.68314969
4444.00 -59.00973867  26.71553435
4446.00 -59.05771585  26.74794092
4448.00 -59.10570141  26.78036939
4450.00 -59.15369534  26.81281976
4452.00 -59.20169763  26.84529203
4454.00 -59.24970826  26.87778620
4456.00 -59.29772723  26.91030227
4458.00 -59.34575452  26.94284025
4460.00 -59.39379012  26.97540012
4462.00 -59.44183401  27.00798188
4464.00 -59.48988619  27.04058555
4466.00 -59.53794664  27.07321111
4468.00 -59.58601535  27.10585858
4470.00 -59.63409231  27.13852793
4472.00 -59.68217751  27.17121919
4474.00 -59.73027092  27.20393233
4476.00 -59.77837255  27.23666738
4478.00 -59.82648237  27.26942431
4480.00 -59.87460038  27.30220315
4482.00 -59.92272656  27.33500387
4484.00 -59.97086090  27.36782649
4486.00 -60.01900340  27.40067099
4488.00 -60.06715402  27.43353739
4490.00 -60.11531278  27.46642568
4492.00 -60.16347964  27.49933586
4494.00 -60.21165461  27.53226793
4496.00 -60.25983766  27.56522189
4498.00 -60.30802878  27.59819774
4500.00 -60.35622797  27.63119547
4502.00 -60.40443521  27.66421509
4504.00 -60.45265049  27.69725660
4506.00 -60.50087379  27.73031999
4508.00 -60.54910511  27.76340527
4510.00 -60.59734443  27.79651243
4512.00 -60.64559173  27.82964148
4514.00 -60.69384702  27.86279240
4516.00 -60.74211027  27.89596521
4518.00 -60.79038147  27.92915990
4520.00 -60.83866061  27.96237648
4522.00 -60.88694768  27.99561493
4524.00 -60.93524267  28.02887526
4526.00 -60.98354555  28.06215747
4528.00 -61.03185634  28.09546155
4530.00 -61.08017499  28.12878752
4532.00 -61.12850152  28.16213536
4534.00 -61.17683590  28.19550507
4536.00 -61.22517813  28.22889666
4538.00 -61.27352818  28.26231012
4540.00 -61.32188605  28.29574546
4542.00 -61.37025173  28.32920267
4544.00 -61.41862520  28.36268175
4546.00 -61.46700645  28.39618270
4548.00 -61.51539548  28.42970552
4550.00 -61.56379226  28.46325020
4552.00 -61.61219678  28.49681676
4554.00 -61.66060904  28.53040518
4556.00 -61.70902902  28.56401547
4558.00 -61.75745670  28.59764763
4560.00 -61.80589208  28.63130165
4562.00 -61.85433515  28.66497753
4564.00 -61.90278589  28.69867528
4566.00 -61.95124429  28.73239488
4568.00 -61.99971034  28.76613635
4570.00 -62.04818402  28.79989968
4572.00 -62.09666533  28.83368487
4574.00 -62.14515424  28.86749192
4576.00 -62.19365076  28.90132082
4578.00 -62.24215486  28.93517158
4580.00 -62.29066654  28.96904419
4582.00 -62.33918579  29.00293866
4584.00 -62.38771258  29.03685499
4586.00 -62.43624691  29.07079316
4588.00 -62.48478877  29.10475319
4590.00 -62.53333814  29.13873506
4592.00 -62.58189502  29.17273879
4594.00 -62.63045938  29.20676436
4596.00 -62.67903122  29.24081179
4598.00 -62.72761053  29.27488106
4600.00 -62.77619730  29.30897217
4602.00 -62.82479150  29.34308513
4604.00 -62.87339314  29.37721993
4606.00 -62.92200219  29.41137657
4608.00 -62.97061865  29.44555506
4610.00 -63.01924251  29.47975538
4612.00 -63.06787374  29.51397755
4614.00 -63.11651235  29.54822155
4616.00 -63.16515831  29.58248739
4618.00 -63.21381162  29.61677506
4620.00 -63.26247226  29.65108457
4622.00 -63.31114022  29.68541592
4624.00 -63.35981550  29.71976909
4626.00 -63.40849807  29.75414410
4628.00 -63.45718792  29.78854094
4630.00 -63.50588505  29.82295961
4632.00 -63.55458944  29.85740010
4634.00 -63.60330108  29.89186242
4636.00 -63.65201996  29.92634657
4638.00 -63.70074607  29.96085254
4640.00 -63.74947938  29.99538033
4642.00 -63.79821990  30.02992995
4644.00 -63.84696761  30.06450139
4646.00 -63.89572249  30.09909465
4648.00 -63.94448454  30.13370972
4650.00 -63.99325375  30.16834662
4652.00 -64.04203010  30.20300533
4654.00 -64.09081357  30.23768585
4656.00 -64.13960416  30.27238819
4658.00 -64.18840186  30.30711234
4660.00 -64.23720666  30.34185830
4662.00 -64.28601853  30.37662607
4664.00 -64.33483748  30.41141565
4666.00 -64.38366348  30.44622704
4668.00 -64.43249653  30.48106023
4670.00 -64.48133661  30.51591523
4672.00 -64.53018372  30.55079203
4674.00 -64.57903783  30.58569064
4676.00 -64.62789894  30.62061104
4678.00 -64.67676704  30.65555325
4680.00 -64.72564212  30.69051725
4682.00 -64.77452416  30.72550305
4684.00 -64.82341314  30.76051065
4686.00 -64.87230907  30.79554004
4688.00 -64.92121192  30.83059122
4690.00 -64.97012169  30.86566419
4692.00 -65.01903837  30.90075896
4694.00 -65.06796193  30.93587551
4696.00 -65.11689237  30.97101385
4698.00 -65.16582968  31.00617398
4700.00 -65.21477385  31.04135589
4702.00 -65.26372486  31.07655959
4704.00 -65.31268270  31.11178506
4706.00 -65.36164736  31.14703232
4708.00 -65.41061883  31.18230136
4710.00 -65.45959709  31.21759217
4712.00 -65.50858215  31.25290476
4714.00 -65.55757397  31.28823912
4716.00 -65.60657255  31.32359526
4718.00 -65.65557789  31.35897317
4720.00 -65.70458996  31.39437285
4722.00 -65.75360875  31.42979430
4724.00 -65.80263426  31.46523752
4726.00 -65.85166647  31.50070250
4728.00 -65.90070538  31.53618925
4730.00 -65.94975095  31.57169776
4732.00 -65.99880320  31.60722803
4734.00 -66.04786210  31.64278006
4736.00 -66.09692764  31.67835385
4738.00 -66.14599982  31.71394940
4740.00 -66.19507861  31.74956670
4742.00 -66.24416401  31.78520575
4744.00 -66.29325601  31.82086656
4746.00 -66.34235459  31.85654912
4748.00 -66.39145974  31.89225343
4750.00 -66.44057146  31.92797948
4752.00 -66.48968972  31.96372729
4754.00 -66.53881452  31.99949683
4756.00 -66.58794584  32.03528812
4758.00 -66.63708368  32.07110115
4760.00 -66.68622802  32.10693592
4762.00 -66.73537885  32.14279243
4764.00 -66.78453616  32.17867067
4766.00 -66.83369993  32.21457065
4768.00 -66.88287016  32.25049236
4770.00 -66.93204683  32.28643581
4772.00 -66.98122993  32.32240098
4774.00 -67.03041946  32.35838788
4776.00 -67.07961539  32.39439651
4778.00 -67.12881771  32.43042686
4780.00 -67.17802642  32.46647894
4782.00 -67.22724151  32.50255274
4784.00 -67.27646295  32.53864825
4786.00 -67.32569075  32.57476549
4788.00 -67.37492488  32.61090444
4790.00 -67.42416534  32.64706511
4792.00 -67.47341211  32.68324749
4794.00 -67.52266519  32.71945158
4796.00 -67.57192456  32.75567738
4798.00 -67.62119021  32.79192489
4800.00 -67.67046212  32.82819410
4802.00 -67.71974029  32.86448502
4804.00 -67.76902471  32.90079764
4806.00 -67.81831536  32.93713197
4808.00 -67.86761223  32.97348799
4810.00 -67.91691531  33.00986571
4812.00 -67.96622459  33.04626512
4814.00 -68.01554005  33.08268623
4816.00 -68.06486169  33.11912903
4818.00 -68.11418949  33.15559352
4820.00 -68.16352345  33.19207970
4822.00 -68.21286354  33.22858756
4824.00 -68.26220977  33.26511711
4826.00 -68.31156211  33.30166834
4828.00 -68.36092055  33.33824126
4830.00 -68.41028509  33.37483585
4832.00 -68.45965571  33.41145212
4834.00 -68.50903240  33.44809006
4836.00 -68.55841515  33.48474968
4838.00 -68.60780395  33.52143097
4840.00 -68.65719879  33.55813393
4842.00 -68.70659964  33.59485856
4844.00 -68.75600652  33.63160486
4846.00 -68.80541939  33.66837282
4848.00 -68.85483825  33.70516244
4850.00 -68.90426309  33.74197372
4852.00 -68.95369390  33.77880666
4854.00 -69.00313066  33.81566125
4856.00 -69.05257336  33.85253750
4858.00 -69.10202200  33.88943541
4860.00 -69.15147656  33.92635496
4862.00 -69.20093703  33.96329616
4864.00 -69.25040339  34.00025901
4866.00 -69.29987564  34.03724351
4868.00 -69.34935377  34.07424964
4870.00 -69.39883776  34.11127742
4872.00 -69.44832760  34.14832684
4874.00 -69.49782328  34.18539789
4876.00 -69.54732479  34.22249058
4878.00 -69.59683212  34.25960490
4880.00 -69.64634525  34.29674086
4882.00 -69.69586417  34.33389844
4884.00 -69.74538888  34.37107764
4886.00 -69.79491936  34.40827848
4888.00 -69.84445560  34.44550093
4890.00 -69.89399759  34.48274501
4892.00 -69.94354532  34.52001070
4894.00 -69.99309877  34.55729802
4896.00 -70.04265794  34.59460694
4898.00 -70.09222280  34.63193748
4900.00 -70.14179336  34.66928963
4902.00 -70.19136960  34.70666339
4904.00 -70.24095151  34.74405875
4906.00 -70.29053908  34.78147572
4908.00 -70.34013229  34.81891429
4910.00 -70.38973113  34.85637446
4912.00 -70.43933560  34.89385622
4914.00 -70.48894568  34.93135959
4916.00 -70.53856136  34.96888454
4918.00 -70.58818263  35.00643109
4920.00 -70.63780947  35.04399923
4922.00 -70.68744188  35.08158895
4924.00 -70.73707985  35.11920026
4926.00 -70.78672336  35.15683315
4928.00 -70.83637240  35.19448763
4930.00 -70.88602696  35.23216368
4932.00 -70.93568704  35.26986130
4934.00 -70.98535261  35.30758051
4936.00 -71.03502366  35.34532128
4938.00 -71.08470019  35.38308362
4940.00 -71.13438219  35.42086753
4942.00 -71.18406964  35.45867301
4944.00 -71.23376253  35.49650005
4946.00 -71.28346084  35.53434865
4948.00 -71.33316458  35.57221880
4950.00 -71.38287373  35.61011052
4952.00 -71.43258827  35.64802379
4954.00 -71.48230819  35.68595861
4956.00 -71.53203349  35.72391498
4958.00 -71.58176415  35.76189290
4960.00 -71.63150017  35.79989236
4962.00 -71.68124152  35.83791336
4964.00 -71.73098820  35.87595591
4966.00 -71.78074020  35.91401999
4968.00 -71.83049750  35.95210561
4970.00 -71.88026010  35.99021277
4972.00 -71.93002798  36.02834145
4974.00 -71.97980113  36.06649166
4976.00 -72.02957955  36.10466341
4978.00 -72.07936321  36.14285667
4980.00 -72.12915212  36.18107146
4982.00 -72.17894625  36.21930776
4984.00 -72.22874559  36.25756559
4986.00 -72.27855014  36.29584493
4988.00 -72.32835989  36.33414578
4990.00 -72.37817481  36.37246814
4992.00 -72.42799491  36.41081201
4994.00 -72.47782017  36.44917738
4996.00 -72.52765057  36.48756426
4998.00 -72.57748612  36.52597264
5000.00 -72.62732679  36.56440252
