wavelength(nm)         real         imag
100.00   3.88010639   0.00019010
102.00   3.87930277   0.00020174
104.00   3.87848323   0.00021384
106.00   3.87764779   0.00022641
108.00   3.87679645   0.00023947
110.00   3.87592919   0.00025302
112.00   3.87504604   0.00026707
114.00   3.87414697   0.00028164
116.00   3.87323200   0.00029672
118.00   3.87230113   0.00031233
120.00   3.87135435   0.00032848
122.00   3.87039167   0.00034518
124.00   3.86941309   0.00036243
126.00   3.86841860   0.00038025
128.00   3.86740821   0.00039865
130.00   3.86638192   0.00041763
132.00   3.86533973   0.00043720
134.00   3.86428163   0.00045737
136.00   3.86320763   0.00047815
138.00   3.86211774   0.00049956
140.00   3.86101194   0.00052159
142.00   3.85989025   0.00054426
144.00   3.85875266   0.00056758
146.00   3.85759916   0.00059156
148.00   3.85642977   0.00061620
150.00   3.85524449   0.00064152
152.00   3.85404330   0.00066752
154.00   3.85282622   0.00069421
156.00   3.85159325   0.00072161
158.00   3.85034438   0.00074972
160.00   3.84907961   0.00077854
162.00   3.84779895   0.00080810
164.00   3.84650240   0.00083840
166.00   3.84518996   0.00086944
168.00   3.84386162   0.00090124
170.00   3.84251739   0.00093381
172.00   3.84115727   0.00096715
174.00   3.83978126   0.00100127
176.00   3.83838936   0.00103619
178.00   3.83698157   0.00107191
180.00   3.83555789   0.00110845
182.00   3.83411832   0.00114580
184.00   3.83266286   0.00118398
186.00   3.83119152   0.00122300
188.00   3.82970430   0.00126287
190.00   3.82820118   0.00130360
192.00   3.82668218   0.00134519
194.00   3.82514730   0.00138765
196.00   3.82359654   0.00143100
198.00   3.82202989   0.00147525
200.00   3.82044736   0.00152040
202.00   3.81884894   0.00156645
204.00   3.81723465   0.00161343
206.00   3.81560448   0.00166134
208.00   3.81395842   0.00171019
210.00   3.81229649   0.00175998
212.00   3.81061868   0.00181073
214.00   3.80892500   0.00186245
216.00   3.80721543   0.00191514
218.00   3.80548999   0.00196882
220.00   3.80374868   0.00202349
222.00   3.80199149   0.00207916
224.00   3.80021843   0.00213585
226.00   3.79842950   0.00219355
228.00   3.79662469   0.00225229
230.00   3.79480401   0.00231206
232.00   3.79296747   0.00237288
234.00   3.79111505   0.00243476
236.00   3.78924677   0.00249770
238.00   3.78736261   0.00256172
240.00   3.78546259   0.00262682
242.00   3.78354671   0.00269302
244.00   3.78161495   0.00276031
246.00   3.77966734   0.00282872
248.00   3.77770386   0.00289825
250.00   3.77572452   0.00296891
252.00   3.77372931   0.00304071
254.00   3.77171825   0.00311366
256.00   3.76969132   0.00318776
258.00   3.76764854   0.00326302
260.00   3.76558989   0.00333947
262.00   3.76351539   0.00341709
264.00   3.76142504   0.00349591
266.00   3.75931882   0.00357593
268.00   3.75719675   0.00365717
270.00   3.75505883   0.00373962
272.00   3.75290506   0.00382330
274.00   3.75073543   0.00390822
276.00   3.74854996   0.00399439
278.00   3.74634863   0.00408181
280.00   3.74413145   0.00417050
282.00   3.74189843   0.00426047
284.00   3.73964956   0.00435171
286.00   3.73738484   0.00444426
288.00   3.73510428   0.00453810
290.00   3.73280787   0.00463325
292.00   3.73049562   0.00472972
294.00   3.72816753   0.00482752
296.00   3.72582359   0.00492666
298.00   3.72346382   0.00502715
300.00   3.72108821   0.00512899
302.00   3.71869676   0.00523220
304.00   3.71628947   0.00533678
306.00   3.71386634   0.00544275
308.00   3.71142739   0.00555011
310.00   3.70897259   0.00565886
312.00   3.70650197   0.00576903
314.00   3.70401551   0.00588062
316.00   3.70151323   0.00599364
318.00   3.69899511   0.00610809
320.00   3.69646116   0.00622399
322.00   3.69391139   0.00634135
324.00   3.69134579   0.00646017
326.00   3.68876437   0.00658047
328.00   3.68616712   0.00670224
330.00   3.68355405   0.00682551
332.00   3.68092516   0.00695028
334.00   3.67828045   0.00707656
336.00   3.67561992   0.00720436
338.00   3.67294357   0.00733369
340.00   3.67025140   0.00746455
342.00   3.66754342   0.00759696
344.00   3.66481963   0.00773092
346.00   3.66208002   0.00786645
348.00   3.65932459   0.00800355
350.00   3.65655336   0.00814224
352.00   3.65376632   0.00828251
354.00   3.65096346   0.00842439
356.00   3.64814480   0.00856787
358.00   3.64531034   0.00871297
360.00   3.64246007   0.00885970
362.00   3.63959400   0.00900806
364.00   3.63671212   0.00915807
366.00   3.63381444   0.00930974
368.00   3.63090096   0.00946307
370.00   3.62797169   0.00961807
372.00   3.62502661   0.00977475
374.00   3.62206575   0.00993312
376.00   3.61908908   0.01009319
378.00   3.61609662   0.01025497
380.00   3.61308837   0.01041846
382.00   3.61006433   0.01058369
384.00   3.60702450   0.01075064
386.00   3.60396889   0.01091935
388.00   3.60089748   0.01108980
390.00   3.59781029   0.01126202
392.00   3.59470732   0.01143601
394.00   3.59158856   0.01161178
396.00   3.58845402   0.01178933
398.00   3.58530370   0.01196869
400.00   3.58213760   0.01214985
402.00   3.57895573   0.01233283
404.00   3.57575808   0.01251764
406.00   3.57254465   0.01270428
408.00   3.56931545   0.01289276
410.00   3.56607048   0.01308310
412.00   3.56280974   0.01327529
414.00   3.55953323   0.01346936
416.00   3.55624095   0.01366531
418.00   3.55293291   0.01386314
420.00   3.54960910   0.01406287
422.00   3.54626953   0.01426451
424.00   3.54291420   0.01446806
426.00   3.53954311   0.01467354
428.00   3.53615626   0.01488095
430.00   3.53275365   0.01509030
432.00   3.52933528   0.01530160
434.00   3.52590116   0.01551487
436.00   3.52245129   0.01573010
438.00   3.51898567   0.01594731
440.00   3.51550430   0.01616650
442.00   3.51200718   0.01638770
444.00   3.50849431   0.01661089
446.00   3.50496570   0.01683610
448.00   3.50142134   0.01706334
450.00   3.49786124   0.01729260
452.00   3.49428540   0.01752391
454.00   3.49069382   0.01775727
456.00   3.48708651   0.01799268
458.00   3.48346346   0.01823016
460.00   3.47982467   0.01846972
462.00   3.47617015   0.01871136
464.00   3.47249990   0.01895510
466.00   3.46881392   0.01920094
468.00   3.46511222   0.01944890
470.00   3.46139478   0.01969897
472.00   3.45766163   0.01995118
474.00   3.45391275   0.02020552
476.00   3.45014814   0.02046202
478.00   3.44636782   0.02072066
480.00   3.44257178   0.02098148
482.00   3.43876002   0.02124447
484.00   3.43493255   0.02150964
486.00   3.43108937   0.02177701
488.00   3.42723047   0.02204658
490.00   3.42335587   0.02231836
492.00   3.41946555   0.02259236
494.00   3.41555953   0.02286859
496.00   3.41163781   0.02314705
498.00   3.40770038   0.02342776
500.00   3.40374725   0.02371073
502.00   3.39977842   0.02399596
504.00   3.39579389   0.02428346
506.00   3.39179367   0.02457325
508.00   3.38777775   0.02486532
510.00   3.38374614   0.02515970
512.00   3.37969884   0.02545638
514.00   3.37563585   0.02575538
516.00   3.37155717   0.02605671
518.00   3.36746281   0.02636038
520.00   3.36335276   0.02666639
522.00   3.35922704   0.02697475
524.00   3.35508563   0.02728547
526.00   3.35092854   0.02759857
528.00   3.34675578   0.02791404
530.00   3.34256734   0.02823191
532.00   3.33836323   0.02855217
534.00   3.33414344   0.02887484
536.00   3.32990799   0.02919992
538.00   3.32565687   0.02952743
540.00   3.32139009   0.02985737
542.00   3.31710764   0.03018975
544.00   3.31280953   0.03052459
546.00   3.30849576   0.03086188
548.00   3.30416633   0.03120165
550.00   3.29982124   0.03154389
552.00   3.29546050   0.03188862
554.00   3.29108411   0.03223584
556.00   3.28669207   0.03258557
558.00   3.28228438   0.03293781
560.00   3.27786104   0.03329257
562.00   3.27342206   0.03364987
564.00   3.26896743   0.03400970
566.00   3.26449717   0.03437208
568.00   3.26001126   0.03473702
570.00   3.25550972   0.03510453
572.00   3.25099254   0.03547461
574.00   3.24645973   0.03584728
576.00   3.24191129   0.03622254
578.00   3.23734722   0.03660040
580.00   3.23276752   0.03698087
582.00   3.22817220   0.03736396
584.00   3.22356125   0.03774968
586.00   3.21893468   0.03813804
588.00   3.21429250   0.03852904
590.00   3.20963469   0.03892270
592.00   3.20496127   0.03931902
594.00   3.20027224   0.03971801
596.00   3.19556760   0.04011969
598.00   3.19084734   0.04052405
600.00   3.18611148   0.04093112
602.00   3.18136002   0.04134089
604.00   3.17659295   0.04175338
606.00   3.17181028   0.04216859
608.00   3.16701201   0.04258654
610.00   3.16219815   0.04300723
612.00   3.15736869   0.04343068
614.00   3.15252364   0.04385688
616.00   3.14766300   0.04428586
618.00   3.14278677   0.04471761
620.00   3.13789495   0.04515215
622.00   3.13298755   0.04558949
624.00   3.12806457   0.04602963
626.00   3.12312601   0.04647259
628.00   3.11817187   0.04691837
630.00   3.11320216   0.04736697
632.00   3.10821687   0.04781842
634.00   3.10321601   0.04827272
636.00   3.09819958   0.04872988
638.00   3.09316758   0.04918990
640.00   3.08812002   0.04965280
642.00   3.08305690   0.05011858
644.00   3.07797822   0.05058726
646.00   3.07288398   0.05105883
648.00   3.06777418   0.05153332
650.00   3.06264883   0.05201073
652.00   3.05750793   0.05249106
654.00   3.05235148   0.05297433
656.00   3.04717948   0.05346055
658.00   3.04199194   0.05394972
660.00   3.03678885   0.05444185
662.00   3.03157023   0.05493696
664.00   3.02633607   0.05543505
666.00   3.02108637   0.05593612
668.00   3.01582113   0.05644020
670.00   3.01054037   0.05694728
672.00   3.00524408   0.05745738
674.00   2.99993226   0.05797050
676.00   2.99460492   0.05848665
678.00   2.98926205   0.05900585
680.00   2.98390367   0.05952810
682.00   2.97852976   0.06005340
684.00   2.97314035   0.06058178
686.00   2.96773542   0.06111323
688.00   2.96231498   0.06164777
690.00   2.95687903   0.06218540
692.00   2.95142758   0.06272613
694.00   2.94596062   0.06326998
696.00   2.94047816   0.06381695
698.00   2.93498020   0.06436705
700.00   2.92946675   0.06492028
702.00   2.92393781   0.06547666
704.00   2.91839337   0.06603620
706.00   2.91283344   0.06659890
708.00   2.90725803   0.06716478
710.00   2.90166713   0.06773383
712.00   2.89606075   0.06830608
714.00   2.89043889   0.06888153
716.00   2.88480156   0.06946018
718.00   2.87914875   0.07004205
720.00   2.87348046   0.07062714
722.00   2.86779671   0.07121547
724.00   2.86209749   0.07180705
726.00   2.85638281   0.07240187
728.00   2.85065266   0.07299995
730.00   2.84490706   0.07360130
732.00   2.83914600   0.07420593
734.00   2.83336948   0.07481385
736.00   2.82757751   0.07542506
738.00   2.82177009   0.07603957
740.00   2.81594722   0.07665740
742.00   2.81010891   0.07727855
744.00   2.80425516   0.07790302
746.00   2.79838597   0.07853084
748.00   2.79250134   0.07916200
750.00   2.78660127   0.07979651
752.00   2.78068577   0.08043439
754.00   2.77475485   0.08107565
756.00   2.76880849   0.08172028
758.00   2.76284672   0.08236831
760.00   2.75686952   0.08301973
762.00   2.75087690   0.08367456
764.00   2.74486886   0.08433281
766.00   2.73884541   0.08499448
768.00   2.73280655   0.08565959
770.00   2.72675228   0.08632814
772.00   2.72068261   0.08700014
774.00   2.71459753   0.08767560
776.00   2.70849705   0.08835452
778.00   2.70238117   0.08903692
780.00   2.69624989   0.08972281
782.00   2.69010323   0.09041219
784.00   2.68394117   0.09110508
786.00   2.67776372   0.09180147
788.00   2.67157089   0.09250139
790.00   2.66536268   0.09320483
792.00   2.65913908   0.09391181
794.00   2.65290011   0.09462234
796.00   2.64664577   0.09533642
798.00   2.64037605   0.09605406
800.00   2.63409097   0.09677528
802.00   2.62779052   0.09750007
804.00   2.62147470   0.09822845
806.00   2.61514352   0.09896043
808.00   2.60879699   0.09969602
810.00   2.60243510   0.10043522
812.00   2.59605786   0.10117805
814.00   2.58966526   0.10192450
816.00   2.58325733   0.10267460
818.00   2.57683404   0.10342834
820.00   2.57039542   0.10418574
822.00   2.56394145   0.10494681
824.00   2.55747215   0.10571155
826.00   2.55098752   0.10647998
828.00   2.54448755   0.10725209
830.00   2.53797226   0.10802791
832.00   2.53144164   0.10880744
834.00   2.52489570   0.10959068
836.00   2.51833445   0.11037765
838.00   2.51175787   0.11116835
840.00   2.50516598   0.11196280
842.00   2.49855878   0.11276100
844.00   2.49193628   0.11356296
846.00   2.48529846   0.11436868
848.00   2.47864535   0.11517819
850.00   2.47197693   0.11599148
852.00   2.46529322   0.11680856
854.00   2.45859422   0.11762945
856.00   2.45187992   0.11845415
858.00   2.44515034   0.11928267
860.00   2.43840547   0.12011501
862.00   2.43164532   0.12095120
864.00   2.42486989   0.12179123
866.00   2.41807919   0.12263511
868.00   2.41127321   0.12348286
870.00   2.40445196   0.12433447
872.00   2.39761544   0.12518997
874.00   2.39076366   0.12604935
876.00   2.38389661   0.12691263
878.00   2.37701431   0.12777982
880.00   2.37011675   0.12865092
882.00   2.36320394   0.12952594
884.00   2.35627588   0.13040489
886.00   2.34933257   0.13128778
888.00   2.34237402   0.13217462
890.00   2.33540023   0.13306542
892.00   2.32841120   0.13396018
894.00   2.32140693   0.13485891
896.00   2.31438744   0.13576162
898.00   2.30735271   0.13666833
900.00   2.30030276   0.13757903
902.00   2.29323758   0.13849374
904.00   2.28615719   0.13941246
906.00   2.27906158   0.14033521
908.00   2.27195075   0.14126199
910.00   2.26482472   0.14219281
912.00   2.25768347   0.14312768
914.00   2.25052703   0.14406661
916.00   2.24335538   0.14500960
918.00   2.23616853   0.14595667
920.00   2.22896648   0.14690782
922.00   2.22174925   0.14786307
924.00   2.21451682   0.14882241
926.00   2.20726921   0.14978586
928.00   2.20000642   0.15075343
930.00   2.19272844   0.15172512
932.00   2.18543529   0.15270095
934.00   2.17812697   0.15368091
936.00   2.17080347   0.15466503
938.00   2.16346481   0.15565331
940.00   2.15611098   0.15664575
942.00   2.14874199   0.15764238
944.00   2.14135785   0.15864318
946.00   2.13395855   0.15964818
948.00   2.12654410   0.16065737
950.00   2.11911450   0.16167078
952.00   2.11166975   0.16268841
954.00   2.10420986   0.16371026
956.00   2.09673483   0.16473634
958.00   2.08924467   0.16576667
960.00   2.08173938   0.16680125
962.00   2.07421895   0.16784009
964.00   2.06668340   0.16888320
966.00   2.05913273   0.16993058
968.00   2.05156693   0.17098225
970.00   2.04398602   0.17203821
972.00   2.03639000   0.17309847
974.00   2.02877887   0.17416304
976.00   2.02115263   0.17523193
978.00   2.01351129   0.17630515
980.00   2.00585484   0.17738270
982.00   1.99818330   0.17846460
984.00   1.99049667   0.17955084
986.00   1.98279495   0.18064145
988.00   1.97507813   0.18173643
990.00   1.96734624   0.18283578
992.00   1.95959926   0.18393951
994.00   1.95183721   0.18504764
996.00   1.94406009   0.18616018
998.00   1.93626789   0.18727712
1000.00   1.92846063   0.18839848
1002.00   1.92063830   0.18952426
1004.00   1.91280091   0.19065449
1006.00   1.90494846   0.19178915
1008.00   1.89708096   0.19292827
1010.00   1.88919841   0.19407184
1012.00   1.88130082   0.19521989
1014.00   1.87338818   0.19637241
1016.00   1.86546050   0.19752941
1018.00   1.85751778   0.19869091
1020.00   1.84956003   0.19985691
1022.00   1.84158724   0.20102742
1024.00   1.83359943   0.20220244
1026.00   1.82559660   0.20338200
1028.00   1.81757875   0.20456609
1030.00   1.80954588   0.20575472
1032.00   1.80149800   0.20694790
1034.00   1.79343511   0.20814564
1036.00   1.78535721   0.20934795
1038.00   1.77726431   0.21055483
1040.00   1.76915641   0.21176630
1042.00   1.76103351   0.21298236
1044.00   1.75289562   0.21420302
1046.00   1.74474274   0.21542829
1048.00   1.73657488   0.21665818
1050.00   1.72839203   0.21789269
1052.00   1.72019421   0.21913184
1054.00   1.71198141   0.22037562
1056.00   1.70375364   0.22162406
1058.00   1.69551090   0.22287716
1060.00   1.68725319   0.22413492
1062.00   1.67898053   0.22539736
1064.00   1.67069290   0.22666448
1066.00   1.66239033   0.22793629
1068.00   1.65407280   0.22921280
1070.00   1.64574032   0.23049402
1072.00   1.63739291   0.23177995
1074.00   1.62903055   0.23307061
1076.00   1.62065325   0.23436600
1078.00   1.61226102   0.23566613
1080.00   1.60385387   0.23697101
1082.00   1.59543178   0.23828064
1084.00   1.58699478   0.23959504
1086.00   1.57854286   0.24091422
1088.00   1.57007602   0.24223817
1090.00   1.56159427   0.24356692
1092.00   1.55309761   0.24490046
1094.00   1.54458605   0.24623881
1096.00   1.53605958   0.24758197
1098.00   1.52751823   0.24892995
1100.00   1.51896197   0.25028277
1102.00   1.51039083   0.25164042
1104.00   1.50180480   0.25300292
1106.00   1.49320389   0.25437028
1108.00   1.48458810   0.25574249
1110.00   1.47595743   0.25711958
1112.00   1.46731190   0.25850155
1114.00   1.45865149   0.25988841
1116.00   1.44997622   0.26128016
1118.00   1.44128610   0.26267681
1120.00   1.43258111   0.26407838
1122.00   1.42386127   0.26548486
1124.00   1.41512658   0.26689628
1126.00   1.40637705   0.26831263
1128.00   1.39761267   0.26973392
1130.00   1.38883346   0.27116017
1132.00   1.38003941   0.27259137
1134.00   1.37123053   0.27402755
1136.00   1.36240682   0.27546870
1138.00   1.35356829   0.27691484
1140.00   1.34471494   0.27836597
1142.00   1.33584677   0.27982210
1144.00   1.32696380   0.28128324
1146.00   1.31806601   0.28274940
1148.00   1.30915342   0.28422058
1150.00   1.30022603   0.28569679
1152.00   1.29128384   0.28717805
1154.00   1.28232685   0.28866436
1156.00   1.27335508   0.29015572
1158.00   1.26436852   0.29165215
1160.00   1.25536718   0.29315365
1162.00   1.24635106   0.29466023
1164.00   1.23732017   0.29617191
1166.00   1.22827451   0.29768868
1168.00   1.21921408   0.29921056
1170.00   1.21013889   0.30073755
1172.00   1.20104894   0.30226966
1174.00   1.19194423   0.30380690
1176.00   1.18282477   0.30534928
1178.00   1.17369056   0.30689681
1180.00   1.16454161   0.30844949
1182.00   1.15537793   0.31000733
1184.00   1.14619950   0.31157034
1186.00   1.13700634   0.31313853
1188.00   1.12779846   0.31471191
1190.00   1.11857585   0.31629048
1192.00   1.10933852   0.31787425
1194.00   1.10008647   0.31946323
1196.00   1.09081971   0.32105743
1198.00   1.08153824   0.32265686
1200.00   1.07224207   0.32426152
1202.00   1.06293120   0.32587142
1204.00   1.05360563   0.32748657
1206.00   1.04426536   0.32910698
1208.00   1.03491041   0.33073265
1210.00   1.02554077   0.33236360
1212.00   1.01615645   0.33399983
1214.00   1.00675746   0.33564135
1216.00   0.99734379   0.33728817
1218.00   0.98791545   0.33894029
1220.00   0.97847244   0.34059773
1222.00   0.96901478   0.34226049
1224.00   0.95954246   0.34392858
1226.00   0.95005548   0.34560200
1228.00   0.94055385   0.34728078
1230.00   0.93103758   0.34896490
1232.00   0.92150667   0.35065438
1234.00   0.91196112   0.35234924
1236.00   0.90240093   0.35404947
1238.00   0.89282612   0.35575509
1240.00   0.88323668   0.35746610
1242.00   0.87363262   0.35918251
1244.00   0.86401394   0.36090433
1246.00   0.85438065   0.36263156
1248.00   0.84473275   0.36436422
1250.00   0.83507025   0.36610231
1252.00   0.82539314   0.36784584
1254.00   0.81570144   0.36959482
1256.00   0.80599514   0.37134926
1258.00   0.79627426   0.37310916
1260.00   0.78653879   0.37487453
1262.00   0.77678874   0.37664539
1264.00   0.76702411   0.37842172
1266.00   0.75724491   0.38020356
1268.00   0.74745114   0.38199090
1270.00   0.73764281   0.38378375
1272.00   0.72781992   0.38558211
1274.00   0.71798247   0.38738601
1276.00   0.70813047   0.38919544
1278.00   0.69826392   0.39101041
1280.00   0.68838283   0.39283093
1282.00   0.67848720   0.39465701
1284.00   0.66857703   0.39648866
1286.00   0.65865233   0.39832587
1288.00   0.64871310   0.40016868
1290.00   0.63875936   0.40201707
1292.00   0.62879109   0.40387105
1294.00   0.61880831   0.40573065
1296.00   0.60881101   0.40759585
1298.00   0.59879922   0.40946668
1300.00   0.58877292   0.41134313
1302.00   0.57873212   0.41322522
1304.00   0.56867682   0.41511296
1306.00   0.55860704   0.41700635
1308.00   0.54852278   0.41890539
1310.00   0.53842403   0.42081011
1312.00   0.52831080   0.42272049
1314.00   0.51818311   0.42463657
1316.00   0.50804094   0.42655833
1318.00   0.49788431   0.42848579
1320.00   0.48771322   0.43041895
1322.00   0.47752768   0.43235784
1324.00   0.46732768   0.43430244
1326.00   0.45711324   0.43625277
1328.00   0.44688435   0.43820884
1330.00   0.43664103   0.44017065
1332.00   0.42638327   0.44213822
1334.00   0.41611108   0.44411154
1336.00   0.40582446   0.44609064
1338.00   0.39552343   0.44807551
1340.00   0.38520798   0.45006616
1342.00   0.37487811   0.45206261
1344.00   0.36453384   0.45406485
1346.00   0.35417516   0.45607291
1348.00   0.34380208   0.45808677
1350.00   0.33341461   0.46010646
1352.00   0.32301274   0.46213198
1354.00   0.31259649   0.46416333
1356.00   0.30216585   0.46620053
1358.00   0.29172084   0.46824358
1360.00   0.28126146   0.47029250
1362.00   0.27078770   0.47234728
1364.00   0.26029958   0.47440793
1366.00   0.24979710   0.47647447
1368.00   0.23928026   0.47854691
1370.00   0.22874907   0.48062524
1372.00   0.21820353   0.48270947
1374.00   0.20764365   0.48479962
1376.00   0.19706944   0.48689570
1378.00   0.18648088   0.48899770
1380.00   0.17587800   0.49110564
1382.00   0.16526079   0.49321952
1384.00   0.15462926   0.49533936
1386.00   0.14398341   0.49746515
1388.00   0.13332325   0.49959692
1390.00   0.12264879   0.50173466
1392.00   0.11196002   0.50387838
1394.00   0.10125695   0.50602809
1396.00   0.09053959   0.50818380
1398.00   0.07980793   0.51034552
1400.00   0.06906199   0.51251325
1402.00   0.05830177   0.51468700
1404.00   0.04752727   0.51686677
1406.00   0.03673851   0.51905259
1408.00   0.02593547   0.52124444
1410.00   0.01511817   0.52344235
1412.00   0.00428661   0.52564632
1414.00  -0.00655920   0.52785635
1416.00  -0.01741927   0.53007246
1418.00  -0.02829357   0.53229465
1420.00  -0.03918212   0.53452293
1422.00  -0.05008491   0.53675730
1424.00  -0.06100192   0.53899778
1426.00  -0.07193317   0.54124437
1428.00  -0.08287863   0.54349708
1430.00  -0.09383832   0.54575591
1432.00  -0.10481222   0.54802088
1434.00  -0.11580032   0.55029200
1436.00  -0.12680264   0.55256926
1438.00  -0.13781915   0.55485267
1440.00  -0.14884985   0.55714226
1442.00  -0.15989475   0.55943801
1444.00  -0.17095383   0.56173994
1446.00  -0.18202710   0.56404806
1448.00  -0.19311454   0.56636237
1450.00  -0.20421616   0.56868289
1452.00  -0.21533194   0.57100961
1454.00  -0.22646188   0.57334256
1456.00  -0.23760599   0.57568172
1458.00  -0.24876424   0.57802712
1460.00  -0.25993665   0.58037876
1462.00  -0.27112320   0.58273664
1464.00  -0.28232390   0.58510078
1466.00  -0.29353872   0.58747117
1468.00  -0.30476768   0.58984784
1470.00  -0.31601077   0.59223079
1472.00  -0.32726797   0.59462001
1474.00  -0.33853930   0.59701553
1476.00  -0.34982473   0.59941735
1478.00  -0.36112428   0.60182548
1480.00  -0.37243792   0.60423991
1482.00  -0.38376567   0.60666067
1484.00  -0.39510751   0.60908776
1486.00  -0.40646343   0.61152119
1488.00  -0.41783344   0.61396095
1490.00  -0.42921753   0.61640707
1492.00  -0.44061570   0.61885955
1494.00  -0.45202794   0.62131839
1496.00  -0.46345424   0.62378360
1498.00  -0.47489460   0.62625520
1500.00  -0.48634902   0.62873318
1502.00  -0.49781749   0.63121755
1504.00  -0.50930000   0.63370833
1506.00  -0.52079656   0.63620552
1508.00  -0.53230715   0.63870913
1510.00  -0.54383178   0.64121916
1512.00  -0.55537044   0.64373562
1514.00  -0.56692311   0.64625853
1516.00  -0.57848981   0.64878788
1518.00  -0.59007052   0.65132368
1520.00  -0.60166524   0.65386594
1522.00  -0.61327396   0.65641468
1524.00  -0.62489668   0.65896988
1526.00  -0.63653339   0.66153158
1528.00  -0.64818410   0.66409976
1530.00  -0.65984878   0.66667444
1532.00  -0.67152745   0.66925563
1534.00  -0.68322010   0.67184333
1536.00  -0.69492671   0.67443754
1538.00  -0.70664729   0.67703829
1540.00  -0.71838183   0.67964557
1542.00  -0.73013032   0.68225939
1544.00  -0.74189277   0.68487976
1546.00  -0.75366916   0.68750669
1548.00  -0.76545950   0.69014018
1550.00  -0.77726377   0.69278024
1552.00  -0.78908197   0.69542688
1554.00  -0.80091410   0.69808011
1556.00  -0.81276015   0.70073993
1558.00  -0.82462012   0.70340635
1560.00  -0.83649400   0.70607937
1562.00  -0.84838178   0.70875901
1564.00  -0.86028347   0.71144527
1566.00  -0.87219906   0.71413816
1568.00  -0.88412854   0.71683769
1570.00  -0.89607191   0.71954386
1572.00  -0.90802916   0.72225668
1574.00  -0.92000029   0.72497616
1576.00  -0.93198529   0.72770230
1578.00  -0.94398416   0.73043512
1580.00  -0.95599689   0.73317462
1582.00  -0.96802349   0.73592080
1584.00  -0.98006393   0.73867368
1586.00  -0.99211822   0.74143325
1588.00  -1.00418636   0.74419954
1590.00  -1.01626834   0.74697254
1592.00  -1.02836415   0.74975227
1594.00  -1.04047378   0.75253872
1596.00  -1.05259725   0.75533191
1598.00  -1.06473453   0.75813185
1600.00  -1.07688562   0.76093853
1602.00  -1.08905052   0.76375198
1604.00  -1.10122923   0.76657219
1606.00  -1.11342174   0.76939917
1608.00  -1.12562804   0.77223294
1610.00  -1.13784813   0.77507349
1612.00  -1.15008200   0.77792083
1614.00  -1.16232965   0.78077498
1616.00  -1.17459108   0.78363593
1618.00  -1.18686627   0.78650370
1620.00  -1.19915523   0.78937830
1622.00  -1.21145795   0.79225972
1624.00  -1.22377442   0.79514798
1626.00  -1.23610464   0.79804308
1628.00  -1.24844861   0.80094504
1630.00  -1.26080631   0.80385385
1632.00  -1.27317775   0.80676953
1634.00  -1.28556291   0.80969208
1636.00  -1.29796180   0.81262152
1638.00  -1.31037441   0.81555783
1640.00  -1.32280074   0.81850105
1642.00  -1.33524077   0.82145116
1644.00  -1.34769450   0.82440818
1646.00  -1.36016193   0.82737211
1648.00  -1.37264306   0.83034297
1650.00  -1.38513787   0.83332076
1652.00  -1.39764637   0.83630548
1654.00  -1.41016855   0.83929714
1656.00  -1.42270439   0.84229576
1658.00  -1.43525391   0.84530133
1660.00  -1.44781709   0.84831387
1662.00  -1.46039393   0.85133338
1664.00  -1.47298442   0.85435986
1666.00  -1.48558855   0.85739333
1668.00  -1.49820633   0.86043380
1670.00  -1.51083775   0.86348126
1672.00  -1.52348280   0.86653573
1674.00  -1.53614147   0.86959721
1676.00  -1.54881377   0.87266571
1678.00  -1.56149968   0.87574124
1680.00  -1.57419921   0.87882381
1682.00  -1.58691234   0.88191341
1684.00  -1.59963907   0.88501006
1686.00  -1.61237940   0.88811377
1688.00  -1.62513332   0.89122454
1690.00  -1.63790083   0.89434238
1692.00  -1.65068191   0.89746730
1694.00  -1.66347657   0.90059930
1696.00  -1.67628481   0.90373838
1698.00  -1.68910660   0.90688457
1700.00  -1.70194196   0.91003786
1702.00  -1.71479087   0.91319826
1704.00  -1.72765333   0.91636578
1706.00  -1.74052933   0.91954042
1708.00  -1.75341887   0.92272219
1710.00  -1.76632195   0.92591110
1712.00  -1.77923856   0.92910716
1714.00  -1.79216869   0.93231037
1716.00  -1.80511233   0.93552073
1718.00  -1.81806949   0.93873827
1720.00  -1.83104016   0.94196297
1722.00  -1.84402433   0.94519486
1724.00  -1.85702199   0.94843393
1726.00  -1.87003315   0.95168020
1728.00  -1.88305780   0.95493367
1730.00  -1.89609592   0.95819434
1732.00  -1.90914752   0.96146223
1734.00  -1.92221260   0.96473734
1736.00  -1.93529113   0.96801967
1738.00  -1.94838313   0.97130924
1740.00  -1.96148858   0.97460606
1742.00  -1.97460749   0.97791012
1744.00  -1.98773983   0.98122143
1746.00  -2.00088562   0.98454001
1748.00  -2.01404484   0.98786586
1750.00  -2.02721749   0.99119898
1752.00  -2.04040356   0.99453938
1754.00  -2.05360305   0.99788708
1756.00  -2.06681595   1.00124207
1758.00  -2.08004226   1.00460436
1760.00  -2.09328197   1.00797396
1762.00  -2.10653507   1.01135088
1764.00  -2.11980157   1.01473512
1766.00  -2.13308146   1.01812669
1768.00  -2.14637472   1.02152560
1770.00  -2.15968136   1.02493185
1772.00  -2.17300137   1.02834545
1774.00  -2.18633474   1.03176641
1776.00  -2.19968147   1.03519473
1778.00  -2.21304156   1.03863042
1780.00  -2.22641499   1.04207349
1782.00  -2.23980177   1.04552394
1784.00  -2.25320189   1.04898179
1786.00  -2.26661533   1.05244703
1788.00  -2.28004211   1.05591968
1790.00  -2.29348220   1.05939973
1792.00  -2.30693561   1.06288721
1794.00  -2.32040233   1.06638210
1796.00  -2.33388236   1.06988443
1798.00  -2.34737569   1.07339420
1800.00  -2.36088231   1.07691141
1802.00  -2.37440222   1.08043607
1804.00  -2.38793541   1.08396819
1806.00  -2.40148188   1.08750778
1808.00  -2.41504162   1.09105483
1810.00  -2.42861463   1.09460937
1812.00  -2.44220091   1.09817138
1814.00  -2.45580044   1.10174089
1816.00  -2.46941322   1.10531790
1818.00  -2.48303924   1.10890241
1820.00  -2.49667851   1.11249443
1822.00  -2.51033100   1.11609397
1824.00  -2.52399673   1.11970103
1826.00  -2.53767568   1.12331563
1828.00  -2.55136785   1.12693776
1830.00  -2.56507324   1.13056744
1832.00  -2.57879183   1.13420466
1834.00  -2.59252362   1.13784945
1836.00  -2.60626860   1.14150180
1838.00  -2.62002678   1.14516172
1840.00  -2.63379814   1.14882921
1842.00  -2.64758269   1.15250429
1844.00  -2.66138040   1.15618696
1846.00  -2.67519129   1.15987723
1848.00  -2.68901534   1.16357510
1850.00  -2.70285254   1.16728058
1852.00  -2.71670290   1.17099368
1854.00  -2.73056640   1.17471440
1856.00  -2.74444305   1.17844275
1858.00  -2.75833283   1.18217874
1860.00  -2.77223574   1.18592237
1862.00  -2.78615177   1.18967365
1864.00  -2.80008093   1.19343258
1866.00  -2.81402319   1.19719918
1868.00  -2.82797857   1.20097345
1870.00  -2.84194705   1.20475539
1872.00  -2.85592862   1.20854501
1874.00  -2.86992328   1.21234233
1876.00  -2.88393103   1.21614733
1878.00  -2.89795186   1.21996004
1880.00  -2.91198576   1.22378046
1882.00  -2.92603274   1.22760859
1884.00  -2.94009277   1.23144445
1886.00  -2.95416586   1.23528803
1888.00  -2.96825201   1.23913934
1890.00  -2.98235120   1.24299840
1892.00  -2.99646343   1.24686520
1894.00  -3.01058870   1.25073975
1896.00  -3.02472699   1.25462207
1898.00  -3.03887831   1.25851215
1900.00  -3.05304265   1.26241001
1902.00  -3.06722000   1.26631564
1904.00  -3.08141036   1.27022906
1906.00  -3.09561371   1.27415027
1908.00  -3.10983007   1.27807928
1910.00  -3.12405941   1.28201609
1912.00  -3.13830174   1.28596072
1914.00  -3.15255705   1.28991316
1916.00  -3.16682533   1.29387343
1918.00  -3.18110657   1.29784153
1920.00  -3.19540078   1.30181747
1922.00  -3.20970795   1.30580125
1924.00  -3.22402806   1.30979287
1926.00  -3.23836112   1.31379236
1928.00  -3.25270712   1.31779971
1930.00  -3.26706606   1.32181492
1932.00  -3.28143792   1.32583801
1934.00  -3.29582270   1.32986898
1936.00  -3.31022040   1.33390785
1938.00  -3.32463101   1.33795460
1940.00  -3.33905452   1.34200926
1942.00  -3.35349093   1.34607182
1944.00  -3.36794024   1.35014229
1946.00  -3.38240243   1.35422069
1948.00  -3.39687751   1.35830701
1950.00  -3.41136546   1.36240126
1952.00  -3.42586629   1.36650346
1954.00  -3.44037997   1.37061359
1956.00  -3.45490652   1.37473168
1958.00  -3.46944592   1.37885773
1960.00  -3.48399817   1.38299174
1962.00  -3.49856326   1.38713372
1964.00  -3.51314119   1.39128367
1966.00  -3.52773194   1.39544161
1968.00  -3.54233552   1.39960754
1970.00  -3.55695192   1.40378146
1972.00  -3.57158114   1.40796339
1974.00  -3.58622316   1.41215332
1976.00  -3.60087798   1.41635126
1978.00  -3.61554560   1.42055723
1980.00  -3.63022601   1.42477122
1982.00  -3.64491920   1.42899325
1984.00  -3.65962517   1.43322331
1986.00  -3.67434391   1.43746142
1988.00  -3.68907542   1.44170758
1990.00  -3.70381969   1.44596180
1992.00  -3.71857672   1.45022408
1994.00  -3.73334650   1.45449444
1996.00  -3.74812901   1.45877286
1998.00  -3.76292427   1.46305938
2000.00  -3.77773226   1.46735397
2002.00  -3.79255298   1.47165667
2004.00  -3.80738641   1.47596746
2006.00  -3.82223256   1.48028637
2008.00  -3.83709142   1.48461338
2010.00  -3.85196298   1.48894852
2012.00  -3.86684724   1.49329178
2014.00  -3.88174419   1.49764317
2016.00  -3.89665383   1.50200270
2018.00  -3.91157614   1.50637038
2020.00  -3.92651113   1.51074620
2022.00  -3.94145879   1.51513018
2024.00  -3.95641911   1.51952232
2026.00  -3.97139208   1.52392264
2028.00  -3.98637770   1.52833112
2030.00  -4.00137597   1.53274779
2032.00  -4.01638688   1.53717265
2034.00  -4.03141042   1.54160569
2036.00  -4.04644659   1.54604694
2038.00  -4.06149537   1.55049639
2040.00  -4.07655677   1.55495406
2042.00  -4.09163078   1.55941994
2044.00  -4.10671740   1.56389404
2046.00  -4.12181661   1.56837638
2048.00  -4.13692841   1.57286695
2050.00  -4.15205280   1.57736576
2052.00  -4.16718977   1.58187282
2054.00  -4.18233931   1.58638813
2056.00  -4.19750142   1.59091170
2058.00  -4.21267609   1.59544354
2060.00  -4.22786331   1.59998365
2062.00  -4.24306309   1.60453204
2064.00  -4.25827541   1.60908871
2066.00  -4.27350027   1.61365368
2068.00  -4.28873765   1.61822694
2070.00  -4.30398757   1.62280850
2072.00  -4.31925001   1.62739837
2074.00  -4.33452496   1.63199655
2076.00  -4.34981241   1.63660305
2078.00  -4.36511237   1.64121788
2080.00  -4.38042483   1.64584104
2082.00  -4.39574978   1.65047254
2084.00  -4.41108721   1.65511238
2086.00  -4.42643712   1.65976058
2088.00  -4.44179950   1.66441712
2090.00  -4.45717435   1.66908203
2092.00  -4.47256166   1.67375531
2094.00  -4.48796142   1.67843696
2096.00  -4.50337363   1.68312700
2098.00  -4.51879829   1.68782541
2100.00  -4.53423538   1.69253222
2102.00  -4.54968490   1.69724743
2104.00  -4.56514685   1.70197104
2106.00  -4.58062121   1.70670306
2108.00  -4.59610799   1.71144349
2110.00  -4.61160717   1.71619235
2112.00  -4.62711875   1.72094963
2114.00  -4.64264273   1.72571534
2116.00  -4.65817910   1.73048950
2118.00  -4.67372785   1.73527210
2120.00  -4.68928897   1.74006315
2122.00  -4.70486247   1.74486265
2124.00  -4.72044833   1.74967062
2126.00  -4.73604654   1.75448706
2128.00  -4.75165711   1.75931197
2130.00  -4.76728003   1.76414536
2132.00  -4.78291528   1.76898723
2134.00  -4.79856287   1.77383760
2136.00  -4.81422279   1.77869646
2138.00  -4.82989503   1.78356383
2140.00  -4.84557959   1.78843971
2142.00  -4.86127645   1.79332410
2144.00  -4.87698562   1.79821701
2146.00  -4.89270709   1.80311845
2148.00  -4.90844085   1.80802842
2150.00  -4.92418689   1.81294693
2152.00  -4.93994521   1.81787398
2154.00  -4.95571581   1.82280959
2156.00  -4.97149867   1.82775374
2158.00  -4.98729379   1.83270646
2160.00  -5.00310117   1.83766775
2162.00  -5.01892080   1.84263761
2164.00  -5.03475267   1.84761605
2166.00  -5.05059678   1.85260307
2168.00  -5.06645312   1.85759868
2170.00  -5.08232168   1.86260289
2172.00  -5.09820246   1.86761570
2174.00  -5.11409545   1.87263711
2176.00  -5.13000065   1.87766714
2178.00  -5.14591805   1.88270579
2180.00  -5.16184764   1.88775306
2182.00  -5.17778942   1.89280896
2184.00  -5.19374338   1.89787350
2186.00  -5.20970952   1.90294668
2188.00  -5.22568782   1.90802851
2190.00  -5.24167829   1.91311899
2192.00  -5.25768092   1.91821813
2194.00  -5.27369569   1.92332593
2196.00  -5.28972261   1.92844240
2198.00  -5.30576167   1.93356755
2200.00  -5.32181287   1.93870138
2202.00  -5.33787618   1.94384390
2204.00  -5.35395162   1.94899511
2206.00  -5.37003917   1.95415501
2208.00  -5.38613883   1.95932362
2210.00  -5.40225059   1.96450095
2212.00  -5.41837445   1.96968698
2214.00  -5.43451039   1.97488174
2216.00  -5.45065842   1.98008522
2218.00  -5.46681852   1.98529744
2220.00  -5.48299070   1.99051839
2222.00  -5.49917494   1.99574808
2224.00  -5.51537123   2.00098653
2226.00  -5.53157958   2.00623373
2228.00  -5.54779998   2.01148969
2230.00  -5.56403241   2.01675441
2232.00  -5.58027688   2.02202791
2234.00  -5.59653337   2.02731018
2236.00  -5.61280188   2.03260124
2238.00  -5.62908241   2.03790108
2240.00  -5.64537495   2.04320971
2242.00  -5.66167949   2.04852715
2244.00  -5.67799603   2.05385339
2246.00  -5.69432455   2.05918844
2248.00  -5.71066506   2.06453230
2250.00  -5.72701754   2.06988499
2252.00  -5.74338200   2.07524650
2254.00  -5.75975842   2.08061685
2256.00  -5.77614680   2.08599603
2258.00  -5.79254713   2.09138406
2260.00  -5.80895941   2.09678093
2262.00  -5.82538363   2.10218666
2264.00  -5.84181978   2.10760125
2266.00  -5.85826785   2.11302470
2268.00  -5.87472785   2.11845703
2270.00  -5.89119976   2.12389823
2272.00  -5.90768358   2.12934831
2274.00  -5.92417931   2.13480728
2276.00  -5.94068692   2.14027514
2278.00  -5.95720643   2.14575190
2280.00  -5.97373782   2.15123756
2282.00  -5.99028109   2.15673213
2284.00  -6.00683623   2.16223562
2286.00  -6.02340323   2.16774802
2288.00  -6.03998209   2.17326935
2290.00  -6.05657280   2.17879961
2292.00  -6.07317536   2.18433881
2294.00  -6.08978976   2.18988695
2296.00  -6.10641599   2.19544404
2298.00  -6.12305404   2.20101007
2300.00  -6.13970392   2.20658507
2302.00  -6.15636561   2.21216903
2304.00  -6.17303910   2.21776195
2306.00  -6.18972440   2.22336385
2308.00  -6.20642149   2.22897473
2310.00  -6.22313037   2.23459459
2312.00  -6.23985104   2.24022345
2314.00  -6.25658347   2.24586130
2316.00  -6.27332768   2.25150814
2318.00  -6.29008365   2.25716400
2320.00  -6.30685138   2.26282886
2322.00  -6.32363086   2.26850275
2324.00  -6.34042208   2.27418565
2326.00  -6.35722504   2.27987758
2328.00  -6.37403973   2.28557855
2330.00  -6.39086615   2.29128855
2332.00  -6.40770428   2.29700759
2334.00  -6.42455413   2.30273568
2336.00  -6.44141568   2.30847283
2338.00  -6.45828893   2.31421904
2340.00  -6.47517388   2.31997431
2342.00  -6.49207051   2.32573865
2344.00  -6.50897882   2.33151206
2346.00  -6.52589881   2.33729455
2348.00  -6.54283046   2.34308613
2350.00  -6.55977378   2.34888680
2352.00  -6.57672875   2.35469657
2354.00  -6.59369537   2.36051544
2356.00  -6.61067363   2.36634341
2358.00  -6.62766352   2.37218049
2360.00  -6.64466505   2.37802670
2362.00  -6.66167819   2.38388202
2364.00  -6.67870296   2.38974647
2366.00  -6.69573933   2.39562005
2368.00  -6.71278731   2.40150277
2370.00  -6.72984688   2.40739464
2372.00  -6.74691805   2.41329565
2374.00  -6.76400080   2.41920581
2376.00  -6.78109513   2.42512514
2378.00  -6.79820103   2.43105362
2380.00  -6.81531849   2.43699128
2382.00  -6.83244751   2.44293811
2384.00  -6.84958809   2.44889412
2386.00  -6.86674021   2.45485931
2388.00  -6.88390387   2.46083369
2390.00  -6.90107906   2.46681727
2392.00  -6.91826578   2.47281004
2394.00  -6.93546402   2.47881202
2396.00  -6.95267377   2.48482322
2398.00  -6.96989503   2.49084362
2400.00  -6.98712779   2.49687325
2402.00  -7.00437204   2.50291210
2404.00  -7.02162778   2.50896018
2406.00  -7.03889501   2.51501750
2408.00  -7.05617370   2.52108405
2410.00  -7.07346387   2.52715986
2412.00  -7.09076550   2.53324491
2414.00  -7.10807858   2.53933922
2416.00  -7.12540311   2.54544279
2418.00  -7.14273909   2.55155563
2420.00  -7.16008650   2.55767774
2422.00  -7.17744533   2.56380912
2424.00  -7.19481560   2.56994979
2426.00  -7.21219727   2.57609974
2428.00  -7.22959036   2.58225898
2430.00  -7.24699485   2.58842752
2432.00  -7.26441074   2.59460536
2434.00  -7.28183802   2.60079250
2436.00  -7.29927668   2.60698896
2438.00  -7.31672672   2.61319473
2440.00  -7.33418814   2.61940983
2442.00  -7.35166091   2.62563425
2444.00  -7.36914504   2.63186800
2446.00  -7.38664053   2.63811109
2448.00  -7.40414736   2.64436352
2450.00  -7.42166553   2.65062530
2452.00  -7.43919503   2.65689643
2454.00  -7.45673585   2.66317691
2456.00  -7.47428799   2.66946675
2458.00  -7.49185145   2.67576597
2460.00  -7.50942621   2.68207455
2462.00  -7.52701227   2.68839251
2464.00  -7.54460962   2.69471985
2466.00  -7.56221826   2.70105657
2468.00  -7.57983818   2.70740269
2470.00  -7.59746937   2.71375820
2472.00  -7.61511183   2.72012311
2474.00  -7.63276555   2.72649743
2476.00  -7.65043052   2.73288116
2478.00  -7.66810674   2.73927430
2480.00  -7.68579419   2.74567686
2482.00  -7.70349288   2.75208885
2484.00  -7.72120280   2.75851027
2486.00  -7.73892394   2.76494113
2488.00  -7.75665629   2.77138142
2490.00  -7.77439985   2.77783116
2492.00  -7.79215462   2.78429035
2494.00  -7.80992057   2.79075899
2496.00  -7.82769771   2.79723709
2498.00  -7.84548604   2.80372466
2500.00  -7.86328554   2.81022169
2502.00  -7.88109620   2.81672820
2504.00  -7.89891803   2.82324419
2506.00  -7.91675101   2.82976966
2508.00  -7.93459514   2.83630461
2510.00  -7.95245041   2.84284906
2512.00  -7.97031682   2.84940301
2514.00  -7.98819435   2.85596647
2516.00  -8.00608301   2.86253942
2518.00  -8.02398278   2.86912190
2520.00  -8.04189366   2.87571388
2522.00  -8.05981565   2.88231539
2524.00  -8.07774872   2.88892643
2526.00  -8.09569289   2.89554700
2528.00  -8.11364814   2.90217710
2530.00  -8.13161446   2.90881675
2532.00  -8.14959185   2.91546594
2534.00  -8.16758031   2.92212468
2536.00  -8.18557982   2.92879297
2538.00  -8.20359038   2.93547083
2540.00  -8.22161198   2.94215825
2542.00  -8.23964462   2.94885524
2544.00  -8.25768828   2.95556180
2546.00  -8.27574297   2.96227794
2548.00  -8.29380868   2.96900367
2550.00  -8.31188539   2.97573898
2552.00  -8.32997311   2.98248389
2554.00  -8.34807182   2.98923839
2556.00  -8.36618152   2.99600249
2558.00  -8.38430220   3.00277621
2560.00  -8.40243386   3.00955953
2562.00  -8.42057649   3.01635247
2564.00  -8.43873009   3.02315503
2566.00  -8.45689463   3.02996721
2568.00  -8.47507013   3.03678903
2570.00  -8.49325657   3.04362048
2572.00  -8.51145395   3.05046157
2574.00  -8.52966225   3.05731230
2576.00  -8.54788148   3.06417269
2578.00  -8.56611162   3.07104272
2580.00  -8.58435267   3.07792242
2582.00  -8.60260463   3.08481177
2584.00  -8.62086748   3.09171079
2586.00  -8.63914122   3.09861949
2588.00  -8.65742585   3.10553786
2590.00  -8.67572134   3.11246591
2592.00  -8.69402771   3.11940365
2594.00  -8.71234494   3.12635107
2596.00  -8.73067303   3.13330820
2598.00  -8.74901197   3.14027502
2600.00  -8.76736175   3.14725154
2602.00  -8.78572236   3.15423777
2604.00  -8.80409380   3.16123372
2606.00  -8.82247607   3.16823938
2608.00  -8.84086915   3.17525476
2610.00  -8.85927304   3.18227987
2612.00  -8.87768773   3.18931472
2614.00  -8.89611322   3.19635929
2616.00  -8.91454950   3.20341361
2618.00  -8.93299656   3.21047767
2620.00  -8.95145439   3.21755148
2622.00  -8.96992299   3.22463504
2624.00  -8.98840236   3.23172837
2626.00  -9.00689248   3.23883145
2628.00  -9.02539335   3.24594430
2630.00  -9.04390496   3.25306692
2632.00  -9.06242730   3.26019932
2634.00  -9.08096038   3.26734150
2636.00  -9.09950417   3.27449346
2638.00  -9.11805869   3.28165521
2640.00  -9.13662390   3.28882676
2642.00  -9.15519982   3.29600810
2644.00  -9.17378644   3.30319925
2646.00  -9.19238374   3.31040020
2648.00  -9.21099173   3.31761097
2650.00  -9.22961038   3.32483155
2652.00  -9.24823971   3.33206195
2654.00  -9.26687970   3.33930217
2656.00  -9.28553034   3.34655223
2658.00  -9.30419163   3.35381211
2660.00  -9.32286356   3.36108184
2662.00  -9.34154612   3.36836141
2664.00  -9.36023931   3.37565082
2666.00  -9.37894312   3.38295008
2668.00  -9.39765755   3.39025920
2670.00  -9.41638258   3.39757818
2672.00  -9.43511821   3.40490703
2674.00  -9.45386444   3.41224574
2676.00  -9.47262125   3.41959432
2678.00  -9.49138864   3.42695278
2680.00  -9.51016661   3.43432113
2682.00  -9.52895514   3.44169935
2684.00  -9.54775423   3.44908747
2686.00  -9.56656387   3.45648549
2688.00  -9.58538406   3.46389340
2690.00  -9.60421479   3.47131121
2692.00  -9.62305605   3.47873893
2694.00  -9.64190784   3.48617656
2696.00  -9.66077015   3.49362411
2698.00  -9.67964296   3.50108158
2700.00  -9.69852629   3.50854897
2702.00  -9.71742011   3.51602630
2704.00  -9.73632442   3.52351355
2706.00  -9.75523922   3.53101074
2708.00  -9.77416449   3.53851788
2710.00  -9.79310024   3.54603495
2712.00  -9.81204645   3.55356198
2714.00  -9.83100312   3.56109896
2716.00  -9.84997024   3.56864591
2718.00  -9.86894781   3.57620281
2720.00  -9.88793581   3.58376968
2722.00  -9.90693424   3.59134652
2724.00  -9.92594310   3.59893334
2726.00  -9.94496237   3.60653013
2728.00  -9.96399205   3.61413691
2730.00  -9.98303214   3.62175368
2732.00 -10.00208262   3.62938044
2734.00 -10.02114349   3.63701719
2736.00 -10.04021475   3.64466395
2738.00 -10.05929638   3.65232071
2740.00 -10.07838837   3.65998748
2742.00 -10.09749074   3.66766426
2744.00 -10.11660345   3.67535106
2746.00 -10.13572652   3.68304788
2748.00 -10.15485993   3.69075472
2750.00 -10.17400367   3.69847159
2752.00 -10.19315774   3.70619850
2754.00 -10.21232213   3.71393545
2756.00 -10.23149683   3.72168243
2758.00 -10.25068185   3.72943947
2760.00 -10.26987716   3.73720655
2762.00 -10.28908277   3.74498369
2764.00 -10.30829867   3.75277088
2766.00 -10.32752484   3.76056814
2768.00 -10.34676129   3.76837546
2770.00 -10.36600800   3.77619286
2772.00 -10.38526498   3.78402032
2774.00 -10.40453221   3.79185787
2776.00 -10.42380968   3.79970550
2778.00 -10.44309739   3.80756322
2780.00 -10.46239534   3.81543102
2782.00 -10.48170351   3.82330892
2784.00 -10.50102189   3.83119692
2786.00 -10.52035049   3.83909503
2788.00 -10.53968930   3.84700324
2790.00 -10.55903830   3.85492156
2792.00 -10.57839749   3.86284999
2794.00 -10.59776687   3.87078855
2796.00 -10.61714643   3.87873723
2798.00 -10.63653615   3.88669603
2800.00 -10.65593604   3.89466496
2802.00 -10.67534609   3.90264403
2804.00 -10.69476628   3.91063324
2806.00 -10.71419662   3.91863260
2808.00 -10.73363710   3.92664209
2810.00 -10.75308770   3.93466174
2812.00 -10.77254842   3.94269155
2814.00 -10.79201927   3.95073151
2816.00 -10.81150022   3.95878163
2818.00 -10.83099127   3.96684193
2820.00 -10.85049241   3.97491239
2822.00 -10.87000365   3.98299302
2824.00 -10.88952496   3.99108384
2826.00 -10.90905635   3.99918484
2828.00 -10.92859780   4.00729602
2830.00 -10.94814932   4.01541739
2832.00 -10.96771089   4.02354896
2834.00 -10.98728251   4.03169072
2836.00 -11.00686416   4.03984269
2838.00 -11.02645585   4.04800486
2840.00 -11.04605756   4.05617725
2842.00 -11.06566929   4.06435984
2844.00 -11.08529104   4.07255265
2846.00 -11.10492279   4.08075569
2848.00 -11.12456454   4.08896895
2850.00 -11.14421627   4.09719243
2852.00 -11.16387800   4.10542615
2854.00 -11.18354970   4.11367011
2856.00 -11.20323137   4.12192431
2858.00 -11.22292300   4.13018875
2860.00 -11.24262459   4.13846344
2862.00 -11.26233613   4.14674838
2864.00 -11.28205762   4.15504358
2866.00 -11.30178904   4.16334903
2868.00 -11.32153038   4.17166475
2870.00 -11.34128165   4.17999074
2872.00 -11.36104284   4.18832699
2874.00 -11.38081393   4.19667353
2876.00 -11.40059493   4.20503034
2878.00 -11.42038582   4.21339743
2880.00 -11.44018659   4.22177481
2882.00 -11.45999725   4.23016247
2884.00 -11.47981778   4.23856043
2886.00 -11.49964817   4.24696869
2888.00 -11.51948843   4.25538725
2890.00 -11.53933854   4.26381612
2892.00 -11.55919849   4.27225529
2894.00 -11.57906829   4.28070477
2896.00 -11.59894791   4.28916457
2898.00 -11.61883736   4.29763469
2900.00 -11.63873663   4.30611513
2902.00 -11.65864571   4.31460590
2904.00 -11.67856459   4.32310700
2906.00 -11.69849327   4.33161844
2908.00 -11.71843174   4.34014021
2910.00 -11.73838000   4.34867233
2912.00 -11.75833803   4.35721479
2914.00 -11.77830583   4.36576759
2916.00 -11.79828339   4.37433076
2918.00 -11.81827071   4.38290427
2920.00 -11.83826777   4.39148815
2922.00 -11.85827458   4.40008239
2924.00 -11.87829112   4.40868700
2926.00 -11.89831739   4.41730198
2928.00 -11.91835338   4.42592734
2930.00 -11.93839908   4.43456307
2932.00 -11.95845449   4.44320918
2934.00 -11.97851960   4.45186568
2936.00 -11.99859440   4.46053257
2938.00 -12.01867889   4.46920985
2940.00 -12.03877306   4.47789753
2942.00 -12.05887690   4.48659561
2944.00 -12.07899040   4.49530409
2946.00 -12.09911356   4.50402298
2948.00 -12.11924638   4.51275228
2950.00 -12.13938883   4.52149199
2952.00 -12.15954093   4.53024212
2954.00 -12.17970265   4.53900267
2956.00 -12.19987400   4.54777365
2958.00 -12.22005496   4.55655505
2960.00 -12.24024553   4.56534689
2962.00 -12.26044570   4.57414916
2964.00 -12.28065547   4.58296187
2966.00 -12.30087483   4.59178502
2968.00 -12.32110377   4.60061862
2970.00 -12.34134228   4.60946267
2972.00 -12.36159036   4.61831717
2974.00 -12.38184800   4.62718213
2976.00 -12.40211519   4.63605755
2978.00 -12.42239193   4.64494343
2980.00 -12.44267821   4.65383978
2982.00 -12.46297402   4.66274660
2984.00 -12.48327936   4.67166389
2986.00 -12.50359421   4.68059166
2988.00 -12.52391858   4.68952991
2990.00 -12.54425244   4.69847865
2992.00 -12.56459581   4.70743787
2994.00 -12.58494867   4.71640758
2996.00 -12.60531101   4.72538779
2998.00 -12.62568282   4.73437850
3000.00 -12.64606411   4.74337971
3002.00 -12.66645486   4.75239142
3004.00 -12.68685506   4.76141364
3006.00 -12.70726471   4.77044637
3008.00 -12.72768380   4.77948962
3010.00 -12.74811233   4.78854339
3012.00 -12.76855028   4.79760768
3014.00 -12.78899766   4.80668249
3016.00 -12.80945445   4.81576783
3018.00 -12.82992064   4.82486371
3020.00 -12.85039623   4.83397012
3022.00 -12.87088122   4.84308707
3024.00 -12.89137559   4.85221456
3026.00 -12.91187933   4.86135260
3028.00 -12.93239245   4.87050118
3030.00 -12.95291494   4.87966032
3032.00 -12.97344678   4.88883001
3034.00 -12.99398797   4.89801026
3036.00 -13.01453850   4.90720108
3038.00 -13.03509837   4.91640246
3040.00 -13.05566757   4.92561440
3042.00 -13.07624609   4.93483693
3044.00 -13.09683392   4.94407002
3046.00 -13.11743107   4.95331370
3048.00 -13.13803751   4.96256795
3050.00 -13.15865325   4.97183279
3052.00 -13.17927828   4.98110822
3054.00 -13.19991258   4.99039425
3056.00 -13.22055616   4.99969086
3058.00 -13.24120900   5.00899808
3060.00 -13.26187110   5.01831590
3062.00 -13.28254246   5.02764432
3064.00 -13.30322306   5.03698335
3066.00 -13.32391289   5.04633299
3068.00 -13.34461196   5.05569325
3070.00 -13.36532025   5.06506412
3072.00 -13.38603776   5.07444562
3074.00 -13.40676447   5.08383774
3076.00 -13.42750039   5.09324048
3078.00 -13.44824551   5.10265386
3080.00 -13.46899981   5.11207787
3082.00 -13.48976329   5.12151252
3084.00 -13.51053595   5.13095781
3086.00 -13.53131778   5.14041374
3088.00 -13.55210877   5.14988032
3090.00 -13.57290891   5.15935755
3092.00 -13.59371819   5.16884543
3094.00 -13.61453662   5.17834397
3096.00 -13.63536417   5.18785317
3098.00 -13.65620085   5.19737302
3100.00 -13.67704665   5.20690355
3102.00 -13.69790157   5.21644474
3104.00 -13.71876558   5.22599661
3106.00 -13.73963869   5.23555915
3108.00 -13.76052089   5.24513237
3110.00 -13.78141218   5.25471627
3112.00 -13.80231254   5.26431085
3114.00 -13.82322197   5.27391613
3116.00 -13.84414046   5.28353209
3118.00 -13.86506800   5.29315874
3120.00 -13.88600459   5.30279610
3122.00 -13.90695023   5.31244415
3124.00 -13.92790489   5.32210291
3126.00 -13.94886859   5.33177237
3128.00 -13.96984130   5.34145254
3130.00 -13.99082302   5.35114342
3132.00 -14.01181375   5.36084502
3134.00 -14.03281348   5.37055733
3136.00 -14.05382220   5.38028037
3138.00 -14.07483990   5.39001413
3140.00 -14.09586658   5.39975862
3142.00 -14.11690223   5.40951384
3144.00 -14.13794684   5.41927979
3146.00 -14.15900041   5.42905648
3148.00 -14.18006292   5.43884391
3150.00 -14.20113438   5.44864208
3152.00 -14.22221478   5.45845100
3154.00 -14.24330410   5.46827066
3156.00 -14.26440234   5.47810108
3158.00 -14.28550949   5.48794225
3160.00 -14.30662555   5.49779417
3162.00 -14.32775051   5.50765686
3164.00 -14.34888436   5.51753031
3166.00 -14.37002710   5.52741453
3168.00 -14.39117872   5.53730952
3170.00 -14.41233920   5.54721528
3172.00 -14.43350855   5.55713181
3174.00 -14.45468676   5.56705912
3176.00 -14.47587382   5.57699721
3178.00 -14.49706972   5.58694609
3180.00 -14.51827445   5.59690575
3182.00 -14.53948802   5.60687621
3184.00 -14.56071040   5.61685745
3186.00 -14.58194160   5.62684949
3188.00 -14.60318161   5.63685233
3190.00 -14.62443041   5.64686598
3192.00 -14.64568802   5.65689042
3194.00 -14.66695440   5.66692567
3196.00 -14.68822957   5.67697173
3198.00 -14.70951351   5.68702861
3200.00 -14.73080621   5.69709630
3202.00 -14.75210767   5.70717481
3204.00 -14.77341788   5.71726414
3206.00 -14.79473684   5.72736430
3208.00 -14.81606453   5.73747528
3210.00 -14.83740095   5.74759709
3212.00 -14.85874609   5.75772974
3214.00 -14.88009995   5.76787322
3216.00 -14.90146252   5.77802754
3218.00 -14.92283379   5.78819270
3220.00 -14.94421375   5.79836870
3222.00 -14.96560240   5.80855555
3224.00 -14.98699973   5.81875325
3226.00 -15.00840573   5.82896180
3228.00 -15.02982040   5.83918121
3230.00 -15.05124373   5.84941148
3232.00 -15.07267570   5.85965261
3234.00 -15.09411633   5.86990460
3236.00 -15.11556559   5.88016746
3238.00 -15.13702348   5.89044118
3240.00 -15.15848999   5.90072578
3242.00 -15.17996512   5.91102125
3244.00 -15.20144886   5.92132760
3246.00 -15.22294121   5.93164483
3248.00 -15.24444214   5.94197295
3250.00 -15.26595167   5.95231195
3252.00 -15.28746977   5.96266183
3254.00 -15.30899645   5.97302261
3256.00 -15.33053170   5.98339428
3258.00 -15.35207550   5.99377685
3260.00 -15.37362786   6.00417032
3262.00 -15.39518876   6.01457469
3264.00 -15.41675820   6.02498996
3266.00 -15.43833618   6.03541614
3268.00 -15.45992267   6.04585323
3270.00 -15.48151769   6.05630123
3272.00 -15.50312121   6.06676015
3274.00 -15.52473323   6.07722999
3276.00 -15.54635376   6.08771074
3278.00 -15.56798277   6.09820242
3280.00 -15.58962026   6.10870503
3282.00 -15.61126623   6.11921856
3284.00 -15.63292066   6.12974303
3286.00 -15.65458355   6.14027843
3288.00 -15.67625490   6.15082476
3290.00 -15.69793469   6.16138203
3292.00 -15.71962293   6.17195025
3294.00 -15.74131959   6.18252941
3296.00 -15.76302468   6.19311952
3298.00 -15.78473818   6.20372057
3300.00 -15.80646010   6.21433258
3302.00 -15.82819042   6.22495554
3304.00 -15.84992914   6.23558946
3306.00 -15.87167625   6.24623434
3308.00 -15.89343173   6.25689018
3310.00 -15.91519560   6.26755698
3312.00 -15.93696783   6.27823476
3314.00 -15.95874842   6.28892350
3316.00 -15.98053737   6.29962322
3318.00 -16.00233466   6.31033391
3320.00 -16.02414029   6.32105557
3322.00 -16.04595426   6.33178822
3324.00 -16.06777655   6.34253185
3326.00 -16.08960716   6.35328647
3328.00 -16.11144608   6.36405207
3330.00 -16.13329331   6.37482867
3332.00 -16.15514883   6.38561625
3334.00 -16.17701264   6.39641483
3336.00 -16.19888473   6.40722441
3338.00 -16.22076510   6.41804499
3340.00 -16.24265374   6.42887657
3342.00 -16.26455064   6.43971916
3344.00 -16.28645580   6.45057275
3346.00 -16.30836920   6.46143736
3348.00 -16.33029084   6.47231297
3350.00 -16.35222072   6.48319960
3352.00 -16.37415882   6.49409725
3354.00 -16.39610514   6.50500592
3356.00 -16.41805967   6.51592561
3358.00 -16.44002241   6.52685632
3360.00 -16.46199335   6.53779807
3362.00 -16.48397247   6.54875084
3364.00 -16.50595978   6.55971464
3366.00 -16.52795527   6.57068948
3368.00 -16.54995892   6.58167535
3370.00 -16.57197074   6.59267227
3372.00 -16.59399071   6.60368022
3374.00 -16.61601883   6.61469922
3376.00 -16.63805509   6.62572927
3378.00 -16.66009949   6.63677036
3380.00 -16.68215201   6.64782251
3382.00 -16.70421265   6.65888570
3384.00 -16.72628140   6.66995996
3386.00 -16.74835826   6.68104527
3388.00 -16.77044322   6.69214164
3390.00 -16.79253627   6.70324908
3392.00 -16.81463740   6.71436758
3394.00 -16.83674661   6.72549714
3396.00 -16.85886389   6.73663778
3398.00 -16.88098923   6.74778949
3400.00 -16.90312263   6.75895228
3402.00 -16.92526407   6.77012614
3404.00 -16.94741356   6.78131108
3406.00 -16.96957108   6.79250710
3408.00 -16.99173663   6.80371420
3410.00 -17.01391020   6.81493239
3412.00 -17.03609178   6.82616167
3414.00 -17.05828137   6.83740204
3416.00 -17.08047896   6.84865350
3418.00 -17.10268454   6.85991606
3420.00 -17.12489810   6.87118971
3422.00 -17.14711964   6.88247447
3424.00 -17.16934915   6.89377032
3426.00 -17.19158663   6.90507728
3428.00 -17.21383206   6.91639535
3430.00 -17.23608544   6.92772452
3432.00 -17.25834676   6.93906481
3434.00 -17.28061602   6.95041620
3436.00 -17.30289321   6.96177872
3438.00 -17.32517831   6.97315235
3440.00 -17.34747133   6.98453710
3442.00 -17.36977226   6.99593297
3444.00 -17.39208109   7.00733996
3446.00 -17.41439780   7.01875809
3448.00 -17.43672241   7.03018734
3450.00 -17.45905489   7.04162772
3452.00 -17.48139524   7.05307923
3454.00 -17.50374346   7.06454188
3456.00 -17.52609953   7.07601566
3458.00 -17.54846345   7.08750059
3460.00 -17.57083522   7.09899666
3462.00 -17.59321482   7.11050386
3464.00 -17.61560225   7.12202222
3466.00 -17.63799750   7.13355172
3468.00 -17.66040057   7.14509238
3470.00 -17.68281144   7.15664418
3472.00 -17.70523012   7.16820714
3474.00 -17.72765658   7.17978125
3476.00 -17.75009083   7.19136653
3478.00 -17.77253286   7.20296296
3480.00 -17.79498267   7.21457056
3482.00 -17.81744023   7.22618932
3484.00 -17.83990556   7.23781925
3486.00 -17.86237863   7.24946035
3488.00 -17.88485945   7.26111261
3490.00 -17.90734800   7.27277606
3492.00 -17.92984429   7.28445067
3494.00 -17.95234829   7.29613647
3496.00 -17.97486001   7.30783344
3498.00 -17.99737944   7.31954159
3500.00 -18.01990657   7.33126093
3502.00 -18.04244139   7.34299145
3504.00 -18.06498390   7.35473316
3506.00 -18.08753409   7.36648606
3508.00 -18.11009195   7.37825015
3510.00 -18.13265748   7.39002544
3512.00 -18.15523066   7.40181192
3514.00 -18.17781150   7.41360959
3516.00 -18.20039998   7.42541847
3518.00 -18.22299609   7.43723855
3520.00 -18.24559984   7.44906983
3522.00 -18.26821121   7.46091232
3524.00 -18.29083019   7.47276601
3526.00 -18.31345678   7.48463091
3528.00 -18.33609098   7.49650703
3530.00 -18.35873277   7.50839436
3532.00 -18.38138214   7.52029290
3534.00 -18.40403910   7.53220266
3536.00 -18.42670363   7.54412364
3538.00 -18.44937572   7.55605585
3540.00 -18.47205538   7.56799927
3542.00 -18.49474258   7.57995392
3544.00 -18.51743733   7.59191980
3546.00 -18.54013962   7.60389690
3548.00 -18.56284944   7.61588524
3550.00 -18.58556678   7.62788481
3552.00 -18.60829164   7.63989561
3554.00 -18.63102401   7.65191765
3556.00 -18.65376388   7.66395093
3558.00 -18.67651124   7.67599545
3560.00 -18.69926609   7.68805121
3562.00 -18.72202843   7.70011822
3564.00 -18.74479823   7.71219647
3566.00 -18.76757551   7.72428597
3568.00 -18.79036024   7.73638672
3570.00 -18.81315243   7.74849872
3572.00 -18.83595206   7.76062197
3574.00 -18.85875913   7.77275648
3576.00 -18.88157363   7.78490225
3578.00 -18.90439556   7.79705927
3580.00 -18.92722490   7.80922756
3582.00 -18.95006166   7.82140711
3584.00 -18.97290581   7.83359792
3586.00 -18.99575736   7.84580000
3588.00 -19.01861630   7.85801335
3590.00 -19.04148263   7.87023796
3592.00 -19.06435632   7.88247385
3594.00 -19.08723739   7.89472101
3596.00 -19.11012581   7.90697945
3598.00 -19.13302159   7.91924917
3600.00 -19.15592472   7.93153016
3602.00 -19.17883518   7.94382243
3604.00 -19.20175298   7.95612599
3606.00 -19.22467810   7.96844083
3608.00 -19.24761054   7.98076696
3610.00 -19.27055029   7.99310437
3612.00 -19.29349735   8.00545308
3614.00 -19.31645170   8.01781307
3616.00 -19.33941334   8.03018436
3618.00 -19.36238226   8.04256694
3620.00 -19.38535846   8.05496082
3622.00 -19.40834193   8.06736600
3624.00 -19.43133266   8.07978247
3626.00 -19.45433064   8.09221025
3628.00 -19.47733587   8.10464933
3630.00 -19.50034834   8.11709972
3632.00 -19.52336805   8.12956141
3634.00 -19.54639498   8.14203441
3636.00 -19.56942913   8.15451872
3638.00 -19.59247049   8.16701435
3640.00 -19.61551906   8.17952128
3642.00 -19.63857482   8.19203953
3644.00 -19.66163777   8.20456910
3646.00 -19.68470791   8.21710999
3648.00 -19.70778523   8.22966220
3650.00 -19.73086971   8.24222572
3652.00 -19.75396136   8.25480057
3654.00 -19.77706016   8.26738675
3656.00 -19.80016611   8.27998425
3658.00 -19.82327921   8.29259308
3660.00 -19.84639943   8.30521325
3662.00 -19.86952679   8.31784474
3664.00 -19.89266126   8.33048756
3666.00 -19.91580285   8.34314172
3668.00 -19.93895154   8.35580722
3670.00 -19.96210733   8.36848405
3672.00 -19.98527021   8.38117223
3674.00 -20.00844018   8.39387174
3676.00 -20.03161723   8.40658260
3678.00 -20.05480134   8.41930480
3680.00 -20.07799253   8.43203835
3682.00 -20.10119076   8.44478324
3684.00 -20.12439605   8.45753949
3686.00 -20.14760838   8.47030708
3688.00 -20.17082774   8.48308603
3690.00 -20.19405413   8.49587633
3692.00 -20.21728755   8.50867798
3694.00 -20.24052798   8.52149099
3696.00 -20.26377541   8.53431536
3698.00 -20.28702985   8.54715109
3700.00 -20.31029128   8.55999818
3702.00 -20.33355969   8.57285663
3704.00 -20.35683508   8.58572645
3706.00 -20.38011745   8.59860763
3708.00 -20.40340678   8.61150019
3710.00 -20.42670307   8.62440410
3712.00 -20.45000631   8.63731939
3714.00 -20.47331649   8.65024606
3716.00 -20.49663361   8.66318409
3718.00 -20.51995766   8.67613350
3720.00 -20.54328863   8.68909428
3722.00 -20.56662652   8.70206645
3724.00 -20.58997131   8.71504999
3726.00 -20.61332301   8.72804491
3728.00 -20.63668160   8.74105122
3730.00 -20.66004708   8.75406890
3732.00 -20.68341944   8.76709798
3734.00 -20.70679867   8.78013844
3736.00 -20.73018477   8.79319028
3738.00 -20.75357773   8.80625352
3740.00 -20.77697754   8.81932814
3742.00 -20.80038420   8.83241416
3744.00 -20.82379769   8.84551157
3746.00 -20.84721802   8.85862038
3748.00 -20.87064517   8.87174058
3750.00 -20.89407913   8.88487218
3752.00 -20.91751991   8.89801518
3754.00 -20.94096749   8.91116958
3756.00 -20.96442186   8.92433538
3758.00 -20.98788303   8.93751259
3760.00 -21.01135097   8.95070120
3762.00 -21.03482569   8.96390121
3764.00 -21.05830718   8.97711263
3766.00 -21.08179543   8.99033546
3768.00 -21.10529044   9.00356970
3770.00 -21.12879219   9.01681536
3772.00 -21.15230067   9.03007242
3774.00 -21.17581590   9.04334090
3776.00 -21.19933785   9.05662079
3778.00 -21.22286651   9.06991210
3780.00 -21.24640189   9.08321483
3782.00 -21.26994397   9.09652897
3784.00 -21.29349275   9.10985454
3786.00 -21.31704823   9.12319153
3788.00 -21.34061038   9.13653994
3790.00 -21.36417921   9.14989978
3792.00 -21.38775471   9.16327104
3794.00 -21.41133688   9.17665373
3796.00 -21.43492569   9.19004785
3798.00 -21.45852116   9.20345339
3800.00 -21.48212327   9.21687037
3802.00 -21.50573201   9.23029878
3804.00 -21.52934739   9.24373862
3806.00 -21.55296938   9.25718990
3808.00 -21.57659798   9.27065261
3810.00 -21.60023319   9.28412676
3812.00 -21.62387500   9.29761235
3814.00 -21.64752341   9.31110938
3816.00 -21.67117839   9.32461784
3818.00 -21.69483996   9.33813775
3820.00 -21.71850810   9.35166911
3822.00 -21.74218280   9.36521190
3824.00 -21.76586406   9.37876615
3826.00 -21.78955187   9.39233184
3828.00 -21.81324623   9.40590897
3830.00 -21.83694712   9.41949756
3832.00 -21.86065453   9.43309760
3834.00 -21.88436848   9.44670908
3836.00 -21.90808893   9.46033203
3838.00 -21.93181590   9.47396642
3840.00 -21.95554937   9.48761227
3842.00 -21.97928933   9.50126958
3844.00 -22.00303578   9.51493834
3846.00 -22.02678871   9.52861856
3848.00 -22.05054811   9.54231024
3850.00 -22.07431398   9.55601338
3852.00 -22.09808631   9.56972799
3854.00 -22.12186509   9.58345405
3856.00 -22.14565032   9.59719159
3858.00 -22.16944198   9.61094058
3860.00 -22.19324008   9.62470104
3862.00 -22.21704460   9.63847297
3864.00 -22.24085554   9.65225637
3866.00 -22.26467289   9.66605124
3868.00 -22.28849664   9.67985758
3870.00 -22.31232679   9.69367539
3872.00 -22.33616333   9.70750467
3874.00 -22.36000625   9.72134543
3876.00 -22.38385555   9.73519766
3878.00 -22.40771121   9.74906137
3880.00 -22.43157324   9.76293656
3882.00 -22.45544163   9.77682322
3884.00 -22.47931636   9.79072137
3886.00 -22.50319743   9.80463099
3888.00 -22.52708483   9.81855210
3890.00 -22.55097856   9.83248469
3892.00 -22.57487862   9.84642876
3894.00 -22.59878498   9.86038431
3896.00 -22.62269765   9.87435136
3898.00 -22.64661662   9.88832989
3900.00 -22.67054188   9.90231990
3902.00 -22.69447343   9.91632141
3904.00 -22.71841125   9.93033440
3906.00 -22.74235535   9.94435889
3908.00 -22.76630571   9.95839486
3910.00 -22.79026233   9.97244233
3912.00 -22.81422520   9.98650129
3914.00 -22.83819431  10.00057175
3916.00 -22.86216966  10.01465370
3918.00 -22.88615123  10.02874715
3920.00 -22.91013903  10.04285210
3922.00 -22.93413305  10.05696855
3924.00 -22.95813327  10.07109649
3926.00 -22.98213969  10.08523594
3928.00 -23.00615231  10.09938688
3930.00 -23.03017112  10.11354933
3932.00 -23.05419611  10.12772328
3934.00 -23.07822727  10.14190874
3936.00 -23.10226460  10.15610570
3938.00 -23.12630809  10.17031417
3940.00 -23.15035773  10.18453414
3942.00 -23.17441352  10.19876563
3944.00 -23.19847544  10.21300862
3946.00 -23.22254350  10.22726312
3948.00 -23.24661769  10.24152913
3950.00 -23.27069799  10.25580665
3952.00 -23.29478440  10.27009568
3954.00 -23.31887692  10.28439623
3956.00 -23.34297554  10.29870829
3958.00 -23.36708024  10.31303187
3960.00 -23.39119103  10.32736696
3962.00 -23.41530790  10.34171357
3964.00 -23.43943083  10.35607170
3966.00 -23.46355983  10.37044135
3968.00 -23.48769489  10.38482251
3970.00 -23.51183599  10.39921519
3972.00 -23.53598314  10.41361940
3974.00 -23.56013632  10.42803513
3976.00 -23.58429553  10.44246238
3978.00 -23.60846076  10.45690115
3980.00 -23.63263200  10.47135145
3982.00 -23.65680925  10.48581327
3984.00 -23.68099251  10.50028662
3986.00 -23.70518175  10.51477149
3988.00 -23.72937699  10.52926790
3990.00 -23.75357820  10.54377583
3992.00 -23.77778538  10.55829529
3994.00 -23.80199854  10.57282628
3996.00 -23.82621765  10.58736880
3998.00 -23.85044271  10.60192285
4000.00 -23.87467372  10.61648843
4002.00 -23.89891066  10.63106555
4004.00 -23.92315354  10.64565420
4006.00 -23.94740234  10.66025439
4008.00 -23.97165706  10.67486611
4010.00 -23.99591769  10.68948936
4012.00 -24.02018423  10.70412416
4014.00 -24.04445666  10.71877049
4016.00 -24.06873498  10.73342835
4018.00 -24.09301919  10.74809776
4020.00 -24.11730927  10.76277871
4022.00 -24.14160522  10.77747120
4024.00 -24.16590703  10.79217523
4026.00 -24.19021470  10.80689080
4028.00 -24.21452821  10.82161791
4030.00 -24.23884757  10.83635657
4032.00 -24.26317277  10.85110677
4034.00 -24.28750379  10.86586851
4036.00 -24.31184063  10.88064180
4038.00 -24.33618329  10.89542664
4040.00 -24.36053175  10.91022302
4042.00 -24.38488602  10.92503095
4044.00 -24.40924607  10.93985043
4046.00 -24.43361192  10.95468145
4048.00 -24.45798354  10.96952403
4050.00 -24.48236094  10.98437815
4052.00 -24.50674411  10.99924383
4054.00 -24.53113303  11.01412106
4056.00 -24.55552770  11.02900984
4058.00 -24.57992813  11.04391017
4060.00 -24.60433429  11.05882205
4062.00 -24.62874618  11.07374549
4064.00 -24.65316379  11.08868049
4066.00 -24.67758713  11.10362703
4068.00 -24.70201617  11.11858514
4070.00 -24.72645092  11.13355480
4072.00 -24.75089137  11.14853602
4074.00 -24.77533751  11.16352879
4076.00 -24.79978933  11.17853312
4078.00 -24.82424683  11.19354901
4080.00 -24.84871000  11.20857646
4082.00 -24.87317883  11.22361547
4084.00 -24.89765332  11.23866604
4086.00 -24.92213345  11.25372817
4088.00 -24.94661923  11.26880187
4090.00 -24.97111065  11.28388712
4092.00 -24.99560769  11.29898394
4094.00 -25.02011036  11.31409232
4096.00 -25.04461864  11.32921226
4098.00 -25.06913253  11.34434377
4100.00 -25.09365202  11.35948684
4102.00 -25.11817711  11.37464148
4104.00 -25.14270779  11.38980768
4106.00 -25.16724404  11.40498545
4108.00 -25.19178587  11.42017479
4110.00 -25.21633327  11.43537570
4112.00 -25.24088623  11.45058817
4114.00 -25.26544474  11.46581221
4116.00 -25.29000880  11.48104782
4118.00 -25.31457839  11.49629500
4120.00 -25.33915353  11.51155375
4122.00 -25.36373418  11.52682406
4124.00 -25.38832036  11.54210595
4126.00 -25.41291205  11.55739942
4128.00 -25.43750925  11.57270445
4130.00 -25.46211194  11.58802105
4132.00 -25.48672013  11.60334923
4134.00 -25.51133380  11.61868898
4136.00 -25.53595296  11.63404031
4138.00 -25.56057758  11.64940320
4140.00 -25.58520767  11.66477768
4142.00 -25.60984322  11.68016373
4144.00 -25.63448421  11.69556135
4146.00 -25.65913066  11.71097055
4148.00 -25.68378254  11.72639132
4150.00 -25.70843985  11.74182367
4152.00 -25.73310259  11.75726760
4154.00 -25.75777074  11.77272311
4156.00 -25.78244430  11.78819019
4158.00 -25.80712327  11.80366886
4160.00 -25.83180764  11.81915910
4162.00 -25.85649739  11.83466092
4164.00 -25.88119253  11.85017432
4166.00 -25.90589305  11.86569930
4168.00 -25.93059893  11.88123586
4170.00 -25.95531018  11.89678400
4172.00 -25.98002678  11.91234372
4174.00 -26.00474874  11.92791502
4176.00 -26.02947603  11.94349790
4178.00 -26.05420867  11.95909237
4180.00 -26.07894663  11.97469842
4182.00 -26.10368991  11.99031605
4184.00 -26.12843851  12.00594526
4186.00 -26.15319242  12.02158606
4188.00 -26.17795163  12.03723844
4190.00 -26.20271614  12.05290241
4192.00 -26.22748593  12.06857796
4194.00 -26.25226101  12.08426509
4196.00 -26.27704136  12.09996381
4198.00 -26.30182698  12.11567412
4200.00 -26.32661786  12.13139601
4202.00 -26.35141399  12.14712948
4204.00 -26.37621538  12.16287455
4206.00 -26.40102200  12.17863119
4208.00 -26.42583386  12.19439943
4210.00 -26.45065095  12.21017925
4212.00 -26.47547325  12.22597066
4214.00 -26.50030077  12.24177366
4216.00 -26.52513350  12.25758825
4218.00 -26.54997143  12.27341442
4220.00 -26.57481456  12.28925218
4222.00 -26.59966287  12.30510153
4224.00 -26.62451636  12.32096247
4226.00 -26.64937502  12.33683500
4228.00 -26.67423885  12.35271912
4230.00 -26.69910784  12.36861483
4232.00 -26.72398199  12.38452213
4234.00 -26.74886128  12.40044102
4236.00 -26.77374571  12.41637150
4238.00 -26.79863527  12.43231357
4240.00 -26.82352997  12.44826723
4242.00 -26.84842978  12.46423248
4244.00 -26.87333470  12.48020932
4246.00 -26.89824473  12.49619775
4248.00 -26.92315986  12.51219778
4250.00 -26.94808008  12.52820939
4252.00 -26.97300539  12.54423260
4254.00 -26.99793578  12.56026740
4256.00 -27.02287124  12.57631380
4258.00 -27.04781176  12.59237178
4260.00 -27.07275735  12.60844136
4262.00 -27.09770799  12.62452253
4264.00 -27.12266367  12.64061530
4266.00 -27.14762439  12.65671966
4268.00 -27.17259015  12.67283561
4270.00 -27.19756093  12.68896315
4272.00 -27.22253673  12.70510229
4274.00 -27.24751754  12.72125302
4276.00 -27.27250336  12.73741535
4278.00 -27.29749418  12.75358927
4280.00 -27.32248999  12.76977478
4282.00 -27.34749078  12.78597189
4284.00 -27.37249655  12.80218059
4286.00 -27.39750730  12.81840089
4288.00 -27.42252301  12.83463278
4290.00 -27.44754368  12.85087627
4292.00 -27.47256930  12.86713135
4294.00 -27.49759986  12.88339803
4296.00 -27.52263537  12.89967630
4298.00 -27.54767581  12.91596617
4300.00 -27.57272117  12.93226763
4302.00 -27.59777145  12.94858068
4304.00 -27.62282664  12.96490534
4306.00 -27.64788674  12.98124158
4308.00 -27.67295174  12.99758943
4310.00 -27.69802162  13.01394886
4312.00 -27.72309640  13.03031990
4314.00 -27.74817605  13.04670253
4316.00 -27.77326057  13.06309675
4318.00 -27.79834996  13.07950258
4320.00 -27.82344421  13.09591999
4322.00 -27.84854331  13.11234900
4324.00 -27.87364726  13.12878961
4326.00 -27.89875604  13.14524182
4328.00 -27.92386965  13.16170562
4330.00 -27.94898809  13.17818101
4332.00 -27.97411135  13.19466801
4334.00 -27.99923942  13.21116659
4336.00 -28.02437230  13.22767678
4338.00 -28.04950998  13.24419856
4340.00 -28.07465244  13.26073193
4342.00 -28.09979969  13.27727690
4344.00 -28.12495173  13.29383347
4346.00 -28.15010853  13.31040163
4348.00 -28.17527010  13.32698139
4350.00 -28.20043642  13.34357275
4352.00 -28.22560750  13.36017570
4354.00 -28.25078333  13.37679025
4356.00 -28.27596389  13.39341639
4358.00 -28.30114919  13.41005412
4360.00 -28.32633921  13.42670346
4362.00 -28.35153395  13.44336439
4364.00 -28.37673340  13.46003691
4366.00 -28.40193756  13.47672103
4368.00 -28.42714642  13.49341675
4370.00 -28.45235997  13.51012406
4372.00 -28.47757821  13.52684296
4374.00 -28.50280112  13.54357346
4376.00 -28.52802871  13.56031556
4378.00 -28.55326097  13.57706925
4380.00 -28.57849788  13.59383454
4382.00 -28.60373945  13.61061142
4384.00 -28.62898566  13.62739989
4386.00 -28.65423651  13.64419996
4388.00 -28.67949200  13.66101163
4390.00 -28.70475211  13.67783488
4392.00 -28.73001684  13.69466974
4394.00 -28.75528619  13.71151618
4396.00 -28.78056014  13.72837423
4398.00 -28.80583869  13.74524386
4400.00 -28.83112183  13.76212509
4402.00 -28.85640957  13.77901791
4404.00 -28.88170188  13.79592233
4406.00 -28.90699876  13.81283834
4408.00 -28.93230022  13.82976594
4410.00 -28.95760623  13.84670513
4412.00 -28.98291680  13.86365592
4414.00 -29.00823191  13.88061830
4416.00 -29.03355157  13.89759228
4418.00 -29.05887576  13.91457784
4420.00 -29.08420448  13.93157500
4422.00 -29.10953772  13.94858375
4424.00 -29.13487547  13.96560409
4426.00 -29.16021773  13.98263602
4428.00 -29.18556449  13.99967955
4430.00 -29.21091575  14.01673466
4432.00 -29.23627150  14.03380137
4434.00 -29.26163172  14.05087967
4436.00 -29.28699642  14.06796956
4438.00 -29.31236560  14.08507104
4440.00 -29.33773923  14.10218410
4442.00 -29.36311732  14.11930876
4444.00 -29.38849985  14.13644501
4446.00 -29.41388683  14.15359285
4448.00 -29.43927825  14.17075228
4450.00 -29.46467409  14.18792329
4452.00 -29.49007436  14.20510590
4454.00 -29.51547905  14.22230009
4456.00 -29.54088814  14.23950587
4458.00 -29.56630164  14.25672324
4460.00 -29.59171953  14.27395220
4462.00 -29.61714181  14.29119275
4464.00 -29.64256848  14.30844488
4466.00 -29.66799952  14.32570860
4468.00 -29.69343494  14.34298391
4470.00 -29.71887472  14.36027080
4472.00 -29.74431885  14.37756928
4474.00 -29.76976734  14.39487934
4476.00 -29.79522017  14.41220099
4478.00 -29.82067734  14.42953423
4480.00 -29.84613884  14.44687905
4482.00 -29.87160466  14.46423545
4484.00 -29.89707481  14.48160344
4486.00 -29.92254926  14.49898301
4488.00 -29.94802802  14.51637417
4490.00 -29.97351108  14.53377691
4492.00 -29.99899844  14.55119123
4494.00 -30.02449007  14.56861714
4496.00 -30.04998599  14.58605463
4498.00 -30.07548618  14.60350370
4500.00 -30.10099064  14.62096435
4502.00 -30.12649935  14.63843658
4504.00 -30.15201232  14.65592040
4506.00 -30.17752954  14.67341579
4508.00 -30.20305100  14.69092277
4510.00 -30.22857669  14.70844133
4512.00 -30.25410661  14.72597146
4514.00 -30.27964074  14.74351317
4516.00 -30.30517910  14.76106647
4518.00 -30.33072166  14.77863134
4520.00 -30.35626842  14.79620779
4522.00 -30.38181938  14.81379581
4524.00 -30.40737453  14.83139542
4526.00 -30.43293386  14.84900660
4528.00 -30.45849736  14.86662936
4530.00 -30.48406504  14.88426369
4532.00 -30.50963687  14.90190960
4534.00 -30.53521287  14.91956709
4536.00 -30.56079301  14.93723615
4538.00 -30.58637730  14.95491678
4540.00 -30.61196572  14.97260899
4542.00 -30.63755827  14.99031277
4544.00 -30.66315495  15.00802812
4546.00 -30.68875575  15.02575505
4548.00 -30.71436065  15.04349355
4550.00 -30.73996966  15.06124362
4552.00 -30.76558277  15.07900526
4554.00 -30.79119997  15.09677848
4556.00 -30.81682126  15.11456326
4558.00 -30.84244662  15.13235962
4560.00 -30.86807606  15.15016754
4562.00 -30.89370957  15.16798703
4564.00 -30.91934713  15.18581809
4566.00 -30.94498875  15.20366072
4568.00 -30.97063441  15.22151492
4570.00 -30.99628411  15.23938069
4572.00 -31.02193785  15.25725802
4574.00 -31.04759562  15.27514691
4576.00 -31.07325740  15.29304738
4578.00 -31.09892321  15.31095940
4580.00 -31.12459302  15.32888300
4582.00 -31.15026683  15.34681815
4584.00 -31.17594463  15.36476487
4586.00 -31.20162643  15.38272316
4588.00 -31.22731221  15.40069300
4590.00 -31.25300196  15.41867441
4592.00 -31.27869569  15.43666738
4594.00 -31.30439338  15.45467191
4596.00 -31.33009502  15.47268800
4598.00 -31.35580062  15.49071566
4600.00 -31.38151016  15.50875487
4602.00 -31.40722364  15.52680564
4604.00 -31.43294105  15.54486797
4606.00 -31.45866238  15.56294185
4608.00 -31.48438764  15.58102729
4610.00 -31.51011681  15.59912429
4612.00 -31.53584988  15.61723285
4614.00 -31.56158685  15.63535296
4616.00 -31.58732772  15.65348463
4618.00 -31.61307247  15.67162785
4620.00 -31.63882110  15.68978262
4622.00 -31.66457361  15.70794895
4624.00 -31.69032998  15.72612683
4626.00 -31.71609022  15.74431626
4628.00 -31.74185431  15.76251725
4630.00 -31.76762225  15.78072978
4632.00 -31.79339403  15.79895386
4634.00 -31.81916965  15.81718950
4636.00 -31.84494910  15.83543668
4638.00 -31.87073237  15.85369541
4640.00 -31.89651946  15.87196569
4642.00 -31.92231036  15.89024752
4644.00 -31.94810506  15.90854089
4646.00 -31.97390357  15.92684581
4648.00 -31.99970586  15.94516227
4650.00 -32.02551194  15.96349028
4652.00 -32.05132180  15.98182984
4654.00 -32.07713543  16.00018093
4656.00 -32.10295282  16.01854357
4658.00 -32.12877398  16.03691775
4660.00 -32.15459889  16.05530347
4662.00 -32.18042755  16.07370073
4664.00 -32.20625994  16.09210954
4666.00 -32.23209608  16.11052988
4668.00 -32.25793594  16.12896176
4670.00 -32.28377952  16.14740518
4672.00 -32.30962682  16.16586013
4674.00 -32.33547783  16.18432662
4676.00 -32.36133254  16.20280465
4678.00 -32.38719095  16.22129421
4680.00 -32.41305305  16.23979531
4682.00 -32.43891883  16.25830794
4684.00 -32.46478830  16.27683211
4686.00 -32.49066143  16.29536780
4688.00 -32.51653823  16.31391503
4690.00 -32.54241869  16.33247379
4692.00 -32.56830280  16.35104408
4694.00 -32.59419055  16.36962590
4696.00 -32.62008195  16.38821925
4698.00 -32.64597698  16.40682412
4700.00 -32.67187564  16.42544053
4702.00 -32.69777792  16.44406846
4704.00 -32.72368381  16.46270791
4706.00 -32.74959332  16.48135889
4708.00 -32.77550643  16.50002140
4710.00 -32.80142313  16.51869543
4712.00 -32.82734342  16.53738098
4714.00 -32.85326730  16.55607805
4716.00 -32.87919475  16.57478664
4718.00 -32.90512578  16.59350676
4720.00 -32.93106037  16.61223839
4722.00 -32.95699852  16.63098155
4724.00 -32.98294022  16.64973622
4726.00 -33.00888547  16.66850241
4728.00 -33.03483425  16.68728012
4730.00 -33.06078658  16.70606934
4732.00 -33.08674242  16.72487007
4734.00 -33.11270180  16.74368232
4736.00 -33.13866468  16.76250609
4738.00 -33.16463107  16.78134137
4740.00 -33.19060097  16.80018815
4742.00 -33.21657436  16.81904645
4744.00 -33.24255125  16.83791626
4746.00 -33.26853161  16.85679758
4748.00 -33.29451546  16.87569041
4750.00 -33.32050278  16.89459475
4752.00 -33.34649356  16.91351059
4754.00 -33.37248780  16.93243794
4756.00 -33.39848549  16.95137679
4758.00 -33.42448663  16.97032715
4760.00 -33.45049121  16.98928901
4762.00 -33.47649922  17.00826237
4764.00 -33.50251067  17.02724724
4766.00 -33.52852553  17.04624360
4768.00 -33.55454381  17.06525147
4770.00 -33.58056550  17.08427084
4772.00 -33.60659059  17.10330170
4774.00 -33.63261908  17.12234406
4776.00 -33.65865096  17.14139792
4778.00 -33.68468622  17.16046327
4780.00 -33.71072486  17.17954012
4782.00 -33.73676688  17.19862846
4784.00 -33.76281226  17.21772830
4786.00 -33.78886100  17.23683962
4788.00 -33.81491309  17.25596244
4790.00 -33.84096853  17.27509675
4792.00 -33.86702732  17.29424255
4794.00 -33.89308943  17.31339984
4796.00 -33.91915488  17.33256861
4798.00 -33.94522365  17.35174887
4800.00 -33.97129574  17.37094062
4802.00 -33.99737113  17.39014385
4804.00 -34.02344984  17.40935856
4806.00 -34.04953184  17.42858476
4808.00 -34.07561713  17.44782244
4810.00 -34.10170570  17.46707160
4812.00 -34.12779756  17.48633224
4814.00 -34.15389269  17.50560436
4816.00 -34.17999109  17.52488796
4818.00 -34.20609275  17.54418304
4820.00 -34.23219766  17.56348959
4822.00 -34.25830583  17.58280762
4824.00 -34.28441723  17.60213712
4826.00 -34.31053187  17.62147809
4828.00 -34.33664975  17.64083054
4830.00 -34.36277085  17.66019446
4832.00 -34.38889516  17.67956985
4834.00 -34.41502269  17.69895671
4836.00 -34.44115343  17.71835504
4838.00 -34.46728736  17.73776483
4840.00 -34.49342449  17.75718609
4842.00 -34.51956481  17.77661882
4844.00 -34.54570830  17.79606301
4846.00 -34.57185498  17.81551867
4848.00 -34.59800482  17.83498578
4850.00 -34.62415783  17.85446436
4852.00 -34.65031399  17.87395440
4854.00 -34.67647330  17.89345590
4856.00 -34.70263576  17.91296886
4858.00 -34.72880136  17.93249328
4860.00 -34.75497009  17.95202915
4862.00 -34.78114195  17.97157647
4864.00 -34.80731693  17.99113525
4866.00 -34.83349502  18.01070549
4868.00 -34.85967623  18.03028718
4870.00 -34.88586053  18.04988031
4872.00 -34.91204793  18.06948490
4874.00 -34.93823842  18.08910094
4876.00 -34.96443200  18.10872842
4878.00 -34.99062865  18.12836736
4880.00 -35.01682838  18.14801773
4882.00 -35.04303117  18.16767956
4884.00 -35.06923702  18.18735282
4886.00 -35.09544593  18.20703753
4888.00 -35.12165788  18.22673368
4890.00 -35.14787287  18.24644127
4892.00 -35.17409091  18.26616031
4894.00 -35.20031197  18.28589077
4896.00 -35.22653605  18.30563268
4898.00 -35.25276315  18.32538602
4900.00 -35.27899326  18.34515080
4902.00 -35.30522638  18.36492701
4904.00 -35.33146250  18.38471466
4906.00 -35.35770161  18.40451373
4908.00 -35.38394371  18.42432424
4910.00 -35.41018879  18.44414618
4912.00 -35.43643685  18.46397954
4914.00 -35.46268787  18.48382433
4916.00 -35.48894186  18.50368055
4918.00 -35.51519881  18.52354820
4920.00 -35.54145870  18.54342726
4922.00 -35.56772155  18.56331775
4924.00 -35.59398733  18.58321967
4926.00 -35.62025604  18.60313300
4928.00 -35.64652768  18.62305775
4930.00 -35.67280225  18.64299392
4932.00 -35.69907972  18.66294151
4934.00 -35.72536011  18.68290051
4936.00 -35.75164340  18.70287092
4938.00 -35.77792959  18.72285276
4940.00 -35.80421867  18.74284600
4942.00 -35.83051063  18.76285065
4944.00 -35.85680548  18.78286672
4946.00 -35.88310319  18.80289419
4948.00 -35.90940378  18.82293307
4950.00 -35.93570722  18.84298336
4952.00 -35.96201352  18.86304505
4954.00 -35.98832267  18.88311815
4956.00 -36.01463467  18.90320265
4958.00 -36.04094950  18.92329855
4960.00 -36.06726716  18.94340585
4962.00 -36.09358765  18.96352455
4964.00 -36.11991095  18.98365465
4966.00 -36.14623707  19.00379615
4968.00 -36.17256600  19.02394904
4970.00 -36.19889773  19.04411332
4972.00 -36.22523226  19.06428900
4974.00 -36.25156957  19.08447608
4976.00 -36.27790967  19.10467454
4978.00 -36.30425255  19.12488439
4980.00 -36.33059820  19.14510563
4982.00 -36.35694661  19.16533826
4984.00 -36.38329779  19.18558227
4986.00 -36.40965172  19.20583767
4988.00 -36.43600839  19.22610445
4990.00 -36.46236781  19.24638261
4992.00 -36.48872997  19.26667215
4994.00 -36.51509485  19.28697308
4996.00 -36.54146246  19.30728538
4998.00 -36.56783279  19.32760906
5000.00 -36.59420583  19.34794411
