wavelength(nm)         real         imag
100.00   3.67476308   0.00215234
102.00   3.66566437   0.00228408
104.00   3.65638556   0.00242108
106.00   3.64692665   0.00256345
108.00   3.63728765   0.00271129
110.00   3.62746855   0.00286471
112.00   3.61746937   0.00302382
114.00   3.60729011   0.00318870
116.00   3.59693076   0.00335948
118.00   3.58639135   0.00353624
120.00   3.57567187   0.00371910
122.00   3.56477232   0.00390815
124.00   3.55369271   0.00410351
126.00   3.54243305   0.00430526
128.00   3.53099334   0.00451353
130.00   3.51937359   0.00472840
132.00   3.50757379   0.00494998
134.00   3.49559396   0.00517839
136.00   3.48343411   0.00541370
138.00   3.47109423   0.00565605
140.00   3.45857433   0.00590551
142.00   3.44587442   0.00616221
144.00   3.43299450   0.00642623
146.00   3.41993458   0.00669769
148.00   3.40669467   0.00697669
150.00   3.39327476   0.00726333
152.00   3.37967488   0.00755771
154.00   3.36589501   0.00785994
156.00   3.35193517   0.00817012
158.00   3.33779537   0.00848835
160.00   3.32347560   0.00881474
162.00   3.30897589   0.00914939
164.00   3.29429622   0.00949240
166.00   3.27943662   0.00984388
168.00   3.26439708   0.01020392
170.00   3.24917761   0.01057264
172.00   3.23377823   0.01095013
174.00   3.21819893   0.01133650
176.00   3.20243972   0.01173185
178.00   3.18650061   0.01213628
180.00   3.17038161   0.01254990
182.00   3.15408272   0.01297281
184.00   3.13760395   0.01340511
186.00   3.12094531   0.01384691
188.00   3.10410681   0.01429831
190.00   3.08708844   0.01475940
192.00   3.06989023   0.01523031
194.00   3.05251218   0.01571112
196.00   3.03495429   0.01620194
198.00   3.01721658   0.01670288
200.00   2.99929904   0.01721403
202.00   2.98120169   0.01773550
204.00   2.96292455   0.01826740
206.00   2.94446760   0.01880982
208.00   2.92583087   0.01936287
210.00   2.90701436   0.01992665
212.00   2.88801807   0.02050126
214.00   2.86884203   0.02108681
216.00   2.84948623   0.02168340
218.00   2.82995068   0.02229114
220.00   2.81023540   0.02291012
222.00   2.79034039   0.02354045
224.00   2.77026566   0.02418223
226.00   2.75001121   0.02483556
228.00   2.72957707   0.02550055
230.00   2.70896323   0.02617731
232.00   2.68816971   0.02686592
234.00   2.66719651   0.02756650
236.00   2.64604365   0.02827915
238.00   2.62471113   0.02900397
240.00   2.60319896   0.02974107
242.00   2.58150715   0.03049054
244.00   2.55963572   0.03125249
246.00   2.53758466   0.03202702
248.00   2.51535400   0.03281424
250.00   2.49294374   0.03361425
252.00   2.47035389   0.03442715
254.00   2.44758445   0.03525304
256.00   2.42463545   0.03609202
258.00   2.40150689   0.03694421
260.00   2.37819878   0.03780970
262.00   2.35471113   0.03868859
264.00   2.33104395   0.03958099
266.00   2.30719725   0.04048700
268.00   2.28317104   0.04140672
270.00   2.25896533   0.04234025
272.00   2.23458014   0.04328771
274.00   2.21001547   0.04424918
276.00   2.18527133   0.04522478
278.00   2.16034774   0.04621460
280.00   2.13524471   0.04721875
282.00   2.10996224   0.04823733
284.00   2.08450035   0.04927044
286.00   2.05885905   0.05031819
288.00   2.03303834   0.05138068
290.00   2.00703825   0.05245800
292.00   1.98085878   0.05355028
294.00   1.95449995   0.05465759
296.00   1.92796176   0.05578006
298.00   1.90124423   0.05691778
300.00   1.87434737   0.05807085
302.00   1.84727119   0.05923937
304.00   1.82001570   0.06042346
306.00   1.79258092   0.06162320
308.00   1.76496685   0.06283871
310.00   1.73717351   0.06407009
312.00   1.70920091   0.06531743
314.00   1.68104907   0.06658084
316.00   1.65271799   0.06786043
318.00   1.62420769   0.06915629
320.00   1.59551818   0.07046853
322.00   1.56664947   0.07179725
324.00   1.53760157   0.07314255
326.00   1.50837451   0.07450453
328.00   1.47896828   0.07588331
330.00   1.44938291   0.07727897
332.00   1.41961841   0.07869163
334.00   1.38967478   0.08012137
336.00   1.35955205   0.08156832
338.00   1.32925022   0.08303256
340.00   1.29876932   0.08451421
342.00   1.26810934   0.08601335
344.00   1.23727031   0.08753011
346.00   1.20625224   0.08906457
348.00   1.17505514   0.09061684
350.00   1.14367903   0.09218702
352.00   1.11212392   0.09377521
354.00   1.08038983   0.09538153
356.00   1.04847676   0.09700606
358.00   1.01638473   0.09864891
360.00   0.98411376   0.10031018
362.00   0.95166386   0.10198998
364.00   0.91903504   0.10368840
366.00   0.88622732   0.10540556
368.00   0.85324071   0.10714154
370.00   0.82007523   0.10889646
372.00   0.78673089   0.11067041
374.00   0.75320771   0.11246350
376.00   0.71950570   0.11427583
378.00   0.68562487   0.11610750
380.00   0.65156525   0.11795862
382.00   0.61732683   0.11982928
384.00   0.58290965   0.12171958
386.00   0.54831372   0.12362964
388.00   0.51353904   0.12555954
390.00   0.47858564   0.12750940
392.00   0.44345353   0.12947932
394.00   0.40814272   0.13146939
396.00   0.37265324   0.13347972
398.00   0.33698509   0.13551041
400.00   0.30113830   0.13756156
402.00   0.26511287   0.13963327
404.00   0.22890883   0.14172565
406.00   0.19252619   0.14383880
408.00   0.15596496   0.14597282
410.00   0.11922517   0.14812781
412.00   0.08230682   0.15030387
414.00   0.04520993   0.15250111
416.00   0.00793453   0.15471962
418.00  -0.02951938   0.15695952
420.00  -0.06715178   0.15922089
422.00  -0.10496265   0.16150384
424.00  -0.14295197   0.16380848
426.00  -0.18111974   0.16613490
428.00  -0.21946592   0.16848321
430.00  -0.25799051   0.17085350
432.00  -0.29669348   0.17324589
434.00  -0.33557483   0.17566046
436.00  -0.37463453   0.17809733
438.00  -0.41387257   0.18055660
440.00  -0.45328893   0.18303835
442.00  -0.49288359   0.18554271
444.00  -0.53265654   0.18806977
446.00  -0.57260776   0.19061962
448.00  -0.61273722   0.19319238
450.00  -0.65304492   0.19578814
452.00  -0.69353084   0.19840701
454.00  -0.73419495   0.20104908
456.00  -0.77503725   0.20371446
458.00  -0.81605771   0.20640325
460.00  -0.85725631   0.20911554
462.00  -0.89863304   0.21185145
464.00  -0.94018788   0.21461108
466.00  -0.98192081   0.21739451
468.00  -1.02383181   0.22020187
470.00  -1.06592086   0.22303324
472.00  -1.10818795   0.22588872
474.00  -1.15063306   0.22876843
476.00  -1.19325617   0.23167246
478.00  -1.23605726   0.23460091
480.00  -1.27903631   0.23755388
482.00  -1.32219330   0.24053148
484.00  -1.36552822   0.24353380
486.00  -1.40904104   0.24656094
488.00  -1.45273175   0.24961302
490.00  -1.49660033   0.25269012
492.00  -1.54064675   0.25579236
494.00  -1.58487101   0.25891982
496.00  -1.62927307   0.26207262
498.00  -1.67385293   0.26525085
500.00  -1.71861055   0.26845461
502.00  -1.76354593   0.27168401
504.00  -1.80865904   0.27493914
506.00  -1.85394986   0.27822011
508.00  -1.89941838   0.28152702
510.00  -1.94506457   0.28485997
512.00  -1.99088841   0.28821906
514.00  -2.03688988   0.29160438
516.00  -2.08306897   0.29501605
518.00  -2.12942565   0.29845416
520.00  -2.17595990   0.30191881
522.00  -2.22267171   0.30541011
524.00  -2.26956105   0.30892815
526.00  -2.31662790   0.31247304
528.00  -2.36387224   0.31604487
530.00  -2.41129405   0.31964375
532.00  -2.45889331   0.32326978
534.00  -2.50667001   0.32692305
536.00  -2.55462411   0.33060368
538.00  -2.60275560   0.33431175
540.00  -2.65106445   0.33804737
542.00  -2.69955065   0.34181065
544.00  -2.74821418   0.34560167
546.00  -2.79705501   0.34942055
548.00  -2.84607312   0.35326738
550.00  -2.89526850   0.35714226
552.00  -2.94464111   0.36104530
554.00  -2.99419095   0.36497659
556.00  -3.04391797   0.36893623
558.00  -3.09382218   0.37292433
560.00  -3.14390354   0.37694098
562.00  -3.19416203   0.38098629
564.00  -3.24459763   0.38506036
566.00  -3.29521031   0.38916328
568.00  -3.34600007   0.39329516
570.00  -3.39696687   0.39745610
572.00  -3.44811069   0.40164619
574.00  -3.49943150   0.40586554
576.00  -3.55092930   0.41011425
578.00  -3.60260405   0.41439242
580.00  -3.65445574   0.41870014
582.00  -3.70648433   0.42303753
584.00  -3.75868981   0.42740467
586.00  -3.81107216   0.43180167
588.00  -3.86363134   0.43622863
590.00  -3.91636735   0.44068565
592.00  -3.96928015   0.44517283
594.00  -4.02236973   0.44969026
596.00  -4.07563606   0.45423806
598.00  -4.12907911   0.45881632
600.00  -4.18269887   0.46342513
602.00  -4.23649531   0.46806461
604.00  -4.29046840   0.47273484
606.00  -4.34461813   0.47743593
608.00  -4.39894447   0.48216799
610.00  -4.45344740   0.48693110
612.00  -4.50812689   0.49172537
614.00  -4.56298291   0.49655090
616.00  -4.61801546   0.50140778
618.00  -4.67322449   0.50629613
620.00  -4.72861000   0.51121603
622.00  -4.78417195   0.51616759
624.00  -4.83991031   0.52115091
626.00  -4.89582508   0.52616608
628.00  -4.95191621   0.53121322
630.00  -5.00818369   0.53629241
632.00  -5.06462749   0.54140375
634.00  -5.12124760   0.54654735
636.00  -5.17804397   0.55172331
638.00  -5.23501660   0.55693172
640.00  -5.29216544   0.56217268
642.00  -5.34949049   0.56744630
644.00  -5.40699171   0.57275268
646.00  -5.46466908   0.57809190
648.00  -5.52252258   0.58346408
650.00  -5.58055218   0.58886931
652.00  -5.63875785   0.59430769
654.00  -5.69713957   0.59977933
656.00  -5.75569731   0.60528431
658.00  -5.81443105   0.61082274
660.00  -5.87334077   0.61639472
662.00  -5.93242643   0.62200035
664.00  -5.99168802   0.62763972
666.00  -6.05112550   0.63331295
668.00  -6.11073885   0.63902011
670.00  -6.17052805   0.64476133
672.00  -6.23049306   0.65053668
674.00  -6.29063387   0.65634628
676.00  -6.35095044   0.66219022
678.00  -6.41144276   0.66806860
680.00  -6.47211079   0.67398153
682.00  -6.53295451   0.67992909
684.00  -6.59397389   0.68591139
686.00  -6.65516891   0.69192853
688.00  -6.71653954   0.69798060
690.00  -6.77808574   0.70406771
692.00  -6.83980751   0.71018996
694.00  -6.90170480   0.71634743
696.00  -6.96377760   0.72254024
698.00  -7.02602587   0.72876848
700.00  -7.08844959   0.73503225
702.00  -7.15104873   0.74133165
704.00  -7.21382327   0.74766677
706.00  -7.27677318   0.75403772
708.00  -7.33989842   0.76044460
710.00  -7.40319898   0.76688749
712.00  -7.46667482   0.77336651
714.00  -7.53032592   0.77988175
716.00  -7.59415226   0.78643331
718.00  -7.65815379   0.79302129
720.00  -7.72233050   0.79964578
722.00  -7.78668236   0.80630689
724.00  -7.85120934   0.81300471
726.00  -7.91591141   0.81973935
728.00  -7.98078854   0.82651089
730.00  -8.04584071   0.83331944
732.00  -8.11106789   0.84016510
734.00  -8.17647005   0.84704796
736.00  -8.24204716   0.85396813
738.00  -8.30779919   0.86092570
740.00  -8.37372612   0.86792077
742.00  -8.43982791   0.87495344
744.00  -8.50610454   0.88202380
746.00  -8.57255598   0.88913196
748.00  -8.63918221   0.89627802
750.00  -8.70598318   0.90346206
752.00  -8.77295887   0.91068420
754.00  -8.84010926   0.91794452
756.00  -8.90743432   0.92524312
758.00  -8.97493401   0.93258012
760.00  -9.04260831   0.93995559
762.00  -9.11045718   0.94736964
764.00  -9.17848060   0.95482237
766.00  -9.24667855   0.96231387
768.00  -9.31505098   0.96984425
770.00  -9.38359787   0.97741360
772.00  -9.45231919   0.98502202
774.00  -9.52121492   0.99266961
776.00  -9.59028501   1.00035646
778.00  -9.65952945   1.00808267
780.00  -9.72894819   1.01584834
782.00  -9.79854122   1.02365358
784.00  -9.86830850   1.03149846
786.00  -9.93825001   1.03938310
788.00 -10.00836570   1.04730759
790.00 -10.07865555   1.05527203
792.00 -10.14911954   1.06327652
794.00 -10.21975763   1.07132115
796.00 -10.29056978   1.07940602
798.00 -10.36155598   1.08753123
800.00 -10.43271618   1.09569687
802.00 -10.50405037   1.10390305
804.00 -10.57555850   1.11214986
806.00 -10.64724055   1.12043740
808.00 -10.71909648   1.12876576
810.00 -10.79112627   1.13713505
812.00 -10.86332988   1.14554535
814.00 -10.93570729   1.15399677
816.00 -11.00825845   1.16248941
818.00 -11.08098335   1.17102336
820.00 -11.15388195   1.17959872
822.00 -11.22695422   1.18821558
824.00 -11.30020012   1.19687405
826.00 -11.37361962   1.20557422
828.00 -11.44721270   1.21431618
830.00 -11.52097933   1.22310004
832.00 -11.59491946   1.23192589
834.00 -11.66903307   1.24079383
836.00 -11.74332012   1.24970395
838.00 -11.81778059   1.25865636
840.00 -11.89241445   1.26765114
842.00 -11.96722165   1.27668840
844.00 -12.04220217   1.28576824
846.00 -12.11735598   1.29489074
848.00 -12.19268304   1.30405601
850.00 -12.26818332   1.31326414
852.00 -12.34385679   1.32251523
854.00 -12.41970342   1.33180937
856.00 -12.49572317   1.34114667
858.00 -12.57191601   1.35052722
860.00 -12.64828191   1.35995111
862.00 -12.72482083   1.36941845
864.00 -12.80153275   1.37892932
866.00 -12.87841763   1.38848383
868.00 -12.95547543   1.39808207
870.00 -13.03270613   1.40772414
872.00 -13.11010968   1.41741013
874.00 -13.18768607   1.42714015
876.00 -13.26543525   1.43691428
878.00 -13.34335719   1.44673262
880.00 -13.42145185   1.45659528
882.00 -13.49971921   1.46650234
884.00 -13.57815923   1.47645390
886.00 -13.65677187   1.48645006
888.00 -13.73555711   1.49649091
890.00 -13.81451491   1.50657655
892.00 -13.89364523   1.51670709
894.00 -13.97294804   1.52688260
896.00 -14.05242331   1.53710319
898.00 -14.13207100   1.54736895
900.00 -14.21189108   1.55767999
902.00 -14.29188352   1.56803639
904.00 -14.37204827   1.57843826
906.00 -14.45238531   1.58888568
908.00 -14.53289461   1.59937875
910.00 -14.61357612   1.60991758
912.00 -14.69442981   1.62050225
914.00 -14.77545565   1.63113286
916.00 -14.85665360   1.64180950
918.00 -14.93802363   1.65253228
920.00 -15.01956570   1.66330129
922.00 -15.10127978   1.67411662
924.00 -15.18316584   1.68497837
926.00 -15.26522383   1.69588663
928.00 -15.34745373   1.70684150
930.00 -15.42985549   1.71784308
932.00 -15.51242909   1.72889146
934.00 -15.59517448   1.73998673
936.00 -15.67809164   1.75112900
938.00 -15.76118052   1.76231835
940.00 -15.84444110   1.77355488
942.00 -15.92787333   1.78483869
944.00 -16.01147718   1.79616988
946.00 -16.09525261   1.80754853
948.00 -16.17919959   1.81897474
950.00 -16.26331808   1.83044861
952.00 -16.34760805   1.84197023
954.00 -16.43206946   1.85353970
956.00 -16.51670227   1.86515712
958.00 -16.60150645   1.87682257
960.00 -16.68648196   1.88853615
962.00 -16.77162877   1.90029796
964.00 -16.85694683   1.91210810
966.00 -16.94243612   1.92396665
968.00 -17.02809660   1.93587371
970.00 -17.11392822   1.94782938
972.00 -17.19993095   1.95983375
974.00 -17.28610477   1.97188692
976.00 -17.37244962   1.98398898
978.00 -17.45896547   1.99614002
980.00 -17.54565229   2.00834015
982.00 -17.63251003   2.02058944
984.00 -17.71953867   2.03288801
986.00 -17.80673816   2.04523594
988.00 -17.89410847   2.05763333
990.00 -17.98164955   2.07008027
992.00 -18.06936138   2.08257686
994.00 -18.15724392   2.09512319
996.00 -18.24529712   2.10771936
998.00 -18.33352095   2.12036545
1000.00 -18.42191537   2.13306157
1002.00 -18.51048035   2.14580781
1004.00 -18.59921584   2.15860425
1006.00 -18.68812181   2.17145101
1008.00 -18.77719823   2.18434817
1010.00 -18.86644504   2.19729582
1012.00 -18.95586222   2.21029406
1014.00 -19.04544973   2.22334298
1016.00 -19.13520752   2.23644268
1018.00 -19.22513557   2.24959324
1020.00 -19.31523382   2.26279478
1022.00 -19.40550225   2.27604737
1024.00 -19.49594082   2.28935111
1026.00 -19.58654948   2.30270610
1028.00 -19.67732820   2.31611243
1030.00 -19.76827694   2.32957019
1032.00 -19.85939566   2.34307948
1034.00 -19.95068432   2.35664039
1036.00 -20.04214289   2.37025301
1038.00 -20.13377132   2.38391745
1040.00 -20.22556957   2.39763378
1042.00 -20.31753761   2.41140210
1044.00 -20.40967539   2.42522252
1046.00 -20.50198289   2.43909512
1048.00 -20.59446005   2.45301999
1050.00 -20.68710684   2.46699723
1052.00 -20.77992322   2.48102693
1054.00 -20.87290915   2.49510918
1056.00 -20.96606459   2.50924409
1058.00 -21.05938950   2.52343173
1060.00 -21.15288384   2.53767221
1062.00 -21.24654758   2.55196562
1064.00 -21.34038066   2.56631204
1066.00 -21.43438306   2.58071158
1068.00 -21.52855473   2.59516433
1070.00 -21.62289563   2.60967038
1072.00 -21.71740573   2.62422982
1074.00 -21.81208497   2.63884274
1076.00 -21.90693333   2.65350924
1078.00 -22.00195075   2.66822942
1080.00 -22.09713721   2.68300335
1082.00 -22.19249266   2.69783115
1084.00 -22.28801706   2.71271289
1086.00 -22.38371037   2.72764868
1088.00 -22.47957254   2.74263859
1090.00 -22.57560355   2.75768274
1092.00 -22.67180334   2.77278121
1094.00 -22.76817188   2.78793408
1096.00 -22.86470912   2.80314147
1098.00 -22.96141503   2.81840344
1100.00 -23.05828956   2.83372011
1102.00 -23.15533268   2.84909156
1104.00 -23.25254433   2.86451789
1106.00 -23.34992449   2.87999918
1108.00 -23.44747310   2.89553553
1110.00 -23.54519014   2.91112703
1112.00 -23.64307555   2.92677377
1114.00 -23.74112929   2.94247585
1116.00 -23.83935133   2.95823335
1118.00 -23.93774161   2.97404638
1120.00 -24.03630011   2.98991501
1122.00 -24.13502678   3.00583935
1124.00 -24.23392157   3.02181949
1126.00 -24.33298445   3.03785551
1128.00 -24.43221537   3.05394751
1130.00 -24.53161429   3.07009558
1132.00 -24.63118116   3.08629981
1134.00 -24.73091596   3.10256030
1136.00 -24.83081863   3.11887713
1138.00 -24.93088913   3.13525040
1140.00 -25.03112742   3.15168020
1142.00 -25.13153345   3.16816662
1144.00 -25.23210719   3.18470975
1146.00 -25.33284860   3.20130969
1148.00 -25.43375762   3.21796652
1150.00 -25.53483422   3.23468034
1152.00 -25.63607835   3.25145123
1154.00 -25.73748998   3.26827930
1156.00 -25.83906905   3.28516462
1158.00 -25.94081553   3.30210730
1160.00 -26.04272937   3.31910742
1162.00 -26.14481053   3.33616507
1164.00 -26.24705896   3.35328035
1166.00 -26.34947463   3.37045335
1168.00 -26.45205749   3.38768415
1170.00 -26.55480749   3.40497286
1172.00 -26.65772460   3.42231955
1174.00 -26.76080877   3.43972432
1176.00 -26.86405995   3.45718727
1178.00 -26.96747811   3.47470847
1180.00 -27.07106320   3.49228803
1182.00 -27.17481517   3.50992603
1184.00 -27.27873398   3.52762257
1186.00 -27.38281959   3.54537773
1188.00 -27.48707195   3.56319161
1190.00 -27.59149102   3.58106430
1192.00 -27.69607676   3.59899588
1194.00 -27.80082912   3.61698645
1196.00 -27.90574806   3.63503610
1198.00 -28.01083353   3.65314491
1200.00 -28.11608549   3.67131299
1202.00 -28.22150389   3.68954041
1204.00 -28.32708870   3.70782728
1206.00 -28.43283986   3.72617367
1208.00 -28.53875733   3.74457969
1210.00 -28.64484107   3.76304541
1212.00 -28.75109102   3.78157093
1214.00 -28.85750716   3.80015635
1216.00 -28.96408943   3.81880175
1218.00 -29.07083778   3.83750721
1220.00 -29.17775218   3.85627284
1222.00 -29.28483258   3.87509872
1224.00 -29.39207893   3.89398494
1226.00 -29.49949118   3.91293159
1228.00 -29.60706930   3.93193875
1230.00 -29.71481323   3.95100653
1232.00 -29.82272294   3.97013501
1234.00 -29.93079837   3.98932428
1236.00 -30.03903948   4.00857443
1238.00 -30.14744623   4.02788554
1240.00 -30.25601856   4.04725772
1242.00 -30.36475645   4.06669104
1244.00 -30.47365982   4.08618560
1246.00 -30.58272866   4.10574148
1248.00 -30.69196289   4.12535879
1250.00 -30.80136249   4.14503759
1252.00 -30.91092741   4.16477800
1254.00 -31.02065759   4.18458008
1256.00 -31.13055300   4.20444394
1258.00 -31.24061358   4.22436966
1260.00 -31.35083929   4.24435734
1262.00 -31.46123009   4.26440705
1264.00 -31.57178592   4.28451890
1266.00 -31.68250675   4.30469296
1268.00 -31.79339252   4.32492933
1270.00 -31.90444319   4.34522810
1272.00 -32.01565871   4.36558935
1274.00 -32.12703904   4.38601318
1276.00 -32.23858412   4.40649967
1278.00 -32.35029392   4.42704891
1280.00 -32.46216838   4.44766099
1282.00 -32.57420746   4.46833600
1284.00 -32.68641111   4.48907403
1286.00 -32.79877928   4.50987517
1288.00 -32.91131194   4.53073950
1290.00 -33.02400902   4.55166711
1292.00 -33.13687048   4.57265810
1294.00 -33.24989628   4.59371255
1296.00 -33.36308637   4.61483054
1298.00 -33.47644070   4.63601218
1300.00 -33.58995922   4.65725754
1302.00 -33.70364189   4.67856671
1304.00 -33.81748865   4.69993978
1306.00 -33.93149947   4.72137685
1308.00 -34.04567429   4.74287799
1310.00 -34.16001306   4.76444329
1312.00 -34.27451574   4.78607286
1314.00 -34.38918228   4.80776676
1316.00 -34.50401263   4.82952509
1318.00 -34.61900675   4.85134795
1320.00 -34.73416458   4.87323540
1322.00 -34.84948608   4.89518755
1324.00 -34.96497119   4.91720448
1326.00 -35.08061988   4.93928629
1328.00 -35.19643209   4.96143304
1330.00 -35.31240777   4.98364484
1332.00 -35.42854688   5.00592178
1334.00 -35.54484937   5.02826393
1336.00 -35.66131518   5.05067139
1338.00 -35.77794428   5.07314424
1340.00 -35.89473660   5.09568257
1342.00 -36.01169211   5.11828648
1344.00 -36.12881075   5.14095604
1346.00 -36.24609248   5.16369134
1348.00 -36.36353724   5.18649247
1350.00 -36.48114499   5.20935952
1352.00 -36.59891568   5.23229258
1354.00 -36.71684925   5.25529173
1356.00 -36.83494567   5.27835705
1358.00 -36.95320487   5.30148865
1360.00 -37.07162682   5.32468659
1362.00 -37.19021146   5.34795098
1364.00 -37.30895874   5.37128189
1366.00 -37.42786861   5.39467941
1368.00 -37.54694103   5.41814364
1370.00 -37.66617594   5.44167465
1372.00 -37.78557329   5.46527254
1374.00 -37.90513304   5.48893738
1376.00 -38.02485514   5.51266928
1378.00 -38.14473952   5.53646830
1380.00 -38.26478616   5.56033455
1382.00 -38.38499498   5.58426810
1384.00 -38.50536596   5.60826904
1386.00 -38.62589902   5.63233746
1388.00 -38.74659413   5.65647345
1390.00 -38.86745124   5.68067709
1392.00 -38.98847029   5.70494846
1394.00 -39.10965123   5.72928766
1396.00 -39.23099402   5.75369477
1398.00 -39.35249860   5.77816988
1400.00 -39.47416493   5.80271307
1402.00 -39.59599294   5.82732442
1404.00 -39.71798260   5.85200403
1406.00 -39.84013384   5.87675198
1408.00 -39.96244663   5.90156835
1410.00 -40.08492091   5.92645324
1412.00 -40.20755662   5.95140672
1414.00 -40.33035372   5.97642888
1416.00 -40.45331216   6.00151981
1418.00 -40.57643189   6.02667960
1420.00 -40.69971284   6.05190833
1422.00 -40.82315499   6.07720608
1424.00 -40.94675826   6.10257294
1426.00 -41.07052261   6.12800899
1428.00 -41.19444800   6.15351433
1430.00 -41.31853436   6.17908903
1432.00 -41.44278165   6.20473319
1434.00 -41.56718981   6.23044688
1436.00 -41.69175880   6.25623020
1438.00 -41.81648856   6.28208322
1440.00 -41.94137904   6.30800603
1442.00 -42.06643018   6.33399872
1444.00 -42.19164195   6.36006137
1446.00 -42.31701428   6.38619407
1448.00 -42.44254712   6.41239691
1450.00 -42.56824042   6.43866995
1452.00 -42.69409414   6.46501330
1454.00 -42.82010821   6.49142704
1456.00 -42.94628258   6.51791125
1458.00 -43.07261721   6.54446601
1460.00 -43.19911203   6.57109141
1462.00 -43.32576701   6.59778754
1464.00 -43.45258208   6.62455448
1466.00 -43.57955719   6.65139231
1468.00 -43.70669230   6.67830112
1470.00 -43.83398734   6.70528099
1472.00 -43.96144227   6.73233201
1474.00 -44.08905703   6.75945426
1476.00 -44.21683157   6.78664783
1478.00 -44.34476584   6.81391279
1480.00 -44.47285979   6.84124924
1482.00 -44.60111335   6.86865725
1484.00 -44.72952649   6.89613692
1486.00 -44.85809914   6.92368832
1488.00 -44.98683125   6.95131154
1490.00 -45.11572277   6.97900667
1492.00 -45.24477365   7.00677378
1494.00 -45.37398383   7.03461296
1496.00 -45.50335326   7.06252430
1498.00 -45.63288189   7.09050788
1500.00 -45.76256966   7.11856377
1502.00 -45.89241652   7.14669208
1504.00 -46.02242242   7.17489287
1506.00 -46.15258730   7.20316623
1508.00 -46.28291111   7.23151225
1510.00 -46.41339379   7.25993101
1512.00 -46.54403530   7.28842260
1514.00 -46.67483557   7.31698708
1516.00 -46.80579456   7.34562456
1518.00 -46.93691221   7.37433511
1520.00 -47.06818846   7.40311882
1522.00 -47.19962327   7.43197576
1524.00 -47.33121657   7.46090603
1526.00 -47.46296831   7.48990970
1528.00 -47.59487845   7.51898685
1530.00 -47.72694692   7.54813758
1532.00 -47.85917367   7.57736196
1534.00 -47.99155865   7.60666008
1536.00 -48.12410180   7.63603201
1538.00 -48.25680307   7.66547785
1540.00 -48.38966240   7.69499767
1542.00 -48.52267975   7.72459156
1544.00 -48.65585504   7.75425959
1546.00 -48.78918823   7.78400186
1548.00 -48.92267927   7.81381844
1550.00 -49.05632810   7.84370942
1552.00 -49.19013466   7.87367488
1554.00 -49.32409890   7.90371489
1556.00 -49.45822077   7.93382955
1558.00 -49.59250021   7.96401894
1560.00 -49.72693716   7.99428313
1562.00 -49.86153157   8.02462222
1564.00 -49.99628339   8.05503627
1566.00 -50.13119255   8.08552538
1568.00 -50.26625901   8.11608963
1570.00 -50.40148271   8.14672909
1572.00 -50.53686359   8.17744385
1574.00 -50.67240160   8.20823399
1576.00 -50.80809668   8.23909960
1578.00 -50.94394878   8.27004075
1580.00 -51.07995784   8.30105752
1582.00 -51.21612380   8.33215000
1584.00 -51.35244661   8.36331828
1586.00 -51.48892622   8.39456242
1588.00 -51.62556256   8.42588251
1590.00 -51.76235559   8.45727864
1592.00 -51.89930524   8.48875089
1594.00 -52.03641146   8.52029932
1596.00 -52.17367420   8.55192404
1598.00 -52.31109339   8.58362512
1600.00 -52.44866899   8.61540263
1602.00 -52.58640093   8.64725667
1604.00 -52.72428916   8.67918730
1606.00 -52.86233362   8.71119462
1608.00 -53.00053425   8.74327870
1610.00 -53.13889101   8.77543963
1612.00 -53.27740383   8.80767748
1614.00 -53.41607266   8.83999234
1616.00 -53.55489744   8.87238429
1618.00 -53.69387811   8.90485340
1620.00 -53.83301462   8.93739976
1622.00 -53.97230691   8.97002345
1624.00 -54.11175492   9.00272454
1626.00 -54.25135859   9.03550313
1628.00 -54.39111788   9.06835929
1630.00 -54.53103272   9.10129309
1632.00 -54.67110305   9.13430463
1634.00 -54.81132882   9.16739398
1636.00 -54.95170998   9.20056122
1638.00 -55.09224645   9.23380642
1640.00 -55.23293820   9.26712969
1642.00 -55.37378515   9.30053108
1644.00 -55.51478726   9.33401068
1646.00 -55.65594445   9.36756857
1648.00 -55.79725669   9.40120484
1650.00 -55.93872391   9.43491955
1652.00 -56.08034604   9.46871280
1654.00 -56.22212304   9.50258465
1656.00 -56.36405485   9.53653520
1658.00 -56.50614141   9.57056451
1660.00 -56.64838266   9.60467268
1662.00 -56.79077854   9.63885977
1664.00 -56.93332900   9.67312587
1666.00 -57.07603397   9.70747105
1668.00 -57.21889340   9.74189541
1670.00 -57.36190724   9.77639901
1672.00 -57.50507542   9.81098193
1674.00 -57.64839788   9.84564426
1676.00 -57.79187457   9.88038608
1678.00 -57.93550543   9.91520745
1680.00 -58.07929040   9.95010847
1682.00 -58.22322942   9.98508921
1684.00 -58.36732244  10.02014975
1686.00 -58.51156939  10.05529016
1688.00 -58.65597022  10.09051054
1690.00 -58.80052486  10.12581095
1692.00 -58.94523326  10.16119147
1694.00 -59.09009537  10.19665219
1696.00 -59.23511112  10.23219318
1698.00 -59.38028045  10.26781452
1700.00 -59.52560330  10.30351629
1702.00 -59.67107962  10.33929857
1704.00 -59.81670935  10.37516143
1706.00 -59.96249243  10.41110496
1708.00 -60.10842879  10.44712923
1710.00 -60.25451838  10.48323432
1712.00 -60.40076115  10.51942031
1714.00 -60.54715702  10.55568728
1716.00 -60.69370595  10.59203530
1718.00 -60.84040787  10.62846446
1720.00 -60.98726272  10.66497482
1722.00 -61.13427045  10.70156648
1724.00 -61.28143099  10.73823950
1726.00 -61.42874429  10.77499397
1728.00 -61.57621028  10.81182996
1730.00 -61.72382891  10.84874755
1732.00 -61.87160012  10.88574682
1734.00 -62.01952384  10.92282784
1736.00 -62.16760002  10.95999070
1738.00 -62.31582859  10.99723546
1740.00 -62.46420951  11.03456222
1742.00 -62.61274270  11.07197104
1744.00 -62.76142811  11.10946200
1746.00 -62.91026567  11.14703518
1748.00 -63.05925534  11.18469066
1750.00 -63.20839704  11.22242852
1752.00 -63.35769072  11.26024882
1754.00 -63.50713631  11.29815166
1756.00 -63.65673376  11.33613710
1758.00 -63.80648301  11.37420522
1760.00 -63.95638400  11.41235610
1762.00 -64.10643666  11.45058981
1764.00 -64.25664093  11.48890644
1766.00 -64.40699676  11.52730606
1768.00 -64.55750409  11.56578875
1770.00 -64.70816285  11.60435458
1772.00 -64.85897298  11.64300362
1774.00 -65.00993442  11.68173597
1776.00 -65.16104712  11.72055168
1778.00 -65.31231101  11.75945084
1780.00 -65.46372602  11.79843353
1782.00 -65.61529211  11.83749982
1784.00 -65.76700921  11.87664979
1786.00 -65.91887725  11.91588351
1788.00 -66.07089618  11.95520107
1790.00 -66.22306593  11.99460252
1792.00 -66.37538645  12.03408796
1794.00 -66.52785767  12.07365746
1796.00 -66.68047953  12.11331109
1798.00 -66.83325197  12.15304893
1800.00 -66.98617494  12.19287106
1802.00 -67.13924835  12.23277755
1804.00 -67.29247217  12.27276847
1806.00 -67.44584632  12.31284391
1808.00 -67.59937075  12.35300393
1810.00 -67.75304538  12.39324862
1812.00 -67.90687017  12.43357805
1814.00 -68.06084504  12.47399229
1816.00 -68.21496994  12.51449142
1818.00 -68.36924481  12.55507552
1820.00 -68.52366958  12.59574465
1822.00 -68.67824419  12.63649890
1824.00 -68.83296858  12.67733835
1826.00 -68.98784269  12.71826305
1828.00 -69.14286646  12.75927310
1830.00 -69.29803981  12.80036857
1832.00 -69.45336270  12.84154952
1834.00 -69.60883506  12.88281604
1836.00 -69.76445683  12.92416820
1838.00 -69.92022794  12.96560608
1840.00 -70.07614833  13.00712974
1842.00 -70.23221795  13.04873927
1844.00 -70.38843672  13.09043474
1846.00 -70.54480459  13.13221622
1848.00 -70.70132149  13.17408379
1850.00 -70.85798736  13.21603752
1852.00 -71.01480214  13.25807749
1854.00 -71.17176576  13.30020377
1856.00 -71.32887817  13.34241643
1858.00 -71.48613929  13.38471555
1860.00 -71.64354908  13.42710121
1862.00 -71.80110746  13.46957347
1864.00 -71.95881437  13.51213241
1866.00 -72.11666975  13.55477811
1868.00 -72.27467353  13.59751064
1870.00 -72.43282566  13.64033007
1872.00 -72.59112607  13.68323648
1874.00 -72.74957469  13.72622994
1876.00 -72.90817147  13.76931052
1878.00 -73.06691634  13.81247830
1880.00 -73.22580924  13.85573335
1882.00 -73.38485010  13.89907575
1884.00 -73.54403886  13.94250556
1886.00 -73.70337546  13.98602287
1888.00 -73.86285983  14.02962774
1890.00 -74.02249192  14.07332025
1892.00 -74.18227165  14.11710047
1894.00 -74.34219896  14.16096848
1896.00 -74.50227379  14.20492434
1898.00 -74.66249608  14.24896814
1900.00 -74.82286577  14.29309993
1902.00 -74.98338278  14.33731981
1904.00 -75.14404706  14.38162783
1906.00 -75.30485854  14.42602408
1908.00 -75.46581715  14.47050862
1910.00 -75.62692284  14.51508153
1912.00 -75.78817554  14.55974288
1914.00 -75.94957519  14.60449274
1916.00 -76.11112171  14.64933119
1918.00 -76.27281506  14.69425830
1920.00 -76.43465516  14.73927413
1922.00 -76.59664195  14.78437877
1924.00 -76.75877536  14.82957229
1926.00 -76.92105533  14.87485475
1928.00 -77.08348180  14.92022623
1930.00 -77.24605471  14.96568680
1932.00 -77.40877398  15.01123654
1934.00 -77.57163955  15.05687551
1936.00 -77.73465136  15.10260379
1938.00 -77.89780935  15.14842145
1940.00 -78.06111345  15.19432857
1942.00 -78.22456359  15.24032520
1944.00 -78.38815971  15.28641143
1946.00 -78.55190175  15.33258733
1948.00 -78.71578964  15.37885296
1950.00 -78.87982332  15.42520840
1952.00 -79.04400272  15.47165373
1954.00 -79.20832778  15.51818901
1956.00 -79.37279842  15.56481431
1958.00 -79.53741460  15.61152971
1960.00 -79.70217623  15.65833527
1962.00 -79.86708326  15.70523107
1964.00 -80.03213563  15.75221718
1966.00 -80.19733326  15.79929368
1968.00 -80.36267609  15.84646062
1970.00 -80.52816406  15.89371808
1972.00 -80.69379710  15.94106614
1974.00 -80.85957514  15.98850486
1976.00 -81.02549813  16.03603432
1978.00 -81.19156599  16.08365458
1980.00 -81.35777866  16.13136572
1982.00 -81.52413607  16.17916780
1984.00 -81.69063816  16.22706090
1986.00 -81.85728487  16.27504509
1988.00 -82.02407612  16.32312044
1990.00 -82.19101185  16.37128702
1992.00 -82.35809200  16.41954489
1994.00 -82.52531650  16.46789414
1996.00 -82.69268528  16.51633482
1998.00 -82.86019829  16.56486701
2000.00 -83.02785544  16.61349079
2002.00 -83.19565668  16.66220621
2004.00 -83.36360194  16.71101335
2006.00 -83.53169116  16.75991229
2008.00 -83.69992427  16.80890308
2010.00 -83.86830120  16.85798580
2012.00 -84.03682188  16.90716052
2014.00 -84.20548626  16.95642731
2016.00 -84.37429426  17.00578624
2018.00 -84.54324582  17.05523737
2020.00 -84.71234087  17.10478079
2022.00 -84.88157934  17.15441655
2024.00 -85.05096117  17.20414472
2026.00 -85.22048630  17.25396539
2028.00 -85.39015465  17.30387861
2030.00 -85.55996617  17.35388445
2032.00 -85.72992077  17.40398298
2034.00 -85.90001840  17.45417428
2036.00 -86.07025900  17.50445841
2038.00 -86.24064248  17.55483544
2040.00 -86.41116879  17.60530544
2042.00 -86.58183786  17.65586848
2044.00 -86.75264963  17.70652462
2046.00 -86.92360402  17.75727394
2048.00 -87.09470097  17.80811651
2050.00 -87.26594041  17.85905238
2052.00 -87.43732228  17.91008164
2054.00 -87.60884651  17.96120435
2056.00 -87.78051303  18.01242058
2058.00 -87.95232177  18.06373040
2060.00 -88.12427267  18.11513387
2062.00 -88.29636566  18.16663106
2064.00 -88.46860067  18.21822205
2066.00 -88.64097764  18.26990690
2068.00 -88.81349650  18.32168567
2070.00 -88.98615717  18.37355845
2072.00 -89.15895961  18.42552528
2074.00 -89.33190372  18.47758625
2076.00 -89.50498946  18.52974142
2078.00 -89.67821675  18.58199085
2080.00 -89.85158552  18.63433462
2082.00 -90.02509571  18.68677280
2084.00 -90.19874725  18.73930544
2086.00 -90.37254007  18.79193263
2088.00 -90.54647410  18.84465442
2090.00 -90.72054928  18.89747088
2092.00 -90.89476554  18.95038208
2094.00 -91.06912280  19.00338809
2096.00 -91.24362101  19.05648898
2098.00 -91.41826009  19.10968481
2100.00 -91.59303998  19.16297565
2102.00 -91.76796061  19.21636156
2104.00 -91.94302191  19.26984262
2106.00 -92.11822382  19.32341889
2108.00 -92.29356625  19.37709044
2110.00 -92.46904916  19.43085733
2112.00 -92.64467246  19.48471964
2114.00 -92.82043609  19.53867742
2116.00 -92.99633998  19.59273074
2118.00 -93.17238407  19.64687968
2120.00 -93.34856828  19.70112430
2122.00 -93.52489255  19.75546465
2124.00 -93.70135681  19.80990082
2126.00 -93.87796099  19.86443287
2128.00 -94.05470502  19.91906086
2130.00 -94.23158884  19.97378486
2132.00 -94.40861237  20.02860494
2134.00 -94.58577554  20.08352116
2136.00 -94.76307829  20.13853358
2138.00 -94.94052056  20.19364228
2140.00 -95.11810226  20.24884732
2142.00 -95.29582333  20.30414876
2144.00 -95.47368371  20.35954668
2146.00 -95.65168332  20.41504114
2148.00 -95.82982209  20.47063219
2150.00 -96.00809997  20.52631992
2152.00 -96.18651686  20.58210438
2154.00 -96.36507272  20.63798564
2156.00 -96.54376747  20.69396376
2158.00 -96.72260104  20.75003882
2160.00 -96.90157336  20.80621087
2162.00 -97.08068436  20.86247999
2164.00 -97.25993397  20.91884623
2166.00 -97.43932213  20.97530966
2168.00 -97.61884876  21.03187035
2170.00 -97.79851380  21.08852836
2172.00 -97.97831717  21.14528375
2174.00 -98.15825882  21.20213660
2176.00 -98.33833865  21.25908697
2178.00 -98.51855662  21.31613491
2180.00 -98.69891265  21.37328051
2182.00 -98.87940666  21.43052381
2184.00 -99.06003860  21.48786489
2186.00 -99.24080838  21.54530381
2188.00 -99.42171595  21.60284063
2190.00 -99.60276122  21.66047542
2192.00 -99.78394414  21.71820825
2194.00 -99.96526463  21.77603917
2196.00 -100.14672262  21.83396825
2198.00 -100.32831805  21.89199556
2200.00 -100.51005083  21.95012116
2202.00 -100.69192091  22.00834512
2204.00 -100.87392821  22.06666749
2206.00 -101.05607266  22.12508834
2208.00 -101.23835420  22.18360774
2210.00 -101.42077275  22.24222575
2212.00 -101.60332824  22.30094244
2214.00 -101.78602061  22.35975786
2216.00 -101.96884977  22.41867208
2218.00 -102.15181567  22.47768516
2220.00 -102.33491823  22.53679718
2222.00 -102.51815739  22.59600818
2224.00 -102.70153307  22.65531824
2226.00 -102.88504519  22.71472742
2228.00 -103.06869370  22.77423578
2230.00 -103.25247852  22.83384338
2232.00 -103.43639958  22.89355030
2234.00 -103.62045682  22.95335658
2236.00 -103.80465015  23.01326229
2238.00 -103.98897951  23.07326751
2240.00 -104.17344483  23.13337228
2242.00 -104.35804603  23.19357668
2244.00 -104.54278306  23.25388076
2246.00 -104.72765583  23.31428459
2248.00 -104.91266428  23.37478822
2250.00 -105.09780833  23.43539174
2252.00 -105.28308792  23.49609519
2254.00 -105.46850298  23.55689863
2256.00 -105.65405343  23.61780214
2258.00 -105.83973920  23.67880577
2260.00 -106.02556022  23.73990958
2262.00 -106.21151642  23.80111365
2264.00 -106.39760773  23.86241802
2266.00 -106.58383409  23.92382276
2268.00 -106.77019541  23.98532794
2270.00 -106.95669162  24.04693362
2272.00 -107.14332267  24.10863985
2274.00 -107.33008846  24.17044670
2276.00 -107.51698894  24.23235423
2278.00 -107.70402404  24.29436251
2280.00 -107.89119367  24.35647159
2282.00 -108.07849778  24.41868154
2284.00 -108.26593628  24.48099241
2286.00 -108.45350912  24.54340428
2288.00 -108.64121620  24.60591719
2290.00 -108.82905748  24.66853122
2292.00 -109.01703286  24.73124642
2294.00 -109.20514229  24.79406285
2296.00 -109.39338569  24.85698059
2298.00 -109.58176299  24.91999967
2300.00 -109.77027412  24.98312018
2302.00 -109.95891900  25.04634217
2304.00 -110.14769757  25.10966569
2306.00 -110.33660974  25.17309082
2308.00 -110.52565546  25.23661761
2310.00 -110.71483465  25.30024612
2312.00 -110.90414724  25.36397641
2314.00 -111.09359315  25.42780855
2316.00 -111.28317232  25.49174259
2318.00 -111.47288467  25.55577859
2320.00 -111.66273013  25.61991662
2322.00 -111.85270863  25.68415674
2324.00 -112.04282009  25.74849900
2326.00 -112.23306445  25.81294347
2328.00 -112.42344164  25.87749021
2330.00 -112.61395157  25.94213927
2332.00 -112.80459418  26.00689071
2334.00 -112.99536940  26.07174461
2336.00 -113.18627715  26.13670101
2338.00 -113.37731737  26.20175997
2340.00 -113.56848997  26.26692157
2342.00 -113.75979490  26.33218584
2344.00 -113.95123206  26.39755287
2346.00 -114.14280141  26.46302270
2348.00 -114.33450285  26.52859539
2350.00 -114.52633632  26.59427101
2352.00 -114.71830175  26.66004961
2354.00 -114.91039906  26.72593125
2356.00 -115.10262818  26.79191600
2358.00 -115.29498905  26.85800391
2360.00 -115.48748157  26.92419503
2362.00 -115.68010570  26.99048944
2364.00 -115.87286134  27.05688719
2366.00 -116.06574843  27.12338833
2368.00 -116.25876690  27.18999293
2370.00 -116.45191668  27.25670105
2372.00 -116.64519768  27.32351274
2374.00 -116.83860984  27.39042807
2376.00 -117.03215309  27.45744708
2378.00 -117.22582735  27.52456985
2380.00 -117.41963255  27.59179643
2382.00 -117.61356862  27.65912687
2384.00 -117.80763548  27.72656124
2386.00 -118.00183306  27.79409959
2388.00 -118.19616129  27.86174199
2390.00 -118.39062010  27.92948849
2392.00 -118.58520941  27.99733915
2394.00 -118.77992915  28.06529402
2396.00 -118.97477924  28.13335317
2398.00 -119.16975962  28.20151665
2400.00 -119.36487021  28.26978453
2402.00 -119.56011093  28.33815685
2404.00 -119.75548172  28.40663368
2406.00 -119.95098250  28.47521507
2408.00 -120.14661320  28.54390109
2410.00 -120.34237374  28.61269179
2412.00 -120.53826405  28.68158722
2414.00 -120.73428406  28.75058745
2416.00 -120.93043369  28.81969253
2418.00 -121.12671288  28.88890252
2420.00 -121.32312154  28.95821748
2422.00 -121.51965960  29.02763746
2424.00 -121.71632700  29.09716253
2426.00 -121.91312366  29.16679273
2428.00 -122.11004949  29.23652813
2430.00 -122.30710444  29.30636878
2432.00 -122.50428842  29.37631474
2434.00 -122.70160137  29.44636607
2436.00 -122.89904321  29.51652282
2438.00 -123.09661386  29.58678505
2440.00 -123.29431325  29.65715281
2442.00 -123.49214131  29.72762617
2444.00 -123.69009797  29.79820518
2446.00 -123.88818315  29.86888990
2448.00 -124.08639677  29.93968038
2450.00 -124.28473877  30.01057668
2452.00 -124.48320906  30.08157885
2454.00 -124.68180758  30.15268696
2456.00 -124.88053425  30.22390105
2458.00 -125.07938900  30.29522119
2460.00 -125.27837175  30.36664742
2462.00 -125.47748244  30.43817982
2464.00 -125.67672097  30.50981842
2466.00 -125.87608729  30.58156329
2468.00 -126.07558132  30.65341449
2470.00 -126.27520298  30.72537206
2472.00 -126.47495219  30.79743607
2474.00 -126.67482890  30.86960657
2476.00 -126.87483301  30.94188362
2478.00 -127.07496446  31.01426727
2480.00 -127.27522317  31.08675757
2482.00 -127.47560907  31.15935459
2484.00 -127.67612208  31.23205837
2486.00 -127.87676214  31.30486898
2488.00 -128.07752915  31.37778647
2490.00 -128.27842306  31.45081088
2492.00 -128.47944378  31.52394229
2494.00 -128.68059125  31.59718074
2496.00 -128.88186538  31.67052629
2498.00 -129.08326610  31.74397899
2500.00 -129.28479335  31.81753889
2502.00 -129.48644703  31.89120606
2504.00 -129.68822709  31.96498055
2506.00 -129.89013344  32.03886241
2508.00 -130.09216601  32.11285169
2510.00 -130.29432472  32.18694846
2512.00 -130.49660950  32.26115276
2514.00 -130.69902028  32.33546465
2516.00 -130.90155698  32.40988418
2518.00 -131.10421953  32.48441141
2520.00 -131.30700785  32.55904639
2522.00 -131.50992187  32.63378918
2524.00 -131.71296150  32.70863982
2526.00 -131.91612669  32.78359839
2528.00 -132.11941734  32.85866492
2530.00 -132.32283339  32.93383947
2532.00 -132.52637477  33.00912209
2534.00 -132.73004139  33.08451285
2536.00 -132.93383319  33.16001179
2538.00 -133.13775008  33.23561896
2540.00 -133.34179199  33.31133442
2542.00 -133.54595885  33.38715823
2544.00 -133.75025058  33.46309044
2546.00 -133.95466711  33.53913109
2548.00 -134.15920836  33.61528025
2550.00 -134.36387426  33.69153796
2552.00 -134.56866473  33.76790428
2554.00 -134.77357969  33.84437927
2556.00 -134.97861908  33.92096297
2558.00 -135.18378281  33.99765544
2560.00 -135.38907081  34.07445673
2562.00 -135.59448300  34.15136690
2564.00 -135.80001932  34.22838599
2566.00 -136.00567968  34.30551406
2568.00 -136.21146401  34.38275117
2570.00 -136.41737223  34.46009736
2572.00 -136.62340427  34.53755268
2574.00 -136.82956005  34.61511720
2576.00 -137.03583950  34.69279096
2578.00 -137.24224254  34.77057401
2580.00 -137.44876910  34.84846641
2582.00 -137.65541910  34.92646821
2584.00 -137.86219246  35.00457946
2586.00 -138.06908911  35.08280021
2588.00 -138.27610897  35.16113052
2590.00 -138.48325197  35.23957043
2592.00 -138.69051804  35.31812000
2594.00 -138.89790709  35.39677928
2596.00 -139.10541905  35.47554833
2598.00 -139.31305385  35.55442719
2600.00 -139.52081140  35.63341591
2602.00 -139.72869164  35.71251456
2604.00 -139.93669449  35.79172317
2606.00 -140.14481986  35.87104180
2608.00 -140.35306770  35.95047050
2610.00 -140.56143791  36.03000932
2612.00 -140.76993043  36.10965832
2614.00 -140.97854517  36.18941754
2616.00 -141.18728207  36.26928704
2618.00 -141.39614104  36.34926687
2620.00 -141.60512202  36.42935707
2622.00 -141.81422492  36.50955770
2624.00 -142.02344966  36.58986882
2626.00 -142.23279618  36.67029046
2628.00 -142.44226439  36.75082268
2630.00 -142.65185422  36.83146554
2632.00 -142.86156560  36.91221908
2634.00 -143.07139844  36.99308335
2636.00 -143.28135268  37.07405840
2638.00 -143.49142823  37.15514429
2640.00 -143.70162502  37.23634106
2642.00 -143.91194297  37.31764877
2644.00 -144.12238200  37.39906746
2646.00 -144.33294205  37.48059719
2648.00 -144.54362303  37.56223800
2650.00 -144.75442487  37.64398995
2652.00 -144.96534748  37.72585308
2654.00 -145.17639081  37.80782744
2656.00 -145.38755476  37.88991309
2658.00 -145.59883926  37.97211007
2660.00 -145.81024423  38.05441844
2662.00 -146.02176961  38.13683824
2664.00 -146.23341530  38.21936952
2666.00 -146.44518125  38.30201234
2668.00 -146.65706736  38.38476674
2670.00 -146.86907356  38.46763277
2672.00 -147.08119978  38.55061048
2674.00 -147.29344594  38.63369992
2676.00 -147.50581196  38.71690114
2678.00 -147.71829777  38.80021418
2680.00 -147.93090328  38.88363911
2682.00 -148.14362843  38.96717596
2684.00 -148.35647314  39.05082478
2686.00 -148.56943732  39.13458563
2688.00 -148.78252090  39.21845855
2690.00 -148.99572381  39.30244359
2692.00 -149.20904597  39.38654080
2694.00 -149.42248731  39.47075024
2696.00 -149.63604773  39.55507193
2698.00 -149.84972718  39.63950595
2700.00 -150.06352556  39.72405233
2702.00 -150.27744281  39.80871112
2704.00 -150.49147885  39.89348237
2706.00 -150.70563360  39.97836613
2708.00 -150.91990698  40.06336244
2710.00 -151.13429892  40.14847137
2712.00 -151.34880934  40.23369294
2714.00 -151.56343816  40.31902722
2716.00 -151.77818530  40.40447424
2718.00 -151.99305070  40.49003406
2720.00 -152.20803426  40.57570673
2722.00 -152.42313592  40.66149229
2724.00 -152.63835560  40.74739079
2726.00 -152.85369321  40.83340227
2728.00 -153.06914869  40.91952679
2730.00 -153.28472196  41.00576439
2732.00 -153.50041293  41.09211513
2734.00 -153.71622154  41.17857904
2736.00 -153.93214769  41.26515617
2738.00 -154.14819133  41.35184658
2740.00 -154.36435236  41.43865030
2742.00 -154.58063072  41.52556739
2744.00 -154.79702632  41.61259789
2746.00 -155.01353909  41.69974185
2748.00 -155.23016895  41.78699932
2750.00 -155.44691582  41.87437034
2752.00 -155.66377962  41.96185497
2754.00 -155.88076029  42.04945323
2756.00 -156.09785773  42.13716520
2758.00 -156.31507188  42.22499090
2760.00 -156.53240265  42.31293039
2762.00 -156.74984998  42.40098371
2764.00 -156.96741377  42.48915091
2766.00 -157.18509395  42.57743203
2768.00 -157.40289045  42.66582713
2770.00 -157.62080319  42.75433624
2772.00 -157.83883209  42.84295942
2774.00 -158.05697707  42.93169671
2776.00 -158.27523805  43.02054815
2778.00 -158.49361497  43.10951380
2780.00 -158.71210773  43.19859369
2782.00 -158.93071626  43.28778787
2784.00 -159.14944049  43.37709640
2786.00 -159.36828034  43.46651931
2788.00 -159.58723572  43.55605665
2790.00 -159.80630657  43.64570847
2792.00 -160.02549280  43.73547480
2794.00 -160.24479433  43.82535571
2796.00 -160.46421110  43.91535122
2798.00 -160.68374301  44.00546140
2800.00 -160.90338999  44.09568627
2802.00 -161.12315197  44.18602589
2804.00 -161.34302887  44.27648031
2806.00 -161.56302060  44.36704956
2808.00 -161.78312710  44.45773370
2810.00 -162.00334828  44.54853276
2812.00 -162.22368406  44.63944680
2814.00 -162.44413437  44.73047585
2816.00 -162.66469913  44.82161996
2818.00 -162.88537826  44.91287918
2820.00 -163.10617168  45.00425356
2822.00 -163.32707932  45.09574312
2824.00 -163.54810109  45.18734793
2826.00 -163.76923693  45.27906802
2828.00 -163.99048674  45.37090344
2830.00 -164.21185046  45.46285423
2832.00 -164.43332800  45.55492044
2834.00 -164.65491929  45.64710211
2836.00 -164.87662425  45.73939928
2838.00 -165.09844279  45.83181200
2840.00 -165.32037485  45.92434032
2842.00 -165.54242034  46.01698427
2844.00 -165.76457919  46.10974391
2846.00 -165.98685132  46.20261926
2848.00 -166.20923664  46.29561039
2850.00 -166.43173508  46.38871733
2852.00 -166.65434657  46.48194012
2854.00 -166.87707103  46.57527881
2856.00 -167.09990836  46.66873344
2858.00 -167.32285851  46.76230406
2860.00 -167.54592139  46.85599071
2862.00 -167.76909691  46.94979342
2864.00 -167.99238501  47.04371226
2866.00 -168.21578561  47.13774725
2868.00 -168.43929862  47.23189844
2870.00 -168.66292396  47.32616587
2872.00 -168.88666157  47.42054959
2874.00 -169.11051136  47.51504965
2876.00 -169.33447325  47.60966607
2878.00 -169.55854716  47.70439891
2880.00 -169.78273302  47.79924820
2882.00 -170.00703074  47.89421400
2884.00 -170.23144026  47.98929634
2886.00 -170.45596148  48.08449527
2888.00 -170.68059434  48.17981082
2890.00 -170.90533874  48.27524304
2892.00 -171.13019463  48.37079197
2894.00 -171.35516190  48.46645766
2896.00 -171.58024050  48.56224015
2898.00 -171.80543033  48.65813947
2900.00 -172.03073132  48.75415568
2902.00 -172.25614340  48.85028880
2904.00 -172.48166647  48.94653889
2906.00 -172.70730047  49.04290599
2908.00 -172.93304532  49.13939013
2910.00 -173.15890093  49.23599137
2912.00 -173.38486723  49.33270973
2914.00 -173.61094413  49.42954527
2916.00 -173.83713157  49.52649802
2918.00 -174.06342946  49.62356803
2920.00 -174.28983772  49.72075533
2922.00 -174.51635628  49.81805997
2924.00 -174.74298505  49.91548199
2926.00 -174.96972396  50.01302144
2928.00 -175.19657292  50.11067834
2930.00 -175.42353187  50.20845275
2932.00 -175.65060071  50.30634470
2934.00 -175.87777937  50.40435423
2936.00 -176.10506778  50.50248139
2938.00 -176.33246585  50.60072621
2940.00 -176.55997350  50.69908875
2942.00 -176.78759066  50.79756903
2944.00 -177.01531725  50.89616709
2946.00 -177.24315318  50.99488299
2948.00 -177.47109838  51.09371676
2950.00 -177.69915277  51.19266843
2952.00 -177.92731627  51.29173805
2954.00 -178.15558881  51.39092567
2956.00 -178.38397029  51.49023131
2958.00 -178.61246065  51.58965503
2960.00 -178.84105981  51.68919685
2962.00 -179.06976768  51.78885683
2964.00 -179.29858418  51.88863499
2966.00 -179.52750925  51.98853139
2968.00 -179.75654279  52.08854606
2970.00 -179.98568473  52.18867903
2972.00 -180.21493499  52.28893036
2974.00 -180.44429349  52.38930007
2976.00 -180.67376015  52.48978822
2978.00 -180.90333490  52.59039483
2980.00 -181.13301765  52.69111995
2982.00 -181.36280833  52.79196361
2984.00 -181.59270685  52.89292586
2986.00 -181.82271313  52.99400674
2988.00 -182.05282710  53.09520628
2990.00 -182.28304868  53.19652453
2992.00 -182.51337779  53.29796152
2994.00 -182.74381435  53.39951729
2996.00 -182.97435828  53.50119188
2998.00 -183.20500950  53.60298533
3000.00 -183.43576793  53.70489768
3002.00 -183.66663349  53.80692896
3004.00 -183.89760610  53.90907922
3006.00 -184.12868569  54.01134850
3008.00 -184.35987217  54.11373683
3010.00 -184.59116547  54.21624425
3012.00 -184.82256550  54.31887080
3014.00 -185.05407219  54.42161652
3016.00 -185.28568546  54.52448144
3018.00 -185.51740522  54.62746561
3020.00 -185.74923140  54.73056906
3022.00 -185.98116392  54.83379183
3024.00 -186.21320270  54.93713396
3026.00 -186.44534766  55.04059549
3028.00 -186.67759872  55.14417645
3030.00 -186.90995580  55.24787689
3032.00 -187.14241882  55.35169684
3034.00 -187.37498771  55.45563633
3036.00 -187.60766238  55.55969541
3038.00 -187.84044275  55.66387411
3040.00 -188.07332874  55.76817247
3042.00 -188.30632028  55.87259054
3044.00 -188.53941728  55.97712833
3046.00 -188.77261967  56.08178590
3048.00 -189.00592736  56.18656328
3050.00 -189.23934028  56.29146051
3052.00 -189.47285835  56.39647762
3054.00 -189.70648148  56.50161466
3056.00 -189.94020960  56.60687165
3058.00 -190.17404263  56.71224864
3060.00 -190.40798049  56.81774566
3062.00 -190.64202310  56.92336274
3064.00 -190.87617037  57.02909994
3066.00 -191.11042224  57.13495728
3068.00 -191.34477861  57.24093479
3070.00 -191.57923942  57.34703253
3072.00 -191.81380457  57.45325051
3074.00 -192.04847400  57.55958879
3076.00 -192.28324762  57.66604739
3078.00 -192.51812534  57.77262635
3080.00 -192.75310711  57.87932571
3082.00 -192.98819282  57.98614550
3084.00 -193.22338241  58.09308576
3086.00 -193.45867578  58.20014653
3088.00 -193.69407288  58.30732784
3090.00 -193.92957360  58.41462973
3092.00 -194.16517788  58.52205223
3094.00 -194.40088563  58.62959538
3096.00 -194.63669678  58.73725922
3098.00 -194.87261124  58.84504377
3100.00 -195.10862894  58.95294909
3102.00 -195.34474979  59.06097520
3104.00 -195.58097372  59.16912213
3106.00 -195.81730064  59.27738993
3108.00 -196.05373048  59.38577862
3110.00 -196.29026315  59.49428825
3112.00 -196.52689858  59.60291885
3114.00 -196.76363669  59.71167045
3116.00 -197.00047739  59.82054310
3118.00 -197.23742061  59.92953681
3120.00 -197.47446626  60.03865164
3122.00 -197.71161428  60.14788761
3124.00 -197.94886456  60.25724475
3126.00 -198.18621705  60.36672312
3128.00 -198.42367165  60.47632273
3130.00 -198.66122829  60.58604362
3132.00 -198.89888689  60.69588583
3134.00 -199.13664737  60.80584939
3136.00 -199.37450964  60.91593434
3138.00 -199.61247363  61.02614071
3140.00 -199.85053926  61.13646854
3142.00 -200.08870644  61.24691786
3144.00 -200.32697511  61.35748870
3146.00 -200.56534517  61.46818110
3148.00 -200.80381655  61.57899509
3150.00 -201.04238916  61.68993070
3152.00 -201.28106294  61.80098798
3154.00 -201.51983779  61.91216695
3156.00 -201.75871365  62.02346765
3158.00 -201.99769042  62.13489011
3160.00 -202.23676802  62.24643437
3162.00 -202.47594639  62.35810045
3164.00 -202.71522543  62.46988840
3166.00 -202.95460508  62.58179824
3168.00 -203.19408524  62.69383001
3170.00 -203.43366584  62.80598375
3172.00 -203.67334679  62.91825948
3174.00 -203.91312803  63.03065724
3176.00 -204.15300946  63.14317707
3178.00 -204.39299101  63.25581899
3180.00 -204.63307260  63.36858304
3182.00 -204.87325415  63.48146925
3184.00 -205.11353557  63.59447766
3186.00 -205.35391679  63.70760829
3188.00 -205.59439773  63.82086118
3190.00 -205.83497831  63.93423637
3192.00 -206.07565844  64.04773389
3194.00 -206.31643806  64.16135376
3196.00 -206.55731707  64.27509602
3198.00 -206.79829539  64.38896071
3200.00 -207.03937295  64.50294785
3202.00 -207.28054967  64.61705749
3204.00 -207.52182547  64.73128964
3206.00 -207.76320026  64.84564435
3208.00 -208.00467397  64.96012164
3210.00 -208.24624652  65.07472155
3212.00 -208.48791782  65.18944411
3214.00 -208.72968780  65.30428935
3216.00 -208.97155638  65.41925731
3218.00 -209.21352347  65.53434801
3220.00 -209.45558899  65.64956148
3222.00 -209.69775287  65.76489777
3224.00 -209.94001503  65.88035690
3226.00 -210.18237538  65.99593889
3228.00 -210.42483385  66.11164380
3230.00 -210.66739035  66.22747164
3232.00 -210.91004480  66.34342244
3234.00 -211.15279713  66.45949625
3236.00 -211.39564725  66.57569308
3238.00 -211.63859509  66.69201297
3240.00 -211.88164056  66.80845596
3242.00 -212.12478359  66.92502207
3244.00 -212.36802408  67.04171133
3246.00 -212.61136198  67.15852378
3248.00 -212.85479718  67.27545944
3250.00 -213.09832961  67.39251835
3252.00 -213.34195920  67.50970054
3254.00 -213.58568586  67.62700604
3256.00 -213.82950951  67.74443488
3258.00 -214.07343008  67.86198709
3260.00 -214.31744747  67.97966269
3262.00 -214.56156162  68.09746173
3264.00 -214.80577243  68.21538423
3266.00 -215.05007984  68.33343022
3268.00 -215.29448376  68.45159973
3270.00 -215.53898410  68.56989280
3272.00 -215.78358080  68.68830945
3274.00 -216.02827377  68.80684971
3276.00 -216.27306292  68.92551361
3278.00 -216.51794818  69.04430119
3280.00 -216.76292948  69.16321247
3282.00 -217.00800672  69.28224748
3284.00 -217.25317983  69.40140625
3286.00 -217.49844872  69.52068882
3288.00 -217.74381332  69.64009520
3290.00 -217.98927355  69.75962544
3292.00 -218.23482933  69.87927956
3294.00 -218.48048057  69.99905759
3296.00 -218.72622720  70.11895956
3298.00 -218.97206914  70.23898550
3300.00 -219.21800630  70.35913544
3302.00 -219.46403860  70.47940940
3304.00 -219.71016597  70.59980743
3306.00 -219.95638833  70.72032953
3308.00 -220.20270559  70.84097576
3310.00 -220.44911767  70.96174613
3312.00 -220.69562450  71.08264067
3314.00 -220.94222598  71.20365941
3316.00 -221.18892206  71.32480238
3318.00 -221.43571263  71.44606962
3320.00 -221.68259763  71.56746114
3322.00 -221.92957696  71.68897698
3324.00 -222.17665056  71.81061716
3326.00 -222.42381834  71.93238172
3328.00 -222.67108022  72.05427068
3330.00 -222.91843612  72.17628407
3332.00 -223.16588597  72.29842192
3334.00 -223.41342967  72.42068426
3336.00 -223.66106715  72.54307111
3338.00 -223.90879832  72.66558251
3340.00 -224.15662312  72.78821848
3342.00 -224.40454146  72.91097905
3344.00 -224.65255325  73.03386424
3346.00 -224.90065842  73.15687410
3348.00 -225.14885688  73.28000863
3350.00 -225.39714857  73.40326788
3352.00 -225.64553339  73.52665187
3354.00 -225.89401126  73.65016062
3356.00 -226.14258211  73.77379416
3358.00 -226.39124586  73.89755253
3360.00 -226.64000242  74.02143575
3362.00 -226.88885172  74.14544384
3364.00 -227.13779366  74.26957684
3366.00 -227.38682819  74.39383477
3368.00 -227.63595520  74.51821766
3370.00 -227.88517463  74.64272553
3372.00 -228.13448639  74.76735841
3374.00 -228.38389040  74.89211634
3376.00 -228.63338659  75.01699933
3378.00 -228.88297486  75.14200741
3380.00 -229.13265515  75.26714062
3382.00 -229.38242737  75.39239897
3384.00 -229.63229143  75.51778250
3386.00 -229.88224727  75.64329122
3388.00 -230.13229480  75.76892517
3390.00 -230.38243393  75.89468438
3392.00 -230.63266459  76.02056887
3394.00 -230.88298670  76.14657866
3396.00 -231.13340018  76.27271378
3398.00 -231.38390495  76.39897427
3400.00 -231.63450092  76.52536014
3402.00 -231.88518802  76.65187142
3404.00 -232.13596617  76.77850814
3406.00 -232.38683528  76.90527032
3408.00 -232.63779527  77.03215799
3410.00 -232.88884608  77.15917118
3412.00 -233.13998760  77.28630991
3414.00 -233.39121977  77.41357420
3416.00 -233.64254251  77.54096409
3418.00 -233.89395572  77.66847959
3420.00 -234.14545934  77.79612074
3422.00 -234.39705329  77.92388756
3424.00 -234.64873747  78.05178008
3426.00 -234.90051182  78.17979831
3428.00 -235.15237624  78.30794230
3430.00 -235.40433067  78.43621205
3432.00 -235.65637502  78.56460760
3434.00 -235.90850921  78.69312897
3436.00 -236.16073316  78.82177618
3438.00 -236.41304679  78.95054927
3440.00 -236.66545002  79.07944826
3442.00 -236.91794277  79.20847316
3444.00 -237.17052495  79.33762402
3446.00 -237.42319650  79.46690084
3448.00 -237.67595732  79.59630366
3450.00 -237.92880733  79.72583251
3452.00 -238.18174647  79.85548739
3454.00 -238.43477464  79.98526835
3456.00 -238.68789177  80.11517540
3458.00 -238.94109777  80.24520857
3460.00 -239.19439257  80.37536789
3462.00 -239.44777608  80.50565337
3464.00 -239.70124823  80.63606504
3466.00 -239.95480893  80.76660293
3468.00 -240.20845810  80.89726706
3470.00 -240.46219567  81.02805745
3472.00 -240.71602155  81.15897414
3474.00 -240.96993567  81.29001713
3476.00 -241.22393794  81.42118646
3478.00 -241.47802828  81.55248215
3480.00 -241.73220661  81.68390423
3482.00 -241.98647285  81.81545271
3484.00 -242.24082692  81.94712762
3486.00 -242.49526874  82.07892899
3488.00 -242.74979824  82.21085683
3490.00 -243.00441532  82.34291118
3492.00 -243.25911991  82.47509206
3494.00 -243.51391194  82.60739948
3496.00 -243.76879131  82.73983347
3498.00 -244.02375795  82.87239406
3500.00 -244.27881178  83.00508126
3502.00 -244.53395271  83.13789511
3504.00 -244.78918067  83.27083562
3506.00 -245.04449559  83.40390282
3508.00 -245.29989736  83.53709673
3510.00 -245.55538593  83.67041738
3512.00 -245.81096120  83.80386478
3514.00 -246.06662309  83.93743895
3516.00 -246.32237154  84.07113993
3518.00 -246.57820644  84.20496773
3520.00 -246.83412774  84.33892238
3522.00 -247.09013533  84.47300390
3524.00 -247.34622915  84.60721231
3526.00 -247.60240912  84.74154764
3528.00 -247.85867515  84.87600990
3530.00 -248.11502716  85.01059911
3532.00 -248.37146508  85.14531531
3534.00 -248.62798882  85.28015852
3536.00 -248.88459830  85.41512874
3538.00 -249.14129344  85.55022602
3540.00 -249.39807417  85.68545036
3542.00 -249.65494040  85.82080179
3544.00 -249.91189205  85.95628034
3546.00 -250.16892904  86.09188602
3548.00 -250.42605129  86.22761885
3550.00 -250.68325873  86.36347887
3552.00 -250.94055126  86.49946608
3554.00 -251.19792882  86.63558052
3556.00 -251.45539131  86.77182219
3558.00 -251.71293867  86.90819113
3560.00 -251.97057080  87.04468736
3562.00 -252.22828763  87.18131089
3564.00 -252.48608909  87.31806175
3566.00 -252.74397508  87.45493996
3568.00 -253.00194553  87.59194554
3570.00 -253.26000036  87.72907851
3572.00 -253.51813949  87.86633889
3574.00 -253.77636283  88.00372670
3576.00 -254.03467031  88.14124197
3578.00 -254.29306186  88.27888472
3580.00 -254.55153737  88.41665496
3582.00 -254.81009679  88.55455271
3584.00 -255.06874002  88.69257800
3586.00 -255.32746699  88.83073085
3588.00 -255.58627762  88.96901128
3590.00 -255.84517183  89.10741931
3592.00 -256.10414953  89.24595495
3594.00 -256.36321064  89.38461823
3596.00 -256.62235510  89.52340918
3598.00 -256.88158280  89.66232780
3600.00 -257.14089369  89.80137412
3602.00 -257.40028767  89.94054816
3604.00 -257.65976467  90.07984995
3606.00 -257.91932460  90.21927949
3608.00 -258.17896738  90.35883681
3610.00 -258.43869295  90.49852193
3612.00 -258.69850120  90.63833487
3614.00 -258.95839208  90.77827565
3616.00 -259.21836548  90.91834429
3618.00 -259.47842135  91.05854081
3620.00 -259.73855958  91.19886523
3622.00 -259.99878012  91.33931756
3624.00 -260.25908286  91.47989783
3626.00 -260.51946774  91.62060606
3628.00 -260.77993468  91.76144227
3630.00 -261.04048359  91.90240646
3632.00 -261.30111439  92.04349868
3634.00 -261.56182701  92.18471892
3636.00 -261.82262136  92.32606722
3638.00 -262.08349737  92.46754359
3640.00 -262.34445495  92.60914806
3642.00 -262.60549403  92.75088063
3644.00 -262.86661452  92.89274133
3646.00 -263.12781634  93.03473017
3648.00 -263.38909942  93.17684719
3650.00 -263.65046367  93.31909238
3652.00 -263.91190901  93.46146579
3654.00 -264.17343537  93.60396741
3656.00 -264.43504267  93.74659727
3658.00 -264.69673082  93.88935539
3660.00 -264.95849974  94.03224179
3662.00 -265.22034935  94.17525649
3664.00 -265.48227959  94.31839949
3666.00 -265.74429035  94.46167083
3668.00 -266.00638157  94.60507052
3670.00 -266.26855316  94.74859858
3672.00 -266.53080505  94.89225503
3674.00 -266.79313716  95.03603988
3676.00 -267.05554939  95.17995315
3678.00 -267.31804169  95.32399486
3680.00 -267.58061395  95.46816503
3682.00 -267.84326612  95.61246367
3684.00 -268.10599809  95.75689081
3686.00 -268.36880981  95.90144646
3688.00 -268.63170118  96.04613064
3690.00 -268.89467212  96.19094336
3692.00 -269.15772256  96.33588465
3694.00 -269.42085241  96.48095451
3696.00 -269.68406160  96.62615298
3698.00 -269.94735005  96.77148006
3700.00 -270.21071767  96.91693577
3702.00 -270.47416439  97.06252014
3704.00 -270.73769013  97.20823317
3706.00 -271.00129480  97.35407488
3708.00 -271.26497833  97.50004530
3710.00 -271.52874064  97.64614443
3712.00 -271.79258164  97.79237230
3714.00 -272.05650127  97.93872892
3716.00 -272.32049943  98.08521431
3718.00 -272.58457605  98.23182848
3720.00 -272.84873104  98.37857145
3722.00 -273.11296434  98.52544324
3724.00 -273.37727585  98.67244387
3726.00 -273.64166551  98.81957335
3728.00 -273.90613322  98.96683170
3730.00 -274.17067891  99.11421892
3732.00 -274.43530250  99.26173505
3734.00 -274.70000392  99.40938010
3736.00 -274.96478307  99.55715408
3738.00 -275.22963988  99.70505701
3740.00 -275.49457428  99.85308890
3742.00 -275.75958618 100.00124977
3744.00 -276.02467550 100.14953964
3746.00 -276.28984216 100.29795852
3748.00 -276.55508608 100.44650643
3750.00 -276.82040719 100.59518339
3752.00 -277.08580540 100.74398940
3754.00 -277.35128064 100.89292449
3756.00 -277.61683282 101.04198867
3758.00 -277.88246186 101.19118196
3760.00 -278.14816769 101.34050437
3762.00 -278.41395022 101.48995592
3764.00 -278.67980938 101.63953662
3766.00 -278.94574509 101.78924649
3768.00 -279.21175726 101.93908554
3770.00 -279.47784582 102.08905379
3772.00 -279.74401069 102.23915125
3774.00 -280.01025179 102.38937795
3776.00 -280.27656903 102.53973388
3778.00 -280.54296235 102.69021908
3780.00 -280.80943165 102.84083355
3782.00 -281.07597687 102.99157731
3784.00 -281.34259791 103.14245037
3786.00 -281.60929471 103.29345275
3788.00 -281.87606718 103.44458446
3790.00 -282.14291524 103.59584552
3792.00 -282.40983881 103.74723594
3794.00 -282.67683782 103.89875574
3796.00 -282.94391218 104.05040492
3798.00 -283.21106181 104.20218352
3800.00 -283.47828665 104.35409153
3802.00 -283.74558659 104.50612898
3804.00 -284.01296158 104.65829587
3806.00 -284.28041152 104.81059223
3808.00 -284.54793634 104.96301806
3810.00 -284.81553595 105.11557339
3812.00 -285.08321029 105.26825821
3814.00 -285.35095926 105.42107256
3816.00 -285.61878280 105.57401644
3818.00 -285.88668082 105.72708986
3820.00 -286.15465324 105.88029285
3822.00 -286.42269998 106.03362540
3824.00 -286.69082097 106.18708755
3826.00 -286.95901612 106.34067929
3828.00 -287.22728535 106.49440065
3830.00 -287.49562859 106.64825164
3832.00 -287.76404575 106.80223227
3834.00 -288.03253677 106.95634255
3836.00 -288.30110155 107.11058250
3838.00 -288.56974002 107.26495213
3840.00 -288.83845210 107.41945145
3842.00 -289.10723771 107.57408049
3844.00 -289.37609677 107.72883924
3846.00 -289.64502920 107.88372772
3848.00 -289.91403493 108.03874596
3850.00 -290.18311386 108.19389395
3852.00 -290.45226594 108.34917171
3854.00 -290.72149107 108.50457926
3856.00 -290.99078917 108.66011661
3858.00 -291.26016017 108.81578376
3860.00 -291.52960399 108.97158074
3862.00 -291.79912055 109.12750756
3864.00 -292.06870977 109.28356422
3866.00 -292.33837157 109.43975074
3868.00 -292.60810588 109.59606714
3870.00 -292.87791260 109.75251342
3872.00 -293.14779167 109.90908960
3874.00 -293.41774300 110.06579569
3876.00 -293.68776652 110.22263170
3878.00 -293.95786215 110.37959764
3880.00 -294.22802980 110.53669353
3882.00 -294.49826941 110.69391938
3884.00 -294.76858088 110.85127520
3886.00 -295.03896415 111.00876100
3888.00 -295.30941912 111.16637679
3890.00 -295.57994573 111.32412259
3892.00 -295.85054390 111.48199841
3894.00 -296.12121354 111.64000426
3896.00 -296.39195457 111.79814014
3898.00 -296.66276693 111.95640608
3900.00 -296.93365052 112.11480208
3902.00 -297.20460527 112.27332816
3904.00 -297.47563111 112.43198433
3906.00 -297.74672794 112.59077059
3908.00 -298.01789570 112.74968696
3910.00 -298.28913431 112.90873345
3912.00 -298.56044368 113.06791007
3914.00 -298.83182373 113.22721684
3916.00 -299.10327440 113.38665376
3918.00 -299.37479560 113.54622084
3920.00 -299.64638724 113.70591810
3922.00 -299.91804926 113.86574554
3924.00 -300.18978158 114.02570319
3926.00 -300.46158410 114.18579104
3928.00 -300.73345677 114.34600911
3930.00 -301.00539949 114.50635741
3932.00 -301.27741219 114.66683595
3934.00 -301.54949479 114.82744474
3936.00 -301.82164721 114.98818379
3938.00 -302.09386937 115.14905311
3940.00 -302.36616120 115.31005272
3942.00 -302.63852262 115.47118261
3944.00 -302.91095354 115.63244281
3946.00 -303.18345389 115.79383333
3948.00 -303.45602359 115.95535416
3950.00 -303.72866257 116.11700533
3952.00 -304.00137073 116.27878684
3954.00 -304.27414801 116.44069871
3956.00 -304.54699433 116.60274094
3958.00 -304.81990960 116.76491354
3960.00 -305.09289375 116.92721652
3962.00 -305.36594671 117.08964990
3964.00 -305.63906838 117.25221368
3966.00 -305.91225870 117.41490787
3968.00 -306.18551758 117.57773249
3970.00 -306.45884495 117.74068753
3972.00 -306.73224073 117.90377302
3974.00 -307.00570484 118.06698895
3976.00 -307.27923720 118.23033535
3978.00 -307.55283774 118.39381221
3980.00 -307.82650637 118.55741956
3982.00 -308.10024301 118.72115739
3984.00 -308.37404760 118.88502571
3986.00 -308.64792004 119.04902455
3988.00 -308.92186027 119.21315389
3990.00 -309.19586820 119.37741377
3992.00 -309.46994375 119.54180417
3994.00 -309.74408686 119.70632512
3996.00 -310.01829743 119.87097661
3998.00 -310.29257539 120.03575867
4000.00 -310.56692066 120.20067130
4002.00 -310.84133317 120.36571450
4004.00 -311.11581284 120.53088829
4006.00 -311.39035958 120.69619267
4008.00 -311.66497332 120.86162765
4010.00 -311.93965398 121.02719325
4012.00 -312.21440149 121.19288946
4014.00 -312.48921576 121.35871630
4016.00 -312.76409672 121.52467378
4018.00 -313.03904429 121.69076191
4020.00 -313.31405839 121.85698068
4022.00 -313.58913895 122.02333012
4024.00 -313.86428587 122.18981023
4026.00 -314.13949910 122.35642101
4028.00 -314.41477854 122.52316248
4030.00 -314.69012413 122.69003464
4032.00 -314.96553578 122.85703750
4034.00 -315.24101341 123.02417107
4036.00 -315.51655695 123.19143536
4038.00 -315.79216632 123.35883037
4040.00 -316.06784145 123.52635611
4042.00 -316.34358224 123.69401260
4044.00 -316.61938863 123.86179983
4046.00 -316.89526054 124.02971781
4048.00 -317.17119789 124.19776656
4050.00 -317.44720060 124.36594607
4052.00 -317.72326859 124.53425636
4054.00 -317.99940180 124.70269744
4056.00 -318.27560013 124.87126931
4058.00 -318.55186351 125.03997197
4060.00 -318.82819186 125.20880544
4062.00 -319.10458511 125.37776973
4064.00 -319.38104318 125.54686483
4066.00 -319.65756598 125.71609076
4068.00 -319.93415345 125.88544752
4070.00 -320.21080551 126.05493512
4072.00 -320.48752207 126.22455358
4074.00 -320.76430306 126.39430288
4076.00 -321.04114840 126.56418304
4078.00 -321.31805801 126.73419408
4080.00 -321.59503183 126.90433598
4082.00 -321.87206976 127.07460877
4084.00 -322.14917173 127.24501244
4086.00 -322.42633766 127.41554701
4088.00 -322.70356749 127.58621248
4090.00 -322.98086112 127.75700885
4092.00 -323.25821848 127.92793613
4094.00 -323.53563949 128.09899434
4096.00 -323.81312408 128.27018347
4098.00 -324.09067217 128.44150352
4100.00 -324.36828368 128.61295452
4102.00 -324.64595854 128.78453646
4104.00 -324.92369666 128.95624935
4106.00 -325.20149797 129.12809319
4108.00 -325.47936239 129.30006799
4110.00 -325.75728985 129.47217376
4112.00 -326.03528026 129.64441050
4114.00 -326.31333355 129.81677822
4116.00 -326.59144964 129.98927692
4118.00 -326.86962846 130.16190662
4120.00 -327.14786993 130.33466730
4122.00 -327.42617397 130.50755899
4124.00 -327.70454050 130.68058168
4126.00 -327.98296944 130.85373538
4128.00 -328.26146073 131.02702010
4130.00 -328.54001427 131.20043585
4132.00 -328.81863000 131.37398261
4134.00 -329.09730784 131.54766041
4136.00 -329.37604771 131.72146925
4138.00 -329.65484953 131.89540913
4140.00 -329.93371323 132.06948005
4142.00 -330.21263872 132.24368203
4144.00 -330.49162594 132.41801507
4146.00 -330.77067480 132.59247916
4148.00 -331.04978523 132.76707433
4150.00 -331.32895714 132.94180056
4152.00 -331.60819048 133.11665787
4154.00 -331.88748514 133.29164626
4156.00 -332.16684107 133.46676574
4158.00 -332.44625818 133.64201631
4160.00 -332.72573640 133.81739797
4162.00 -333.00527564 133.99291073
4164.00 -333.28487584 134.16855459
4166.00 -333.56453691 134.34432956
4168.00 -333.84425878 134.52023564
4170.00 -334.12404137 134.69627284
4172.00 -334.40388460 134.87244116
4174.00 -334.68378840 135.04874060
4176.00 -334.96375269 135.22517117
4178.00 -335.24377740 135.40173288
4180.00 -335.52386244 135.57842572
4182.00 -335.80400774 135.75524970
4184.00 -336.08421323 135.93220482
4186.00 -336.36447882 136.10929110
4188.00 -336.64480444 136.28650852
4190.00 -336.92519002 136.46385710
4192.00 -337.20563547 136.64133684
4194.00 -337.48614072 136.81894774
4196.00 -337.76670570 136.99668981
4198.00 -338.04733032 137.17456305
4200.00 -338.32801451 137.35256746
4202.00 -338.60875820 137.53070305
4204.00 -338.88956131 137.70896982
4206.00 -339.17042375 137.88736777
4208.00 -339.45134546 138.06589691
4210.00 -339.73232635 138.24455724
4212.00 -340.01336636 138.42334876
4214.00 -340.29446540 138.60227148
4216.00 -340.57562340 138.78132539
4218.00 -340.85684028 138.96051051
4220.00 -341.13811597 139.13982683
4222.00 -341.41945039 139.31927437
4224.00 -341.70084345 139.49885311
4226.00 -341.98229510 139.67856306
4228.00 -342.26380524 139.85840424
4230.00 -342.54537381 140.03837663
4232.00 -342.82700072 140.21848024
4234.00 -343.10868591 140.39871508
4236.00 -343.39042929 140.57908114
4238.00 -343.67223079 140.75957844
4240.00 -343.95409033 140.94020696
4242.00 -344.23600784 141.12096672
4244.00 -344.51798323 141.30185772
4246.00 -344.80001644 141.48287995
4248.00 -345.08210739 141.66403343
4250.00 -345.36425600 141.84531814
4252.00 -345.64646219 142.02673411
4254.00 -345.92872589 142.20828132
4256.00 -346.21104703 142.38995978
4258.00 -346.49342552 142.57176949
4260.00 -346.77586130 142.75371046
4262.00 -347.05835428 142.93578268
4264.00 -347.34090438 143.11798616
4266.00 -347.62351154 143.30032089
4268.00 -347.90617568 143.48278689
4270.00 -348.18889672 143.66538415
4272.00 -348.47167458 143.84811267
4274.00 -348.75450919 144.03097246
4276.00 -349.03740048 144.21396351
4278.00 -349.32034836 144.39708584
4280.00 -349.60335277 144.58033943
4282.00 -349.88641362 144.76372430
4284.00 -350.16953084 144.94724043
4286.00 -350.45270435 145.13088785
4288.00 -350.73593409 145.31466653
4290.00 -351.01921996 145.49857649
4292.00 -351.30256190 145.68261773
4294.00 -351.58595984 145.86679025
4296.00 -351.86941369 146.05109405
4298.00 -352.15292338 146.23552913
4300.00 -352.43648883 146.42009549
4302.00 -352.72010997 146.60479313
4304.00 -353.00378673 146.78962206
4306.00 -353.28751902 146.97458227
4308.00 -353.57130677 147.15967376
4310.00 -353.85514991 147.34489654
4312.00 -354.13904836 147.53025060
4314.00 -354.42300205 147.71573596
4316.00 -354.70701089 147.90135259
4318.00 -354.99107482 148.08710052
4320.00 -355.27519376 148.27297973
4322.00 -355.55936763 148.45899024
4324.00 -355.84359636 148.64513203
4326.00 -356.12787987 148.83140511
4328.00 -356.41221809 149.01780948
4330.00 -356.69661094 149.20434514
4332.00 -356.98105835 149.39101209
4334.00 -357.26556023 149.57781032
4336.00 -357.55011653 149.76473985
4338.00 -357.83472715 149.95180067
4340.00 -358.11939203 150.13899278
4342.00 -358.40411109 150.32631617
4344.00 -358.68888426 150.51377086
4346.00 -358.97371145 150.70135683
4348.00 -359.25859260 150.88907410
4350.00 -359.54352763 151.07692265
4352.00 -359.82851646 151.26490249
4354.00 -360.11355902 151.45301362
4356.00 -360.39865524 151.64125603
4358.00 -360.68380503 151.82962974
4360.00 -360.96900833 152.01813473
4362.00 -361.25426506 152.20677100
4364.00 -361.53957514 152.39553856
4366.00 -361.82493850 152.58443741
4368.00 -362.11035506 152.77346753
4370.00 -362.39582475 152.96262894
4372.00 -362.68134750 153.15192164
4374.00 -362.96692323 153.34134561
4376.00 -363.25255186 153.53090087
4378.00 -363.53823332 153.72058740
4380.00 -363.82396753 153.91040521
4382.00 -364.10975442 154.10035430
4384.00 -364.39559392 154.29043466
4386.00 -364.68148595 154.48064630
4388.00 -364.96743044 154.67098922
4390.00 -365.25342730 154.86146340
4392.00 -365.53947647 155.05206886
4394.00 -365.82557788 155.24280559
4396.00 -366.11173144 155.43367358
4398.00 -366.39793708 155.62467284
4400.00 -366.68419473 155.81580337
4402.00 -366.97050431 156.00706516
4404.00 -367.25686575 156.19845821
4406.00 -367.54327897 156.38998252
4408.00 -367.82974390 156.58163809
4410.00 -368.11626047 156.77342492
4412.00 -368.40282860 156.96534300
4414.00 -368.68944821 157.15739234
4416.00 -368.97611924 157.34957293
4418.00 -369.26284160 157.54188476
4420.00 -369.54961522 157.73432785
4422.00 -369.83644003 157.92690218
4424.00 -370.12331595 158.11960775
4426.00 -370.41024292 158.31244456
4428.00 -370.69722085 158.50541262
4430.00 -370.98424967 158.69851191
4432.00 -371.27132930 158.89174243
4434.00 -371.55845968 159.08510419
4436.00 -371.84564072 159.27859717
4438.00 -372.13287236 159.47222139
4440.00 -372.42015452 159.66597683
4442.00 -372.70748712 159.85986349
4444.00 -372.99487010 160.05388137
4446.00 -373.28230337 160.24803046
4448.00 -373.56978686 160.44231078
4450.00 -373.85732051 160.63672230
4452.00 -374.14490423 160.83126503
4454.00 -374.43253794 161.02593897
4456.00 -374.72022159 161.22074411
4458.00 -375.00795509 161.41568046
4460.00 -375.29573836 161.61074800
4462.00 -375.58357135 161.80594673
4464.00 -375.87145396 162.00127666
4466.00 -376.15938613 162.19673777
4468.00 -376.44736778 162.39233007
4470.00 -376.73539884 162.58805356
4472.00 -377.02347924 162.78390822
4474.00 -377.31160890 162.97989406
4476.00 -377.59978774 163.17601106
4478.00 -377.88801570 163.37225924
4480.00 -378.17629270 163.56863859
4482.00 -378.46461867 163.76514909
4484.00 -378.75299353 163.96179076
4486.00 -379.04141721 164.15856358
4488.00 -379.32988963 164.35546755
4490.00 -379.61841073 164.55250267
4492.00 -379.90698042 164.74966893
4494.00 -380.19559864 164.94696633
4496.00 -380.48426531 165.14439487
4498.00 -380.77298036 165.34195454
4500.00 -381.06174371 165.53964535
4502.00 -381.35055529 165.73746727
4504.00 -381.63941503 165.93542032
4506.00 -381.92832286 166.13350448
4508.00 -382.21727869 166.33171976
4510.00 -382.50628246 166.53006615
4512.00 -382.79533409 166.72854364
4514.00 -383.08443351 166.92715223
4516.00 -383.37358065 167.12589191
4518.00 -383.66277544 167.32476269
4520.00 -383.95201779 167.52376456
4522.00 -384.24130764 167.72289751
4524.00 -384.53064492 167.92216154
4526.00 -384.82002954 168.12155664
4528.00 -385.10946144 168.32108281
4530.00 -385.39894055 168.52074005
4532.00 -385.68846678 168.72052835
4534.00 -385.97804008 168.92044770
4536.00 -386.26766036 169.12049811
4538.00 -386.55732755 169.32067956
4540.00 -386.84704157 169.52099205
4542.00 -387.13680237 169.72143558
4544.00 -387.42660985 169.92201015
4546.00 -387.71646396 170.12271574
4548.00 -388.00636461 170.32355235
4550.00 -388.29631174 170.52451997
4552.00 -388.58630527 170.72561861
4554.00 -388.87634512 170.92684826
4556.00 -389.16643123 171.12820891
4558.00 -389.45656352 171.32970055
4560.00 -389.74674192 171.53132319
4562.00 -390.03696636 171.73307681
4564.00 -390.32723676 171.93496141
4566.00 -390.61755305 172.13697699
4568.00 -390.90791516 172.33912354
4570.00 -391.19832302 172.54140105
4572.00 -391.48877655 172.74380952
4574.00 -391.77927568 172.94634894
4576.00 -392.06982033 173.14901932
4578.00 -392.36041044 173.35182063
4580.00 -392.65104594 173.55475288
4582.00 -392.94172674 173.75781606
4584.00 -393.23245278 173.96101016
4586.00 -393.52322399 174.16433518
4588.00 -393.81404029 174.36779112
4590.00 -394.10490160 174.57137796
4592.00 -394.39580787 174.77509570
4594.00 -394.68675901 174.97894434
4596.00 -394.97775495 175.18292387
4598.00 -395.26879562 175.38703428
4600.00 -395.55988095 175.59127557
4602.00 -395.85101087 175.79564773
4604.00 -396.14218530 176.00015075
4606.00 -396.43340417 176.20478463
4608.00 -396.72466741 176.40954936
4610.00 -397.01597495 176.61444493
4612.00 -397.30732671 176.81947135
4614.00 -397.59872262 177.02462860
4616.00 -397.89016261 177.22991667
4618.00 -398.18164661 177.43533556
4620.00 -398.47317455 177.64088527
4622.00 -398.76474635 177.84656578
4624.00 -399.05636194 178.05237709
4626.00 -399.34802125 178.25831919
4628.00 -399.63972421 178.46439208
4630.00 -399.93147075 178.67059575
4632.00 -400.22326079 178.87693019
4634.00 -400.51509426 179.08339540
4636.00 -400.80697109 179.28999136
4638.00 -401.09889121 179.49671808
4640.00 -401.39085454 179.70357554
4642.00 -401.68286102 179.91056374
4644.00 -401.97491057 180.11768266
4646.00 -402.26700313 180.32493231
4648.00 -402.55913861 180.53231268
4650.00 -402.85131695 180.73982375
4652.00 -403.14353808 180.94746553
4654.00 -403.43580192 181.15523800
4656.00 -403.72810840 181.36314115
4658.00 -404.02045745 181.57117499
4660.00 -404.31284900 181.77933949
4662.00 -404.60528298 181.98763467
4664.00 -404.89775932 182.19606049
4666.00 -405.19027794 182.40461697
4668.00 -405.48283877 182.61330408
4670.00 -405.77544175 182.82212183
4672.00 -406.06808679 183.03107021
4674.00 -406.36077384 183.24014920
4676.00 -406.65350281 183.44935881
4678.00 -406.94627363 183.65869902
4680.00 -407.23908625 183.86816982
4682.00 -407.53194057 184.07777120
4684.00 -407.82483654 184.28750317
4686.00 -408.11777408 184.49736571
4688.00 -408.41075311 184.70735880
4690.00 -408.70377358 184.91748246
4692.00 -408.99683540 185.12773666
4694.00 -409.28993851 185.33812139
4696.00 -409.58308283 185.54863666
4698.00 -409.87626830 185.75928245
4700.00 -410.16949484 185.97005875
4702.00 -410.46276238 186.18096555
4704.00 -410.75607085 186.39200285
4706.00 -411.04942018 186.60317064
4708.00 -411.34281030 186.81446891
4710.00 -411.63624114 187.02589765
4712.00 -411.92971262 187.23745685
4714.00 -412.22322468 187.44914650
4716.00 -412.51677724 187.66096660
4718.00 -412.81037024 187.87291714
4720.00 -413.10400360 188.08499810
4722.00 -413.39767725 188.29720948
4724.00 -413.69139113 188.50955127
4726.00 -413.98514515 188.72202346
4728.00 -414.27893926 188.93462604
4730.00 -414.57277337 189.14735901
4732.00 -414.86664742 189.36022235
4734.00 -415.16056134 189.57321605
4736.00 -415.45451506 189.78634011
4738.00 -415.74850851 189.99959451
4740.00 -416.04254161 190.21297926
4742.00 -416.33661429 190.42649433
4744.00 -416.63072650 190.64013972
4746.00 -416.92487814 190.85391542
4748.00 -417.21906916 191.06782141
4750.00 -417.51329949 191.28185770
4752.00 -417.80756904 191.49602427
4754.00 -418.10187776 191.71032112
4756.00 -418.39622558 191.92474822
4758.00 -418.69061241 192.13930558
4760.00 -418.98503820 192.35399318
4762.00 -419.27950287 192.56881101
4764.00 -419.57400635 192.78375907
4766.00 -419.86854857 192.99883734
4768.00 -420.16312946 193.21404582
4770.00 -420.45774895 193.42938449
4772.00 -420.75240698 193.64485334
4774.00 -421.04710346 193.86045237
4776.00 -421.34183833 194.07618156
4778.00 -421.63661153 194.29204091
4780.00 -421.93142297 194.50803040
4782.00 -422.22627260 194.72415003
4784.00 -422.52116033 194.94039978
4786.00 -422.81608611 195.15677965
4788.00 -423.11104985 195.37328962
4790.00 -423.40605150 195.58992969
4792.00 -423.70109098 195.80669983
4794.00 -423.99616821 196.02360006
4796.00 -424.29128314 196.24063034
4798.00 -424.58643569 196.45779068
4800.00 -424.88162579 196.67508106
4802.00 -425.17685337 196.89250147
4804.00 -425.47211836 197.11005190
4806.00 -425.76742070 197.32773234
4808.00 -426.06276031 197.54554278
4810.00 -426.35813712 197.76348322
4812.00 -426.65355106 197.98155363
4814.00 -426.94900207 198.19975401
4816.00 -427.24449007 198.41808434
4818.00 -427.54001500 198.63654462
4820.00 -427.83557678 198.85513484
4822.00 -428.13117534 199.07385498
4824.00 -428.42681062 199.29270504
4826.00 -428.72248255 199.51168500
4828.00 -429.01819106 199.73079485
4830.00 -429.31393607 199.95003458
4832.00 -429.60971752 200.16940418
4834.00 -429.90553534 200.38890364
4836.00 -430.20138946 200.60853295
4838.00 -430.49727982 200.82829209
4840.00 -430.79320633 201.04818106
4842.00 -431.08916893 201.26819984
4844.00 -431.38516756 201.48834842
4846.00 -431.68120214 201.70862680
4848.00 -431.97727261 201.92903495
4850.00 -432.27337889 202.14957287
4852.00 -432.56952092 202.37024055
4854.00 -432.86569862 202.59103797
4856.00 -433.16191194 202.81196513
4858.00 -433.45816079 203.03302201
4860.00 -433.75444511 203.25420860
4862.00 -434.05076484 203.47552488
4864.00 -434.34711989 203.69697086
4866.00 -434.64351022 203.91854651
4868.00 -434.93993573 204.14025182
4870.00 -435.23639637 204.36208678
4872.00 -435.53289207 204.58405138
4874.00 -435.82942276 204.80614561
4876.00 -436.12598837 205.02836946
4878.00 -436.42258883 205.25072291
4880.00 -436.71922407 205.47320595
4882.00 -437.01589402 205.69581857
4884.00 -437.31259862 205.91856075
4886.00 -437.60933780 206.14143249
4888.00 -437.90611148 206.36443378
4890.00 -438.20291960 206.58756459
4892.00 -438.49976210 206.81082493
4894.00 -438.79663889 207.03421477
4896.00 -439.09354992 207.25773410
4898.00 -439.39049512 207.48138291
4900.00 -439.68747441 207.70516120
4902.00 -439.98448773 207.92906894
4904.00 -440.28153501 208.15310612
4906.00 -440.57861618 208.37727273
4908.00 -440.87573118 208.60156877
4910.00 -441.17287993 208.82599421
4912.00 -441.47006237 209.05054904
4914.00 -441.76727842 209.27523325
4916.00 -442.06452803 209.50004683
4918.00 -442.36181112 209.72498977
4920.00 -442.65912762 209.95006204
4922.00 -442.95647747 210.17526365
4924.00 -443.25386060 210.40059457
4926.00 -443.55127694 210.62605480
4928.00 -443.84872642 210.85164432
4930.00 -444.14620898 211.07736311
4932.00 -444.44372454 211.30321117
4934.00 -444.74127304 211.52918848
4936.00 -445.03885441 211.75529503
4938.00 -445.33646858 211.98153080
4940.00 -445.63411549 212.20789579
4942.00 -445.93179506 212.43438997
4944.00 -446.22950723 212.66101334
4946.00 -446.52725194 212.88776588
4948.00 -446.82502910 213.11464757
4950.00 -447.12283867 213.34165842
4952.00 -447.42068056 213.56879839
4954.00 -447.71855471 213.79606749
4956.00 -448.01646105 214.02346568
4958.00 -448.31439952 214.25099297
4960.00 -448.61237005 214.47864934
4962.00 -448.91037256 214.70643477
4964.00 -449.20840700 214.93434925
4966.00 -449.50647330 215.16239276
4968.00 -449.80457138 215.39056530
4970.00 -450.10270118 215.61886685
4972.00 -450.40086264 215.84729739
4974.00 -450.69905568 216.07585691
4976.00 -450.99728024 216.30454540
4978.00 -451.29553625 216.53336285
4980.00 -451.59382364 216.76230923
4982.00 -451.89214235 216.99138454
4984.00 -452.19049231 217.22058876
4986.00 -452.48887345 217.44992187
4988.00 -452.78728570 217.67938387
4990.00 -453.08572901 217.90897474
4992.00 -453.38420329 218.13869446
4994.00 -453.68270849 218.36854302
4996.00 -453.98124453 218.59852041
4998.00 -454.27981135 218.82862661
5000.00 -454.57840889 219.05886161
