wavelength(nm)         real         imag
100.00   3.88364679   0.00015627
102.00   3.88298619   0.00016583
104.00   3.88231250   0.00017578
106.00   3.88162574   0.00018612
108.00   3.88092591   0.00019685
110.00   3.88021300   0.00020799
112.00   3.87948701   0.00021954
114.00   3.87874795   0.00023151
116.00   3.87799582   0.00024391
118.00   3.87723061   0.00025675
120.00   3.87645233   0.00027002
122.00   3.87566097   0.00028375
124.00   3.87485654   0.00029793
126.00   3.87403904   0.00031258
128.00   3.87320847   0.00032770
130.00   3.87236482   0.00034330
132.00   3.87150810   0.00035939
134.00   3.87063831   0.00037597
136.00   3.86975545   0.00039306
138.00   3.86885952   0.00041065
140.00   3.86795052   0.00042877
142.00   3.86702845   0.00044740
144.00   3.86609331   0.00046657
146.00   3.86514511   0.00048628
148.00   3.86418383   0.00050654
150.00   3.86320948   0.00052735
152.00   3.86222207   0.00054872
154.00   3.86122159   0.00057067
156.00   3.86020804   0.00059319
158.00   3.85918143   0.00061629
160.00   3.85814175   0.00063999
162.00   3.85708901   0.00066429
164.00   3.85602320   0.00068919
166.00   3.85494432   0.00071471
168.00   3.85385239   0.00074085
170.00   3.85274739   0.00076762
172.00   3.85162932   0.00079503
174.00   3.85049819   0.00082308
176.00   3.84935401   0.00085178
178.00   3.84819676   0.00088115
180.00   3.84702644   0.00091118
182.00   3.84584307   0.00094188
184.00   3.84464664   0.00097327
186.00   3.84343715   0.00100535
188.00   3.84221460   0.00103812
190.00   3.84097899   0.00107160
192.00   3.83973032   0.00110579
194.00   3.83846860   0.00114070
196.00   3.83719382   0.00117633
198.00   3.83590598   0.00121270
200.00   3.83460508   0.00124982
202.00   3.83329114   0.00128768
204.00   3.83196413   0.00132629
206.00   3.83062408   0.00136568
208.00   3.82927097   0.00140583
210.00   3.82790480   0.00144676
212.00   3.82652559   0.00148848
214.00   3.82513332   0.00153100
216.00   3.82372800   0.00157431
218.00   3.82230964   0.00161844
220.00   3.82087822   0.00166338
222.00   3.81943375   0.00170914
224.00   3.81797624   0.00175574
226.00   3.81650567   0.00180317
228.00   3.81502206   0.00185145
230.00   3.81352541   0.00190059
232.00   3.81201570   0.00195059
234.00   3.81049296   0.00200145
236.00   3.80895716   0.00205319
238.00   3.80740833   0.00210582
240.00   3.80584645   0.00215933
242.00   3.80427153   0.00221375
244.00   3.80268356   0.00226907
246.00   3.80108256   0.00232530
248.00   3.79946851   0.00238246
250.00   3.79784143   0.00244054
252.00   3.79620130   0.00249956
254.00   3.79454814   0.00255953
256.00   3.79288194   0.00262044
258.00   3.79120270   0.00268231
260.00   3.78951043   0.00274515
262.00   3.78780512   0.00280896
264.00   3.78608678   0.00287376
266.00   3.78435540   0.00293954
268.00   3.78261099   0.00300631
270.00   3.78085355   0.00307409
272.00   3.77908307   0.00314288
274.00   3.77729957   0.00321269
276.00   3.77550303   0.00328352
278.00   3.77369347   0.00335539
280.00   3.77187088   0.00342829
282.00   3.77003526   0.00350225
284.00   3.76818661   0.00357725
286.00   3.76632494   0.00365333
288.00   3.76445024   0.00373047
290.00   3.76256252   0.00380869
292.00   3.76066177   0.00388799
294.00   3.75874800   0.00396839
296.00   3.75682121   0.00404988
298.00   3.75488140   0.00413248
300.00   3.75292857   0.00421620
302.00   3.75096271   0.00430104
304.00   3.74898384   0.00438701
306.00   3.74699196   0.00447412
308.00   3.74498705   0.00456237
310.00   3.74296913   0.00465177
312.00   3.74093819   0.00474234
314.00   3.73889424   0.00483407
316.00   3.73683728   0.00492697
318.00   3.73476731   0.00502106
320.00   3.73268432   0.00511633
322.00   3.73058832   0.00521280
324.00   3.72847932   0.00531048
326.00   3.72635730   0.00540936
328.00   3.72422228   0.00550947
330.00   3.72207425   0.00561080
332.00   3.71991321   0.00571336
334.00   3.71773917   0.00581717
336.00   3.71555212   0.00592222
338.00   3.71335208   0.00602854
340.00   3.71113903   0.00613611
342.00   3.70891298   0.00624495
344.00   3.70667392   0.00635508
346.00   3.70442187   0.00646649
348.00   3.70215682   0.00657919
350.00   3.69987878   0.00669319
352.00   3.69758774   0.00680850
354.00   3.69528370   0.00692513
356.00   3.69296667   0.00704307
358.00   3.69063664   0.00716235
360.00   3.68829363   0.00728297
362.00   3.68593762   0.00740493
364.00   3.68356862   0.00752824
366.00   3.68118663   0.00765291
368.00   3.67879166   0.00777895
370.00   3.67638370   0.00790637
372.00   3.67396275   0.00803517
374.00   3.67152882   0.00816535
376.00   3.66908190   0.00829694
378.00   3.66662200   0.00842992
380.00   3.66414912   0.00856432
382.00   3.66166326   0.00870014
384.00   3.65916442   0.00883739
386.00   3.65665260   0.00897606
388.00   3.65412780   0.00911618
390.00   3.65159003   0.00925775
392.00   3.64903928   0.00940078
394.00   3.64647556   0.00954527
396.00   3.64389886   0.00969122
398.00   3.64130919   0.00983866
400.00   3.63870656   0.00998758
402.00   3.63609095   0.01013800
404.00   3.63346237   0.01028992
406.00   3.63082083   0.01044334
408.00   3.62816632   0.01059828
410.00   3.62549885   0.01075474
412.00   3.62281841   0.01091273
414.00   3.62012501   0.01107226
416.00   3.61741865   0.01123334
418.00   3.61469933   0.01139596
420.00   3.61196705   0.01156015
422.00   3.60922181   0.01172590
424.00   3.60646362   0.01189323
426.00   3.60369247   0.01206214
428.00   3.60090836   0.01223263
430.00   3.59811131   0.01240473
432.00   3.59530130   0.01257843
434.00   3.59247834   0.01275373
436.00   3.58964243   0.01293066
438.00   3.58679357   0.01310922
440.00   3.58393177   0.01328940
442.00   3.58105702   0.01347123
444.00   3.57816932   0.01365471
446.00   3.57526869   0.01383984
448.00   3.57235511   0.01402663
450.00   3.56942859   0.01421509
452.00   3.56648913   0.01440524
454.00   3.56353673   0.01459706
456.00   3.56057140   0.01479058
458.00   3.55759313   0.01498580
460.00   3.55460193   0.01518272
462.00   3.55159779   0.01538136
464.00   3.54858073   0.01558172
466.00   3.54555073   0.01578381
468.00   3.54250780   0.01598764
470.00   3.53945195   0.01619321
472.00   3.53638317   0.01640053
474.00   3.53330147   0.01660961
476.00   3.53020684   0.01682046
478.00   3.52709929   0.01703307
480.00   3.52397882   0.01724747
482.00   3.52084543   0.01746366
484.00   3.51769912   0.01768164
486.00   3.51453989   0.01790143
488.00   3.51136775   0.01812302
490.00   3.50818270   0.01834643
492.00   3.50498473   0.01857167
494.00   3.50177385   0.01879874
496.00   3.49855006   0.01902764
498.00   3.49531337   0.01925840
500.00   3.49206376   0.01949100
502.00   3.48880125   0.01972547
504.00   3.48552584   0.01996181
506.00   3.48223752   0.02020002
508.00   3.47893631   0.02044012
510.00   3.47562219   0.02068211
512.00   3.47229517   0.02092599
514.00   3.46895526   0.02117178
516.00   3.46560245   0.02141948
518.00   3.46223675   0.02166911
520.00   3.45885815   0.02192066
522.00   3.45546667   0.02217414
524.00   3.45206229   0.02242956
526.00   3.44864503   0.02268694
528.00   3.44521488   0.02294627
530.00   3.44177184   0.02320756
532.00   3.43831592   0.02347083
534.00   3.43484712   0.02373607
536.00   3.43136544   0.02400330
538.00   3.42787088   0.02427253
540.00   3.42436344   0.02454375
542.00   3.42084313   0.02481698
544.00   3.41730994   0.02509223
546.00   3.41376387   0.02536949
548.00   3.41020494   0.02564879
550.00   3.40663314   0.02593012
552.00   3.40304846   0.02621350
554.00   3.39945092   0.02649893
556.00   3.39584052   0.02678642
558.00   3.39221725   0.02707597
560.00   3.38858112   0.02736760
562.00   3.38493213   0.02766131
564.00   3.38127028   0.02795710
566.00   3.37759557   0.02825499
568.00   3.37390801   0.02855499
570.00   3.37020759   0.02885709
572.00   3.36649432   0.02916131
574.00   3.36276820   0.02946765
576.00   3.35902923   0.02977613
578.00   3.35527741   0.03008674
580.00   3.35151275   0.03039950
582.00   3.34773524   0.03071442
584.00   3.34394489   0.03103149
586.00   3.34014170   0.03135073
588.00   3.33632567   0.03167215
590.00   3.33249680   0.03199575
592.00   3.32865509   0.03232154
594.00   3.32480055   0.03264952
596.00   3.32093318   0.03297971
598.00   3.31705297   0.03331212
600.00   3.31315994   0.03364674
602.00   3.30925407   0.03398358
604.00   3.30533539   0.03432266
606.00   3.30140387   0.03466398
608.00   3.29745954   0.03500755
610.00   3.29350238   0.03535337
612.00   3.28953241   0.03570146
614.00   3.28554962   0.03605181
616.00   3.28155401   0.03640445
618.00   3.27754558   0.03675936
620.00   3.27352435   0.03711657
622.00   3.26949030   0.03747607
624.00   3.26544345   0.03783789
626.00   3.26138379   0.03820201
628.00   3.25731132   0.03856845
630.00   3.25322605   0.03893723
632.00   3.24912798   0.03930833
634.00   3.24501710   0.03968178
636.00   3.24089343   0.04005758
638.00   3.23675697   0.04043573
640.00   3.23260770   0.04081625
642.00   3.22844565   0.04119914
644.00   3.22427080   0.04158440
646.00   3.22008317   0.04197206
648.00   3.21588275   0.04236210
650.00   3.21166954   0.04275454
652.00   3.20744355   0.04314939
654.00   3.20320477   0.04354666
656.00   3.19895322   0.04394635
658.00   3.19468889   0.04434846
660.00   3.19041178   0.04475301
662.00   3.18612190   0.04516001
664.00   3.18181924   0.04556945
666.00   3.17750381   0.04598135
668.00   3.17317562   0.04639572
670.00   3.16883465   0.04681255
672.00   3.16448093   0.04723187
674.00   3.16011443   0.04765367
676.00   3.15573518   0.04807797
678.00   3.15134317   0.04850477
680.00   3.14693840   0.04893407
682.00   3.14252087   0.04936589
684.00   3.13809059   0.04980023
686.00   3.13364756   0.05023710
688.00   3.12919178   0.05067651
690.00   3.12472325   0.05111846
692.00   3.12024197   0.05156296
694.00   3.11574795   0.05201003
696.00   3.11124119   0.05245965
698.00   3.10672169   0.05291185
700.00   3.10218945   0.05336663
702.00   3.09764447   0.05382399
704.00   3.09308676   0.05428395
706.00   3.08851631   0.05474651
708.00   3.08393314   0.05521168
710.00   3.07933723   0.05567946
712.00   3.07472860   0.05614987
714.00   3.07010725   0.05662290
716.00   3.06547317   0.05709857
718.00   3.06082638   0.05757689
720.00   3.05616686   0.05805786
722.00   3.05149463   0.05854148
724.00   3.04680968   0.05902778
726.00   3.04211202   0.05951674
728.00   3.03740165   0.06000838
730.00   3.03267857   0.06050272
732.00   3.02794279   0.06099974
734.00   3.02319430   0.06149947
736.00   3.01843311   0.06200190
738.00   3.01365922   0.06250705
740.00   3.00887263   0.06301493
742.00   3.00407334   0.06352553
744.00   2.99926136   0.06403887
746.00   2.99443669   0.06455495
748.00   2.98959933   0.06507379
750.00   2.98474928   0.06559538
752.00   2.97988654   0.06611974
754.00   2.97501113   0.06664687
756.00   2.97012303   0.06717679
758.00   2.96522225   0.06770948
760.00   2.96030879   0.06824498
762.00   2.95538266   0.06878327
764.00   2.95044385   0.06932437
766.00   2.94549238   0.06986829
768.00   2.94052823   0.07041503
770.00   2.93555142   0.07096460
772.00   2.93056195   0.07151700
774.00   2.92555981   0.07207225
776.00   2.92054501   0.07263035
778.00   2.91551756   0.07319131
780.00   2.91047745   0.07375513
782.00   2.90542468   0.07432182
784.00   2.90035927   0.07489140
786.00   2.89528120   0.07546386
788.00   2.89019049   0.07603921
790.00   2.88508713   0.07661747
792.00   2.87997113   0.07719863
794.00   2.87484249   0.07778270
796.00   2.86970121   0.07836970
798.00   2.86454729   0.07895963
800.00   2.85938075   0.07955249
802.00   2.85420156   0.08014830
804.00   2.84900975   0.08074705
806.00   2.84380532   0.08134876
808.00   2.83858826   0.08195344
810.00   2.83335857   0.08256109
812.00   2.82811627   0.08317171
814.00   2.82286134   0.08378532
816.00   2.81759380   0.08440193
818.00   2.81231365   0.08502153
820.00   2.80702089   0.08564414
822.00   2.80171551   0.08626976
824.00   2.79639753   0.08689841
826.00   2.79106695   0.08753008
828.00   2.78572376   0.08816478
830.00   2.78036798   0.08880253
832.00   2.77499959   0.08944333
834.00   2.76961861   0.09008718
836.00   2.76422504   0.09073409
838.00   2.75881888   0.09138408
840.00   2.75340013   0.09203714
842.00   2.74796879   0.09269328
844.00   2.74252487   0.09335252
846.00   2.73706837   0.09401486
848.00   2.73159929   0.09468029
850.00   2.72611763   0.09534885
852.00   2.72062340   0.09602052
854.00   2.71511659   0.09669531
856.00   2.70959722   0.09737324
858.00   2.70406528   0.09805431
860.00   2.69852077   0.09873853
862.00   2.69296370   0.09942590
864.00   2.68739408   0.10011643
866.00   2.68181189   0.10081013
868.00   2.67621715   0.10150701
870.00   2.67060985   0.10220706
872.00   2.66499001   0.10291031
874.00   2.65935762   0.10361675
876.00   2.65371268   0.10432640
878.00   2.64805520   0.10503925
880.00   2.64238518   0.10575533
882.00   2.63670262   0.10647462
884.00   2.63100752   0.10719715
886.00   2.62529989   0.10792292
888.00   2.61957973   0.10865193
890.00   2.61384704   0.10938419
892.00   2.60810183   0.11011971
894.00   2.60234409   0.11085850
896.00   2.59657383   0.11160056
898.00   2.59079105   0.11234590
900.00   2.58499576   0.11309453
902.00   2.57918795   0.11384645
904.00   2.57336763   0.11460167
906.00   2.56753480   0.11536020
908.00   2.56168947   0.11612205
910.00   2.55583163   0.11688721
912.00   2.54996129   0.11765571
914.00   2.54407845   0.11842754
916.00   2.53818312   0.11920271
918.00   2.53227529   0.11998123
920.00   2.52635497   0.12076311
922.00   2.52042216   0.12154835
924.00   2.51447687   0.12233696
926.00   2.50851909   0.12312895
928.00   2.50254883   0.12392432
930.00   2.49656610   0.12472309
932.00   2.49057088   0.12552525
934.00   2.48456320   0.12633081
936.00   2.47854304   0.12713979
938.00   2.47251042   0.12795219
940.00   2.46646533   0.12876801
942.00   2.46040778   0.12958727
944.00   2.45433776   0.13040996
946.00   2.44825529   0.13123610
948.00   2.44216037   0.13206570
950.00   2.43605299   0.13289875
952.00   2.42993316   0.13373527
954.00   2.42380088   0.13457527
956.00   2.41765616   0.13541874
958.00   2.41149900   0.13626571
960.00   2.40532940   0.13711617
962.00   2.39914736   0.13797013
964.00   2.39295289   0.13882759
966.00   2.38674598   0.13968858
968.00   2.38052665   0.14055308
970.00   2.37429489   0.14142112
972.00   2.36805071   0.14229269
974.00   2.36179410   0.14316780
976.00   2.35552508   0.14404647
978.00   2.34924364   0.14492869
980.00   2.34294979   0.14581447
982.00   2.33664353   0.14670382
984.00   2.33032486   0.14759676
986.00   2.32399379   0.14849327
988.00   2.31765032   0.14939338
990.00   2.31129444   0.15029708
992.00   2.30492617   0.15120439
994.00   2.29854551   0.15211531
996.00   2.29215245   0.15302985
998.00   2.28574701   0.15394801
1000.00   2.27932918   0.15486980
1002.00   2.27289896   0.15579524
1004.00   2.26645637   0.15672432
1006.00   2.26000140   0.15765705
1008.00   2.25353405   0.15859344
1010.00   2.24705434   0.15953350
1012.00   2.24056225   0.16047723
1014.00   2.23405780   0.16142464
1016.00   2.22754098   0.16237573
1018.00   2.22101180   0.16333052
1020.00   2.21447026   0.16428901
1022.00   2.20791637   0.16525121
1024.00   2.20135013   0.16621712
1026.00   2.19477154   0.16718675
1028.00   2.18818059   0.16816011
1030.00   2.18157731   0.16913721
1032.00   2.17496168   0.17011804
1034.00   2.16833372   0.17110263
1036.00   2.16169342   0.17209096
1038.00   2.15504078   0.17308306
1040.00   2.14837582   0.17407893
1042.00   2.14169853   0.17507857
1044.00   2.13500891   0.17608199
1046.00   2.12830698   0.17708921
1048.00   2.12159272   0.17810021
1050.00   2.11486615   0.17911502
1052.00   2.10812727   0.18013364
1054.00   2.10137607   0.18115608
1056.00   2.09461257   0.18218234
1058.00   2.08783677   0.18321242
1060.00   2.08104866   0.18424634
1062.00   2.07424825   0.18528411
1064.00   2.06743555   0.18632572
1066.00   2.06061056   0.18737120
1068.00   2.05377327   0.18842053
1070.00   2.04692370   0.18947373
1072.00   2.04006185   0.19053081
1074.00   2.03318771   0.19159178
1076.00   2.02630130   0.19265663
1078.00   2.01940261   0.19372538
1080.00   2.01249164   0.19479804
1082.00   2.00556841   0.19587460
1084.00   1.99863291   0.19695508
1086.00   1.99168515   0.19803948
1088.00   1.98472513   0.19912782
1090.00   1.97775285   0.20022009
1092.00   1.97076832   0.20131631
1094.00   1.96377153   0.20241648
1096.00   1.95676249   0.20352060
1098.00   1.94974121   0.20462869
1100.00   1.94270769   0.20574075
1102.00   1.93566192   0.20685678
1104.00   1.92860392   0.20797680
1106.00   1.92153369   0.20910081
1108.00   1.91445122   0.21022882
1110.00   1.90735653   0.21136083
1112.00   1.90024961   0.21249686
1114.00   1.89313047   0.21363690
1116.00   1.88599911   0.21478096
1118.00   1.87885554   0.21592906
1120.00   1.87169975   0.21708119
1122.00   1.86453175   0.21823737
1124.00   1.85735155   0.21939760
1126.00   1.85015914   0.22056189
1128.00   1.84295453   0.22173024
1130.00   1.83573773   0.22290266
1132.00   1.82850873   0.22407916
1134.00   1.82126754   0.22525974
1136.00   1.81401416   0.22644442
1138.00   1.80674859   0.22763319
1140.00   1.79947084   0.22882607
1142.00   1.79218092   0.23002306
1144.00   1.78487881   0.23122416
1146.00   1.77756454   0.23242939
1148.00   1.77023809   0.23363875
1150.00   1.76289948   0.23485225
1152.00   1.75554870   0.23606989
1154.00   1.74818576   0.23729168
1156.00   1.74081067   0.23851763
1158.00   1.73342342   0.23974775
1160.00   1.72602402   0.24098203
1162.00   1.71861247   0.24222050
1164.00   1.71118878   0.24346314
1166.00   1.70375294   0.24470998
1168.00   1.69630497   0.24596101
1170.00   1.68884486   0.24721625
1172.00   1.68137262   0.24847570
1174.00   1.67388825   0.24973936
1176.00   1.66639175   0.25100725
1178.00   1.65888313   0.25227937
1180.00   1.65136239   0.25355572
1182.00   1.64382953   0.25483632
1184.00   1.63628456   0.25612117
1186.00   1.62872748   0.25741027
1188.00   1.62115829   0.25870364
1190.00   1.61357700   0.26000127
1192.00   1.60598361   0.26130319
1194.00   1.59837812   0.26260938
1196.00   1.59076054   0.26391987
1198.00   1.58313086   0.26523465
1200.00   1.57548910   0.26655373
1202.00   1.56783525   0.26787712
1204.00   1.56016932   0.26920483
1206.00   1.55249132   0.27053686
1208.00   1.54480123   0.27187322
1210.00   1.53709908   0.27321392
1212.00   1.52938486   0.27455895
1214.00   1.52165857   0.27590834
1216.00   1.51392022   0.27726207
1218.00   1.50616981   0.27862018
1220.00   1.49840735   0.27998264
1222.00   1.49063284   0.28134949
1224.00   1.48284627   0.28272071
1226.00   1.47504766   0.28409632
1228.00   1.46723701   0.28547633
1230.00   1.45941432   0.28686073
1232.00   1.45157959   0.28824955
1234.00   1.44373283   0.28964277
1236.00   1.43587404   0.29104042
1238.00   1.42800323   0.29244249
1240.00   1.42012039   0.29384900
1242.00   1.41222554   0.29525995
1244.00   1.40431866   0.29667534
1246.00   1.39639978   0.29809518
1248.00   1.38846889   0.29951949
1250.00   1.38052599   0.30094826
1252.00   1.37257108   0.30238150
1254.00   1.36460418   0.30381922
1256.00   1.35662528   0.30526142
1258.00   1.34863439   0.30670812
1260.00   1.34063151   0.30815931
1262.00   1.33261665   0.30961501
1264.00   1.32458980   0.31107522
1266.00   1.31655098   0.31253995
1268.00   1.30850017   0.31400920
1270.00   1.30043740   0.31548298
1272.00   1.29236265   0.31696130
1274.00   1.28427594   0.31844416
1276.00   1.27617727   0.31993157
1278.00   1.26806664   0.32142354
1280.00   1.25994406   0.32292007
1282.00   1.25180952   0.32442116
1284.00   1.24366303   0.32592684
1286.00   1.23550460   0.32743709
1288.00   1.22733423   0.32895194
1290.00   1.21915191   0.33047138
1292.00   1.21095767   0.33199542
1294.00   1.20275149   0.33352406
1296.00   1.19453338   0.33505732
1298.00   1.18630335   0.33659520
1300.00   1.17806140   0.33813771
1302.00   1.16980753   0.33968485
1304.00   1.16154175   0.34123663
1306.00   1.15326405   0.34279306
1308.00   1.14497445   0.34435414
1310.00   1.13667294   0.34591988
1312.00   1.12835954   0.34749028
1314.00   1.12003423   0.34906535
1316.00   1.11169704   0.35064511
1318.00   1.10334795   0.35222954
1320.00   1.09498698   0.35381867
1322.00   1.08661412   0.35541250
1324.00   1.07822939   0.35701102
1326.00   1.06983277   0.35861426
1328.00   1.06142429   0.36022221
1330.00   1.05300394   0.36183489
1332.00   1.04457172   0.36345229
1334.00   1.03612764   0.36507443
1336.00   1.02767170   0.36670132
1338.00   1.01920391   0.36833295
1340.00   1.01072426   0.36996933
1342.00   1.00223277   0.37161047
1344.00   0.99372943   0.37325639
1346.00   0.98521425   0.37490707
1348.00   0.97668724   0.37656253
1350.00   0.96814839   0.37822278
1352.00   0.95959771   0.37988783
1354.00   0.95103521   0.38155767
1356.00   0.94246088   0.38323231
1358.00   0.93387473   0.38491177
1360.00   0.92527677   0.38659605
1362.00   0.91666700   0.38828514
1364.00   0.90804541   0.38997907
1366.00   0.89941202   0.39167784
1368.00   0.89076684   0.39338144
1370.00   0.88210985   0.39508990
1372.00   0.87344107   0.39680321
1374.00   0.86476049   0.39852139
1376.00   0.85606814   0.40024443
1378.00   0.84736399   0.40197234
1380.00   0.83864807   0.40370514
1382.00   0.82992037   0.40544282
1384.00   0.82118090   0.40718540
1386.00   0.81242966   0.40893287
1388.00   0.80366666   0.41068525
1390.00   0.79489189   0.41244255
1392.00   0.78610537   0.41420476
1394.00   0.77730709   0.41597189
1396.00   0.76849706   0.41774396
1398.00   0.75967529   0.41952096
1400.00   0.75084177   0.42130290
1402.00   0.74199651   0.42308980
1404.00   0.73313951   0.42488165
1406.00   0.72427079   0.42667846
1408.00   0.71539033   0.42848024
1410.00   0.70649815   0.43028699
1412.00   0.69759425   0.43209873
1414.00   0.68867863   0.43391545
1416.00   0.67975130   0.43573716
1418.00   0.67081226   0.43756388
1420.00   0.66186151   0.43939559
1422.00   0.65289906   0.44123232
1424.00   0.64392491   0.44307407
1426.00   0.63493906   0.44492084
1428.00   0.62594153   0.44677264
1430.00   0.61693230   0.44862948
1432.00   0.60791139   0.45049136
1434.00   0.59887881   0.45235829
1436.00   0.58983454   0.45423027
1438.00   0.58077860   0.45610732
1440.00   0.57171100   0.45798943
1442.00   0.56263172   0.45987662
1444.00   0.55354079   0.46176888
1446.00   0.54443820   0.46366623
1448.00   0.53532395   0.46556868
1450.00   0.52619806   0.46747622
1452.00   0.51706051   0.46938886
1454.00   0.50791133   0.47130662
1456.00   0.49875051   0.47322949
1458.00   0.48957805   0.47515748
1460.00   0.48039396   0.47709061
1462.00   0.47119824   0.47902886
1464.00   0.46199090   0.48097226
1466.00   0.45277194   0.48292081
1468.00   0.44354136   0.48487451
1470.00   0.43429917   0.48683337
1472.00   0.42504538   0.48879739
1474.00   0.41577997   0.49076659
1476.00   0.40650297   0.49274096
1478.00   0.39721437   0.49472052
1480.00   0.38791418   0.49670527
1482.00   0.37860240   0.49869522
1484.00   0.36927903   0.50069036
1486.00   0.35994408   0.50269072
1488.00   0.35059755   0.50469629
1490.00   0.34123945   0.50670708
1492.00   0.33186978   0.50872309
1494.00   0.32248854   0.51074434
1496.00   0.31309575   0.51277083
1498.00   0.30369139   0.51480256
1500.00   0.29427548   0.51683955
1502.00   0.28484801   0.51888179
1504.00   0.27540901   0.52092929
1506.00   0.26595845   0.52298206
1508.00   0.25649636   0.52504011
1510.00   0.24702274   0.52710344
1512.00   0.23753758   0.52917206
1514.00   0.22804089   0.53124597
1516.00   0.21853269   0.53332517
1518.00   0.20901296   0.53540969
1520.00   0.19948172   0.53749951
1522.00   0.18993896   0.53959466
1524.00   0.18038470   0.54169512
1526.00   0.17081893   0.54380092
1528.00   0.16124167   0.54591205
1530.00   0.15165291   0.54802852
1532.00   0.14205265   0.55015035
1534.00   0.13244091   0.55227752
1536.00   0.12281769   0.55441005
1538.00   0.11318298   0.55654795
1540.00   0.10353680   0.55869122
1542.00   0.09387915   0.56083987
1544.00   0.08421003   0.56299390
1546.00   0.07452944   0.56515333
1548.00   0.06483740   0.56731814
1550.00   0.05513389   0.56948836
1552.00   0.04541894   0.57166399
1554.00   0.03569254   0.57384503
1556.00   0.02595469   0.57603149
1558.00   0.01620540   0.57822337
1560.00   0.00644468   0.58042069
1562.00  -0.00332748   0.58262344
1564.00  -0.01311106   0.58483164
1566.00  -0.02290607   0.58704528
1568.00  -0.03271250   0.58926438
1570.00  -0.04253034   0.59148894
1572.00  -0.05235960   0.59371897
1574.00  -0.06220027   0.59595447
1576.00  -0.07205234   0.59819546
1578.00  -0.08191580   0.60044192
1580.00  -0.09179067   0.60269388
1582.00  -0.10167693   0.60495133
1584.00  -0.11157457   0.60721429
1586.00  -0.12148360   0.60948275
1588.00  -0.13140401   0.61175673
1590.00  -0.14133580   0.61403623
1592.00  -0.15127895   0.61632125
1594.00  -0.16123348   0.61861181
1596.00  -0.17119937   0.62090791
1598.00  -0.18117661   0.62320955
1600.00  -0.19116522   0.62551674
1602.00  -0.20116517   0.62782948
1604.00  -0.21117647   0.63014779
1606.00  -0.22119912   0.63247166
1608.00  -0.23123310   0.63480111
1610.00  -0.24127842   0.63713614
1612.00  -0.25133507   0.63947675
1614.00  -0.26140305   0.64182295
1616.00  -0.27148235   0.64417475
1618.00  -0.28157297   0.64653216
1620.00  -0.29167490   0.64889517
1622.00  -0.30178814   0.65126379
1624.00  -0.31191269   0.65363804
1626.00  -0.32204854   0.65601791
1628.00  -0.33219569   0.65840342
1630.00  -0.34235413   0.66079456
1632.00  -0.35252386   0.66319134
1634.00  -0.36270488   0.66559378
1636.00  -0.37289718   0.66800187
1638.00  -0.38310076   0.67041562
1640.00  -0.39331561   0.67283503
1642.00  -0.40354172   0.67526012
1644.00  -0.41377911   0.67769089
1646.00  -0.42402775   0.68012735
1648.00  -0.43428765   0.68256949
1650.00  -0.44455880   0.68501733
1652.00  -0.45484120   0.68747087
1654.00  -0.46513485   0.68993012
1656.00  -0.47543973   0.69239508
1658.00  -0.48575585   0.69486576
1660.00  -0.49608320   0.69734216
1662.00  -0.50642178   0.69982430
1664.00  -0.51677158   0.70231217
1666.00  -0.52713260   0.70480579
1668.00  -0.53750483   0.70730515
1670.00  -0.54788827   0.70981026
1672.00  -0.55828292   0.71232114
1674.00  -0.56868878   0.71483778
1676.00  -0.57910582   0.71736019
1678.00  -0.58953407   0.71988838
1680.00  -0.59997350   0.72242235
1682.00  -0.61042411   0.72496210
1684.00  -0.62088591   0.72750766
1686.00  -0.63135888   0.73005901
1688.00  -0.64184303   0.73261616
1690.00  -0.65233834   0.73517913
1692.00  -0.66284482   0.73774792
1694.00  -0.67336246   0.74032252
1696.00  -0.68389125   0.74290296
1698.00  -0.69443119   0.74548923
1700.00  -0.70498228   0.74808133
1702.00  -0.71554451   0.75067929
1704.00  -0.72611788   0.75328309
1706.00  -0.73670238   0.75589275
1708.00  -0.74729801   0.75850828
1710.00  -0.75790477   0.76112967
1712.00  -0.76852265   0.76375693
1714.00  -0.77915164   0.76639007
1716.00  -0.78979175   0.76902910
1718.00  -0.80044297   0.77167402
1720.00  -0.81110529   0.77432484
1722.00  -0.82177870   0.77698156
1724.00  -0.83246322   0.77964418
1726.00  -0.84315882   0.78231272
1728.00  -0.85386551   0.78498718
1730.00  -0.86458328   0.78766756
1732.00  -0.87531213   0.79035387
1734.00  -0.88605206   0.79304612
1736.00  -0.89680305   0.79574431
1738.00  -0.90756511   0.79844845
1740.00  -0.91833822   0.80115854
1742.00  -0.92912240   0.80387458
1744.00  -0.93991762   0.80659659
1746.00  -0.95072389   0.80932458
1748.00  -0.96154121   0.81205853
1750.00  -0.97236956   0.81479847
1752.00  -0.98320895   0.81754439
1754.00  -0.99405937   0.82029631
1756.00  -1.00492081   0.82305422
1758.00  -1.01579328   0.82581814
1760.00  -1.02667676   0.82858806
1762.00  -1.03757125   0.83136400
1764.00  -1.04847676   0.83414596
1766.00  -1.05939326   0.83693394
1768.00  -1.07032077   0.83972796
1770.00  -1.08125927   0.84252801
1772.00  -1.09220875   0.84533410
1774.00  -1.10316923   0.84814624
1776.00  -1.11414069   0.85096444
1778.00  -1.12512312   0.85378869
1780.00  -1.13611653   0.85661901
1782.00  -1.14712090   0.85945539
1784.00  -1.15813624   0.86229786
1786.00  -1.16916254   0.86514640
1788.00  -1.18019980   0.86800103
1790.00  -1.19124800   0.87086175
1792.00  -1.20230715   0.87372857
1794.00  -1.21337724   0.87660149
1796.00  -1.22445827   0.87948053
1798.00  -1.23555023   0.88236567
1800.00  -1.24665312   0.88525693
1802.00  -1.25776694   0.88815432
1804.00  -1.26889167   0.89105784
1806.00  -1.28002732   0.89396750
1808.00  -1.29117388   0.89688330
1810.00  -1.30233135   0.89980524
1812.00  -1.31349971   0.90273334
1814.00  -1.32467898   0.90566759
1816.00  -1.33586913   0.90860801
1818.00  -1.34707018   0.91155460
1820.00  -1.35828211   0.91450736
1822.00  -1.36950492   0.91746630
1824.00  -1.38073860   0.92043142
1826.00  -1.39198315   0.92340274
1828.00  -1.40323857   0.92638025
1830.00  -1.41450485   0.92936397
1832.00  -1.42578198   0.93235389
1834.00  -1.43706997   0.93535002
1836.00  -1.44836881   0.93835238
1838.00  -1.45967849   0.94136095
1840.00  -1.47099900   0.94437575
1842.00  -1.48233035   0.94739679
1844.00  -1.49367254   0.95042407
1846.00  -1.50502554   0.95345759
1848.00  -1.51638937   0.95649736
1850.00  -1.52776401   0.95954339
1852.00  -1.53914946   0.96259568
1854.00  -1.55054573   0.96565424
1856.00  -1.56195279   0.96871907
1858.00  -1.57337065   0.97179017
1860.00  -1.58479930   0.97486756
1862.00  -1.59623875   0.97795124
1864.00  -1.60768897   0.98104121
1866.00  -1.61914998   0.98413747
1868.00  -1.63062176   0.98724005
1870.00  -1.64210431   0.99034893
1872.00  -1.65359763   0.99346413
1874.00  -1.66510171   0.99658564
1876.00  -1.67661654   0.99971349
1878.00  -1.68814213   1.00284766
1880.00  -1.69967846   1.00598817
1882.00  -1.71122554   1.00913502
1884.00  -1.72278336   1.01228822
1886.00  -1.73435190   1.01544777
1888.00  -1.74593118   1.01861368
1890.00  -1.75752119   1.02178595
1892.00  -1.76912191   1.02496459
1894.00  -1.78073335   1.02814960
1896.00  -1.79235549   1.03134100
1898.00  -1.80398835   1.03453877
1900.00  -1.81563190   1.03774294
1902.00  -1.82728616   1.04095350
1904.00  -1.83895110   1.04417046
1906.00  -1.85062673   1.04739382
1908.00  -1.86231305   1.05062360
1910.00  -1.87401004   1.05385979
1912.00  -1.88571771   1.05710241
1914.00  -1.89743604   1.06035145
1916.00  -1.90916504   1.06360692
1918.00  -1.92090470   1.06686883
1920.00  -1.93265502   1.07013718
1922.00  -1.94441598   1.07341198
1924.00  -1.95618759   1.07669323
1926.00  -1.96796984   1.07998094
1928.00  -1.97976273   1.08327511
1930.00  -1.99156625   1.08657575
1932.00  -2.00338040   1.08988287
1934.00  -2.01520517   1.09319646
1936.00  -2.02704055   1.09651654
1938.00  -2.03888655   1.09984310
1940.00  -2.05074316   1.10317616
1942.00  -2.06261037   1.10651573
1944.00  -2.07448818   1.10986179
1946.00  -2.08637658   1.11321437
1948.00  -2.09827558   1.11657346
1950.00  -2.11018516   1.11993907
1952.00  -2.12210531   1.12331121
1954.00  -2.13403605   1.12668988
1956.00  -2.14597735   1.13007509
1958.00  -2.15792922   1.13346683
1960.00  -2.16989165   1.13686513
1962.00  -2.18186464   1.14026997
1964.00  -2.19384818   1.14368137
1966.00  -2.20584227   1.14709934
1968.00  -2.21784689   1.15052387
1970.00  -2.22986206   1.15395497
1972.00  -2.24188776   1.15739265
1974.00  -2.25392399   1.16083691
1976.00  -2.26597074   1.16428776
1978.00  -2.27802801   1.16774521
1980.00  -2.29009579   1.17120925
1982.00  -2.30217408   1.17467989
1984.00  -2.31426288   1.17815715
1986.00  -2.32636217   1.18164101
1988.00  -2.33847196   1.18513150
1990.00  -2.35059224   1.18862861
1992.00  -2.36272301   1.19213235
1994.00  -2.37486425   1.19564272
1996.00  -2.38701598   1.19915973
1998.00  -2.39917817   1.20268338
2000.00  -2.41135083   1.20621368
2002.00  -2.42353395   1.20975064
2004.00  -2.43572752   1.21329426
2006.00  -2.44793155   1.21684454
2008.00  -2.46014603   1.22040149
2010.00  -2.47237095   1.22396512
2012.00  -2.48460630   1.22753542
2014.00  -2.49685209   1.23111241
2016.00  -2.50910830   1.23469609
2018.00  -2.52137494   1.23828646
2020.00  -2.53365200   1.24188353
2022.00  -2.54593947   1.24548731
2024.00  -2.55823735   1.24909780
2026.00  -2.57054563   1.25271500
2028.00  -2.58286431   1.25633893
2030.00  -2.59519338   1.25996957
2032.00  -2.60753285   1.26360695
2034.00  -2.61988270   1.26725106
2036.00  -2.63224292   1.27090192
2038.00  -2.64461353   1.27455951
2040.00  -2.65699450   1.27822386
2042.00  -2.66938584   1.28189496
2044.00  -2.68178753   1.28557283
2046.00  -2.69419959   1.28925745
2048.00  -2.70662199   1.29294885
2050.00  -2.71905474   1.29664702
2052.00  -2.73149783   1.30035198
2054.00  -2.74395125   1.30406371
2056.00  -2.75641501   1.30778224
2058.00  -2.76888909   1.31150756
2060.00  -2.78137350   1.31523968
2062.00  -2.79386822   1.31897861
2064.00  -2.80637325   1.32272435
2066.00  -2.81888859   1.32647690
2068.00  -2.83141423   1.33023627
2070.00  -2.84395016   1.33400246
2072.00  -2.85649639   1.33777549
2074.00  -2.86905291   1.34155535
2076.00  -2.88161971   1.34534205
2078.00  -2.89419678   1.34913559
2080.00  -2.90678413   1.35293598
2082.00  -2.91938174   1.35674323
2084.00  -2.93198962   1.36055733
2086.00  -2.94460776   1.36437830
2088.00  -2.95723615   1.36820614
2090.00  -2.96987478   1.37204085
2092.00  -2.98252366   1.37588244
2094.00  -2.99518278   1.37973091
2096.00  -3.00785213   1.38358627
2098.00  -3.02053171   1.38744853
2100.00  -3.03322151   1.39131768
2102.00  -3.04592153   1.39519374
2104.00  -3.05863176   1.39907670
2106.00  -3.07135220   1.40296658
2108.00  -3.08408284   1.40686337
2110.00  -3.09682369   1.41076709
2112.00  -3.10957472   1.41467773
2114.00  -3.12233595   1.41859531
2116.00  -3.13510736   1.42251982
2118.00  -3.14788895   1.42645128
2120.00  -3.16068071   1.43038968
2122.00  -3.17348264   1.43433503
2124.00  -3.18629473   1.43828734
2126.00  -3.19911698   1.44224661
2128.00  -3.21194939   1.44621285
2130.00  -3.22479195   1.45018605
2132.00  -3.23764465   1.45416624
2134.00  -3.25050748   1.45815340
2136.00  -3.26338046   1.46214755
2138.00  -3.27626356   1.46614868
2140.00  -3.28915678   1.47015682
2142.00  -3.30206013   1.47417195
2144.00  -3.31497359   1.47819409
2146.00  -3.32789715   1.48222323
2148.00  -3.34083082   1.48625939
2150.00  -3.35377459   1.49030257
2152.00  -3.36672846   1.49435277
2154.00  -3.37969241   1.49841000
2156.00  -3.39266645   1.50247426
2158.00  -3.40565057   1.50654556
2160.00  -3.41864476   1.51062390
2162.00  -3.43164901   1.51470929
2164.00  -3.44466334   1.51880173
2166.00  -3.45768772   1.52290123
2168.00  -3.47072216   1.52700779
2170.00  -3.48376664   1.53112141
2172.00  -3.49682117   1.53524211
2174.00  -3.50988574   1.53936988
2176.00  -3.52296034   1.54350473
2178.00  -3.53604497   1.54764667
2180.00  -3.54913962   1.55179569
2182.00  -3.56224429   1.55595181
2184.00  -3.57535898   1.56011503
2186.00  -3.58848367   1.56428535
2188.00  -3.60161837   1.56846278
2190.00  -3.61476307   1.57264733
2192.00  -3.62791776   1.57683899
2194.00  -3.64108244   1.58103777
2196.00  -3.65425710   1.58524368
2198.00  -3.66744174   1.58945672
2200.00  -3.68063635   1.59367690
2202.00  -3.69384093   1.59790422
2204.00  -3.70705547   1.60213869
2206.00  -3.72027997   1.60638030
2208.00  -3.73351443   1.61062907
2210.00  -3.74675883   1.61488500
2212.00  -3.76001317   1.61914809
2214.00  -3.77327746   1.62341836
2216.00  -3.78655167   1.62769579
2218.00  -3.79983581   1.63198041
2220.00  -3.81312988   1.63627220
2222.00  -3.82643386   1.64057119
2224.00  -3.83974775   1.64487736
2226.00  -3.85307155   1.64919073
2228.00  -3.86640526   1.65351131
2230.00  -3.87974886   1.65783909
2232.00  -3.89310235   1.66217407
2234.00  -3.90646572   1.66651628
2236.00  -3.91983898   1.67086570
2238.00  -3.93322212   1.67522235
2240.00  -3.94661513   1.67958622
2242.00  -3.96001800   1.68395733
2244.00  -3.97343073   1.68833568
2246.00  -3.98685332   1.69272126
2248.00  -4.00028576   1.69711410
2250.00  -4.01372805   1.70151418
2252.00  -4.02718017   1.70592153
2254.00  -4.04064214   1.71033613
2256.00  -4.05411393   1.71475799
2258.00  -4.06759554   1.71918713
2260.00  -4.08108698   1.72362354
2262.00  -4.09458823   1.72806723
2264.00  -4.10809929   1.73251820
2266.00  -4.12162016   1.73697646
2268.00  -4.13515082   1.74144201
2270.00  -4.14869128   1.74591486
2272.00  -4.16224153   1.75039501
2274.00  -4.17580156   1.75488246
2276.00  -4.18937137   1.75937722
2278.00  -4.20295096   1.76387930
2280.00  -4.21654031   1.76838870
2282.00  -4.23013942   1.77290542
2284.00  -4.24374830   1.77742947
2286.00  -4.25736692   1.78196085
2288.00  -4.27099530   1.78649956
2290.00  -4.28463341   1.79104562
2292.00  -4.29828127   1.79559903
2294.00  -4.31193885   1.80015978
2296.00  -4.32560616   1.80472789
2298.00  -4.33928320   1.80930336
2300.00  -4.35296995   1.81388619
2302.00  -4.36666641   1.81847639
2304.00  -4.38037258   1.82307396
2306.00  -4.39408845   1.82767890
2308.00  -4.40781401   1.83229123
2310.00  -4.42154926   1.83691095
2312.00  -4.43529420   1.84153805
2314.00  -4.44904882   1.84617255
2316.00  -4.46281312   1.85081445
2318.00  -4.47658708   1.85546375
2320.00  -4.49037071   1.86012045
2322.00  -4.50416400   1.86478457
2324.00  -4.51796694   1.86945611
2326.00  -4.53177953   1.87413507
2328.00  -4.54560177   1.87882145
2330.00  -4.55943364   1.88351526
2332.00  -4.57327515   1.88821650
2334.00  -4.58712628   1.89292519
2336.00  -4.60098704   1.89764131
2338.00  -4.61485741   1.90236488
2340.00  -4.62873739   1.90709591
2342.00  -4.64262699   1.91183438
2344.00  -4.65652618   1.91658032
2346.00  -4.67043497   1.92133372
2348.00  -4.68435335   1.92609459
2350.00  -4.69828132   1.93086294
2352.00  -4.71221887   1.93563876
2354.00  -4.72616599   1.94042206
2356.00  -4.74012269   1.94521285
2358.00  -4.75408894   1.95001112
2360.00  -4.76806476   1.95481690
2362.00  -4.78205013   1.95963017
2364.00  -4.79604506   1.96445094
2366.00  -4.81004952   1.96927922
2368.00  -4.82406352   1.97411501
2370.00  -4.83808706   1.97895832
2372.00  -4.85212013   1.98380915
2374.00  -4.86616271   1.98866750
2376.00  -4.88021482   1.99353338
2378.00  -4.89427643   1.99840679
2380.00  -4.90834756   2.00328774
2382.00  -4.92242818   2.00817623
2384.00  -4.93651830   2.01307227
2386.00  -4.95061792   2.01797586
2388.00  -4.96472702   2.02288700
2390.00  -4.97884559   2.02780569
2392.00  -4.99297365   2.03273196
2394.00  -5.00711117   2.03766578
2396.00  -5.02125816   2.04260718
2398.00  -5.03541461   2.04755615
2400.00  -5.04958051   2.05251271
2402.00  -5.06375586   2.05747684
2404.00  -5.07794065   2.06244857
2406.00  -5.09213488   2.06742788
2408.00  -5.10633854   2.07241480
2410.00  -5.12055163   2.07740931
2412.00  -5.13477414   2.08241142
2414.00  -5.14900607   2.08742115
2416.00  -5.16324741   2.09243849
2418.00  -5.17749816   2.09746344
2420.00  -5.19175831   2.10249602
2422.00  -5.20602785   2.10753622
2424.00  -5.22030678   2.11258405
2426.00  -5.23459510   2.11763951
2428.00  -5.24889279   2.12270261
2430.00  -5.26319986   2.12777336
2432.00  -5.27751630   2.13285175
2434.00  -5.29184210   2.13793779
2436.00  -5.30617726   2.14303148
2438.00  -5.32052177   2.14813283
2440.00  -5.33487563   2.15324185
2442.00  -5.34923884   2.15835853
2444.00  -5.36361137   2.16348288
2446.00  -5.37799324   2.16861491
2448.00  -5.39238444   2.17375461
2450.00  -5.40678495   2.17890200
2452.00  -5.42119478   2.18405707
2454.00  -5.43561392   2.18921984
2456.00  -5.45004237   2.19439030
2458.00  -5.46448011   2.19956846
2460.00  -5.47892715   2.20475433
2462.00  -5.49338347   2.20994790
2464.00  -5.50784908   2.21514918
2466.00  -5.52232397   2.22035818
2468.00  -5.53680813   2.22557490
2470.00  -5.55130155   2.23079934
2472.00  -5.56580424   2.23603151
2474.00  -5.58031618   2.24127141
2476.00  -5.59483737   2.24651904
2478.00  -5.60936781   2.25177442
2480.00  -5.62390749   2.25703754
2482.00  -5.63845640   2.26230841
2484.00  -5.65301454   2.26758703
2486.00  -5.66758190   2.27287340
2488.00  -5.68215849   2.27816754
2490.00  -5.69674428   2.28346944
2492.00  -5.71133929   2.28877911
2494.00  -5.72594349   2.29409654
2496.00  -5.74055689   2.29942176
2498.00  -5.75517948   2.30475475
2500.00  -5.76981126   2.31009553
2502.00  -5.78445222   2.31544410
2504.00  -5.79910236   2.32080045
2506.00  -5.81376166   2.32616461
2508.00  -5.82843013   2.33153656
2510.00  -5.84310775   2.33691632
2512.00  -5.85779453   2.34230388
2514.00  -5.87249046   2.34769926
2516.00  -5.88719553   2.35310245
2518.00  -5.90190974   2.35851346
2520.00  -5.91663307   2.36393229
2522.00  -5.93136554   2.36935895
2524.00  -5.94610712   2.37479344
2526.00  -5.96085782   2.38023577
2528.00  -5.97561763   2.38568593
2530.00  -5.99038655   2.39114394
2532.00  -6.00516456   2.39660980
2534.00  -6.01995167   2.40208350
2536.00  -6.03474786   2.40756506
2538.00  -6.04955314   2.41305448
2540.00  -6.06436750   2.41855176
2542.00  -6.07919092   2.42405691
2544.00  -6.09402342   2.42956993
2546.00  -6.10886497   2.43509082
2548.00  -6.12371558   2.44061959
2550.00  -6.13857524   2.44615624
2552.00  -6.15344394   2.45170078
2554.00  -6.16832168   2.45725320
2556.00  -6.18320846   2.46281352
2558.00  -6.19810426   2.46838174
2560.00  -6.21300909   2.47395785
2562.00  -6.22792293   2.47954188
2564.00  -6.24284579   2.48513381
2566.00  -6.25777765   2.49073365
2568.00  -6.27271851   2.49634141
2570.00  -6.28766837   2.50195709
2572.00  -6.30262722   2.50758069
2574.00  -6.31759505   2.51321222
2576.00  -6.33257186   2.51885168
2578.00  -6.34755764   2.52449908
2580.00  -6.36255239   2.53015442
2582.00  -6.37755610   2.53581769
2584.00  -6.39256877   2.54148892
2586.00  -6.40759040   2.54716810
2588.00  -6.42262096   2.55285523
2590.00  -6.43766047   2.55855032
2592.00  -6.45270891   2.56425337
2594.00  -6.46776629   2.56996438
2596.00  -6.48283258   2.57568337
2598.00  -6.49790780   2.58141032
2600.00  -6.51299192   2.58714526
2602.00  -6.52808496   2.59288817
2604.00  -6.54318689   2.59863907
2606.00  -6.55829773   2.60439796
2608.00  -6.57341745   2.61016484
2610.00  -6.58854606   2.61593971
2612.00  -6.60368355   2.62172259
2614.00  -6.61882991   2.62751346
2616.00  -6.63398514   2.63331234
2618.00  -6.64914924   2.63911924
2620.00  -6.66432219   2.64493414
2622.00  -6.67950399   2.65075707
2624.00  -6.69469465   2.65658801
2626.00  -6.70989414   2.66242698
2628.00  -6.72510247   2.66827398
2630.00  -6.74031963   2.67412902
2632.00  -6.75554561   2.67999208
2634.00  -6.77078041   2.68586319
2636.00  -6.78602403   2.69174234
2638.00  -6.80127645   2.69762954
2640.00  -6.81653768   2.70352479
2642.00  -6.83180770   2.70942809
2644.00  -6.84708652   2.71533945
2646.00  -6.86237412   2.72125887
2648.00  -6.87767050   2.72718636
2650.00  -6.89297565   2.73312192
2652.00  -6.90828958   2.73906555
2654.00  -6.92361227   2.74501725
2656.00  -6.93894371   2.75097704
2658.00  -6.95428391   2.75694491
2660.00  -6.96963286   2.76292086
2662.00  -6.98499055   2.76890491
2664.00  -7.00035697   2.77489705
2666.00  -7.01573212   2.78089729
2668.00  -7.03111600   2.78690562
2670.00  -7.04650860   2.79292207
2672.00  -7.06190991   2.79894662
2674.00  -7.07731993   2.80497929
2676.00  -7.09273865   2.81102007
2678.00  -7.10816607   2.81706897
2680.00  -7.12360218   2.82312599
2682.00  -7.13904698   2.82919114
2684.00  -7.15450046   2.83526442
2686.00  -7.16996261   2.84134583
2688.00  -7.18543343   2.84743538
2690.00  -7.20091291   2.85353307
2692.00  -7.21640105   2.85963890
2694.00  -7.23189785   2.86575288
2696.00  -7.24740329   2.87187501
2698.00  -7.26291737   2.87800530
2700.00  -7.27844009   2.88414374
2702.00  -7.29397144   2.89029035
2704.00  -7.30951141   2.89644512
2706.00  -7.32506001   2.90260806
2708.00  -7.34061721   2.90877918
2710.00  -7.35618302   2.91495846
2712.00  -7.37175744   2.92114593
2714.00  -7.38734045   2.92734158
2716.00  -7.40293205   2.93354542
2718.00  -7.41853224   2.93975744
2720.00  -7.43414101   2.94597766
2722.00  -7.44975835   2.95220608
2724.00  -7.46538426   2.95844269
2726.00  -7.48101873   2.96468751
2728.00  -7.49666176   2.97094053
2730.00  -7.51231335   2.97720177
2732.00  -7.52797348   2.98347122
2734.00  -7.54364215   2.98974888
2736.00  -7.55931935   2.99603477
2738.00  -7.57500508   3.00232888
2740.00  -7.59069934   3.00863122
2742.00  -7.60640212   3.01494179
2744.00  -7.62211340   3.02126059
2746.00  -7.63783320   3.02758763
2748.00  -7.65356149   3.03392292
2750.00  -7.66929829   3.04026644
2752.00  -7.68504357   3.04661822
2754.00  -7.70079733   3.05297824
2756.00  -7.71655958   3.05934652
2758.00  -7.73233030   3.06572306
2760.00  -7.74810948   3.07210786
2762.00  -7.76389713   3.07850093
2764.00  -7.77969323   3.08490226
2766.00  -7.79549779   3.09131186
2768.00  -7.81131079   3.09772974
2770.00  -7.82713222   3.10415590
2772.00  -7.84296210   3.11059034
2774.00  -7.85880040   3.11703306
2776.00  -7.87464712   3.12348407
2778.00  -7.89050226   3.12994338
2780.00  -7.90636581   3.13641098
2782.00  -7.92223777   3.14288687
2784.00  -7.93811813   3.14937107
2786.00  -7.95400688   3.15586357
2788.00  -7.96990402   3.16236439
2790.00  -7.98580954   3.16887351
2792.00  -8.00172344   3.17539095
2794.00  -8.01764571   3.18191670
2796.00  -8.03357635   3.18845078
2798.00  -8.04951535   3.19499318
2800.00  -8.06546270   3.20154391
2802.00  -8.08141840   3.20810297
2804.00  -8.09738245   3.21467036
2806.00  -8.11335483   3.22124610
2808.00  -8.12933554   3.22783017
2810.00  -8.14532459   3.23442259
2812.00  -8.16132195   3.24102335
2814.00  -8.17732763   3.24763247
2816.00  -8.19334161   3.25424994
2818.00  -8.20936390   3.26087577
2820.00  -8.22539449   3.26750995
2822.00  -8.24143338   3.27415250
2824.00  -8.25748054   3.28080342
2826.00  -8.27353599   3.28746271
2828.00  -8.28959972   3.29413037
2830.00  -8.30567172   3.30080641
2832.00  -8.32175197   3.30749083
2834.00  -8.33784049   3.31418363
2836.00  -8.35393726   3.32088482
2838.00  -8.37004228   3.32759440
2840.00  -8.38615554   3.33431236
2842.00  -8.40227704   3.34103873
2844.00  -8.41840676   3.34777349
2846.00  -8.43454471   3.35451666
2848.00  -8.45069088   3.36126823
2850.00  -8.46684526   3.36802821
2852.00  -8.48300785   3.37479660
2854.00  -8.49917864   3.38157341
2856.00  -8.51535763   3.38835863
2858.00  -8.53154480   3.39515228
2860.00  -8.54774017   3.40195435
2862.00  -8.56394371   3.40876484
2864.00  -8.58015542   3.41558377
2866.00  -8.59637530   3.42241113
2868.00  -8.61260335   3.42924693
2870.00  -8.62883955   3.43609117
2872.00  -8.64508390   3.44294385
2874.00  -8.66133639   3.44980497
2876.00  -8.67759702   3.45667455
2878.00  -8.69386579   3.46355257
2880.00  -8.71014269   3.47043906
2882.00  -8.72642771   3.47733400
2884.00  -8.74272084   3.48423740
2886.00  -8.75902208   3.49114927
2888.00  -8.77533143   3.49806960
2890.00  -8.79164888   3.50499841
2892.00  -8.80797442   3.51193569
2894.00  -8.82430805   3.51888145
2896.00  -8.84064976   3.52583568
2898.00  -8.85699955   3.53279840
2900.00  -8.87335741   3.53976961
2902.00  -8.88972334   3.54674930
2904.00  -8.90609732   3.55373749
2906.00  -8.92247936   3.56073417
2908.00  -8.93886944   3.56773935
2910.00  -8.95526757   3.57475303
2912.00  -8.97167373   3.58177522
2914.00  -8.98808792   3.58880591
2916.00  -9.00451014   3.59584511
2918.00  -9.02094038   3.60289283
2920.00  -9.03737863   3.60994906
2922.00  -9.05382489   3.61701381
2924.00  -9.07027915   3.62408709
2926.00  -9.08674141   3.63116889
2928.00  -9.10321166   3.63825922
2930.00  -9.11968990   3.64535807
2932.00  -9.13617611   3.65246547
2934.00  -9.15267029   3.65958140
2936.00  -9.16917245   3.66670587
2938.00  -9.18568257   3.67383888
2940.00  -9.20220064   3.68098044
2942.00  -9.21872666   3.68813055
2944.00  -9.23526063   3.69528921
2946.00  -9.25180254   3.70245643
2948.00  -9.26835238   3.70963220
2950.00  -9.28491014   3.71681653
2952.00  -9.30147583   3.72400943
2954.00  -9.31804944   3.73121089
2956.00  -9.33463096   3.73842093
2958.00  -9.35122038   3.74563953
2960.00  -9.36781770   3.75286672
2962.00  -9.38442291   3.76010247
2964.00  -9.40103601   3.76734682
2966.00  -9.41765700   3.77459974
2968.00  -9.43428585   3.78186125
2970.00  -9.45092258   3.78913135
2972.00  -9.46756718   3.79641005
2974.00  -9.48421963   3.80369734
2976.00  -9.50087993   3.81099323
2978.00  -9.51754809   3.81829772
2980.00  -9.53422408   3.82561081
2982.00  -9.55090791   3.83293251
2984.00  -9.56759957   3.84026282
2986.00  -9.58429906   3.84760174
2988.00  -9.60100636   3.85494928
2990.00  -9.61772147   3.86230544
2992.00  -9.63444440   3.86967022
2994.00  -9.65117512   3.87704362
2996.00  -9.66791364   3.88442565
2998.00  -9.68465995   3.89181631
3000.00  -9.70141404   3.89921560
3002.00  -9.71817592   3.90662353
3004.00  -9.73494556   3.91404010
3006.00  -9.75172297   3.92146530
3008.00  -9.76850814   3.92889915
3010.00  -9.78530107   3.93634165
3012.00  -9.80210175   3.94379280
3014.00  -9.81891017   3.95125260
3016.00  -9.83572632   3.95872105
3018.00  -9.85255022   3.96619816
3020.00  -9.86938183   3.97368393
3022.00  -9.88622117   3.98117837
3024.00  -9.90306822   3.98868147
3026.00  -9.91992298   3.99619324
3028.00  -9.93678545   4.00371368
3030.00  -9.95365561   4.01124279
3032.00  -9.97053347   4.01878058
3034.00  -9.98741901   4.02632706
3036.00 -10.00431223   4.03388221
3038.00 -10.02121312   4.04144605
3040.00 -10.03812169   4.04901858
3042.00 -10.05503791   4.05659979
3044.00 -10.07196180   4.06418971
3046.00 -10.08889333   4.07178831
3048.00 -10.10583251   4.07939562
3050.00 -10.12277934   4.08701163
3052.00 -10.13973379   4.09463634
3054.00 -10.15669587   4.10226976
3056.00 -10.17366558   4.10991188
3058.00 -10.19064290   4.11756272
3060.00 -10.20762784   4.12522228
3062.00 -10.22462038   4.13289055
3064.00 -10.24162052   4.14056755
3066.00 -10.25862825   4.14825326
3068.00 -10.27564357   4.15594770
3070.00 -10.29266647   4.16365087
3072.00 -10.30969695   4.17136277
3074.00 -10.32673500   4.17908341
3076.00 -10.34378061   4.18681278
3078.00 -10.36083379   4.19455089
3080.00 -10.37789451   4.20229774
3082.00 -10.39496279   4.21005333
3084.00 -10.41203860   4.21781767
3086.00 -10.42912195   4.22559076
3088.00 -10.44621283   4.23337260
3090.00 -10.46331124   4.24116320
3092.00 -10.48041716   4.24896255
3094.00 -10.49753060   4.25677067
3096.00 -10.51465154   4.26458754
3098.00 -10.53177999   4.27241318
3100.00 -10.54891593   4.28024759
3102.00 -10.56605935   4.28809077
3104.00 -10.58321027   4.29594272
3106.00 -10.60036866   4.30380345
3108.00 -10.61753452   4.31167295
3110.00 -10.63470785   4.31955124
3112.00 -10.65188864   4.32743830
3114.00 -10.66907688   4.33533415
3116.00 -10.68627258   4.34323880
3118.00 -10.70347571   4.35115223
3120.00 -10.72068629   4.35907445
3122.00 -10.73790429   4.36700547
3124.00 -10.75512973   4.37494529
3126.00 -10.77236258   4.38289391
3128.00 -10.78960284   4.39085133
3130.00 -10.80685052   4.39881755
3132.00 -10.82410559   4.40679259
3134.00 -10.84136807   4.41477644
3136.00 -10.85863793   4.42276910
3138.00 -10.87591518   4.43077057
3140.00 -10.89319981   4.43878086
3142.00 -10.91049181   4.44679998
3144.00 -10.92779118   4.45482792
3146.00 -10.94509791   4.46286468
3148.00 -10.96241200   4.47091027
3150.00 -10.97973344   4.47896469
3152.00 -10.99706222   4.48702795
3154.00 -11.01439834   4.49510004
3156.00 -11.03174180   4.50318096
3158.00 -11.04909258   4.51127073
3160.00 -11.06645068   4.51936934
3162.00 -11.08381610   4.52747680
3164.00 -11.10118883   4.53559311
3166.00 -11.11856886   4.54371826
3168.00 -11.13595619   4.55185227
3170.00 -11.15335081   4.55999513
3172.00 -11.17075272   4.56814685
3174.00 -11.18816191   4.57630743
3176.00 -11.20557837   4.58447687
3178.00 -11.22300211   4.59265518
3180.00 -11.24043310   4.60084235
3182.00 -11.25787136   4.60903840
3184.00 -11.27531686   4.61724331
3186.00 -11.29276961   4.62545710
3188.00 -11.31022961   4.63367977
3190.00 -11.32769683   4.64191131
3192.00 -11.34517128   4.65015174
3194.00 -11.36265296   4.65840105
3196.00 -11.38014185   4.66665925
3198.00 -11.39763796   4.67492633
3200.00 -11.41514126   4.68320231
3202.00 -11.43265177   4.69148718
3204.00 -11.45016947   4.69978094
3206.00 -11.46769436   4.70808361
3208.00 -11.48522643   4.71639517
3210.00 -11.50276568   4.72471563
3212.00 -11.52031210   4.73304500
3214.00 -11.53786568   4.74138328
3216.00 -11.55542642   4.74973047
3218.00 -11.57299431   4.75808657
3220.00 -11.59056935   4.76645158
3222.00 -11.60815153   4.77482551
3224.00 -11.62574084   4.78320836
3226.00 -11.64333729   4.79160013
3228.00 -11.66094086   4.80000082
3230.00 -11.67855154   4.80841044
3232.00 -11.69616934   4.81682899
3234.00 -11.71379424   4.82525647
3236.00 -11.73142625   4.83369288
3238.00 -11.74906535   4.84213822
3240.00 -11.76671154   4.85059250
3242.00 -11.78436481   4.85905572
3244.00 -11.80202515   4.86752788
3246.00 -11.81969257   4.87600899
3248.00 -11.83736706   4.88449904
3250.00 -11.85504860   4.89299804
3252.00 -11.87273720   4.90150599
3254.00 -11.89043284   4.91002290
3256.00 -11.90813553   4.91854875
3258.00 -11.92584525   4.92708357
3260.00 -11.94356200   4.93562734
3262.00 -11.96128578   4.94418008
3264.00 -11.97901658   4.95274178
3266.00 -11.99675439   4.96131245
3268.00 -12.01449920   4.96989208
3270.00 -12.03225102   4.97848069
3272.00 -12.05000984   4.98707827
3274.00 -12.06777564   4.99568482
3276.00 -12.08554843   5.00430035
3278.00 -12.10332819   5.01292486
3280.00 -12.12111493   5.02155835
3282.00 -12.13890863   5.03020082
3284.00 -12.15670929   5.03885228
3286.00 -12.17451691   5.04751273
3288.00 -12.19233148   5.05618217
3290.00 -12.21015299   5.06486060
3292.00 -12.22798144   5.07354802
3294.00 -12.24581681   5.08224444
3296.00 -12.26365912   5.09094986
3298.00 -12.28150834   5.09966428
3300.00 -12.29936448   5.10838770
3302.00 -12.31722752   5.11712013
3304.00 -12.33509747   5.12586156
3306.00 -12.35297431   5.13461201
3308.00 -12.37085805   5.14337146
3310.00 -12.38874867   5.15213993
3312.00 -12.40664616   5.16091741
3314.00 -12.42455053   5.16970392
3316.00 -12.44246177   5.17849944
3318.00 -12.46037987   5.18730398
3320.00 -12.47830482   5.19611755
3322.00 -12.49623663   5.20494014
3324.00 -12.51417527   5.21377176
3326.00 -12.53212076   5.22261241
3328.00 -12.55007308   5.23146210
3330.00 -12.56803222   5.24032081
3332.00 -12.58599819   5.24918857
3334.00 -12.60397097   5.25806536
3336.00 -12.62195055   5.26695119
3338.00 -12.63993694   5.27584607
3340.00 -12.65793013   5.28474999
3342.00 -12.67593011   5.29366295
3344.00 -12.69393688   5.30258497
3346.00 -12.71195042   5.31151603
3348.00 -12.72997074   5.32045615
3350.00 -12.74799782   5.32940532
3352.00 -12.76603167   5.33836355
3354.00 -12.78407228   5.34733084
3356.00 -12.80211963   5.35630719
3358.00 -12.82017373   5.36529260
3360.00 -12.83823457   5.37428707
3362.00 -12.85630214   5.38329061
3364.00 -12.87437644   5.39230322
3366.00 -12.89245746   5.40132491
3368.00 -12.91054519   5.41035566
3370.00 -12.92863964   5.41939549
3372.00 -12.94674078   5.42844439
3374.00 -12.96484863   5.43750237
3376.00 -12.98296317   5.44656944
3378.00 -13.00108439   5.45564558
3380.00 -13.01921230   5.46473081
3382.00 -13.03734688   5.47382513
3384.00 -13.05548812   5.48292853
3386.00 -13.07363604   5.49204103
3388.00 -13.09179060   5.50116261
3390.00 -13.10995182   5.51029330
3392.00 -13.12811969   5.51943307
3394.00 -13.14629419   5.52858195
3396.00 -13.16447533   5.53773992
3398.00 -13.18266309   5.54690700
3400.00 -13.20085748   5.55608317
3402.00 -13.21905849   5.56526846
3404.00 -13.23726610   5.57446285
3406.00 -13.25548032   5.58366635
3408.00 -13.27370114   5.59287896
3410.00 -13.29192855   5.60210069
3412.00 -13.31016254   5.61133153
3414.00 -13.32840312   5.62057148
3416.00 -13.34665028   5.62982056
3418.00 -13.36490400   5.63907876
3420.00 -13.38316429   5.64834607
3422.00 -13.40143113   5.65762252
3424.00 -13.41970453   5.66690808
3426.00 -13.43798447   5.67620278
3428.00 -13.45627095   5.68550661
3430.00 -13.47456397   5.69481956
3432.00 -13.49286352   5.70414165
3434.00 -13.51116959   5.71347288
3436.00 -13.52948217   5.72281324
3438.00 -13.54780127   5.73216274
3440.00 -13.56612687   5.74152139
3442.00 -13.58445897   5.75088917
3444.00 -13.60279757   5.76026610
3446.00 -13.62114265   5.76965218
3448.00 -13.63949422   5.77904740
3450.00 -13.65785226   5.78845177
3452.00 -13.67621677   5.79786530
3454.00 -13.69458775   5.80728797
3456.00 -13.71296518   5.81671981
3458.00 -13.73134907   5.82616080
3460.00 -13.74973940   5.83561094
3462.00 -13.76813618   5.84507025
3464.00 -13.78653939   5.85453872
3466.00 -13.80494903   5.86401636
3468.00 -13.82336509   5.87350316
3470.00 -13.84178758   5.88299912
3472.00 -13.86021647   5.89250426
3474.00 -13.87865177   5.90201857
3476.00 -13.89709347   5.91154205
3478.00 -13.91554156   5.92107470
3480.00 -13.93399605   5.93061653
3482.00 -13.95245691   5.94016754
3484.00 -13.97092415   5.94972773
3486.00 -13.98939777   5.95929709
3488.00 -14.00787775   5.96887565
3490.00 -14.02636409   5.97846338
3492.00 -14.04485678   5.98806030
3494.00 -14.06335582   5.99766641
3496.00 -14.08186120   6.00728171
3498.00 -14.10037292   6.01690620
3500.00 -14.11889096   6.02653989
3502.00 -14.13741534   6.03618277
3504.00 -14.15594603   6.04583484
3506.00 -14.17448303   6.05549612
3508.00 -14.19302634   6.06516659
3510.00 -14.21157595   6.07484626
3512.00 -14.23013186   6.08453514
3514.00 -14.24869406   6.09423322
3516.00 -14.26726254   6.10394051
3518.00 -14.28583729   6.11365701
3520.00 -14.30441832   6.12338272
3522.00 -14.32300562   6.13311763
3524.00 -14.34159918   6.14286176
3526.00 -14.36019899   6.15261511
3528.00 -14.37880504   6.16237767
3530.00 -14.39741735   6.17214945
3532.00 -14.41603589   6.18193045
3534.00 -14.43466066   6.19172067
3536.00 -14.45329165   6.20152011
3538.00 -14.47192887   6.21132877
3540.00 -14.49057229   6.22114666
3542.00 -14.50922193   6.23097378
3544.00 -14.52787777   6.24081013
3546.00 -14.54653980   6.25065571
3548.00 -14.56520803   6.26051052
3550.00 -14.58388244   6.27037457
3552.00 -14.60256303   6.28024784
3554.00 -14.62124979   6.29013036
3556.00 -14.63994271   6.30002212
3558.00 -14.65864180   6.30992311
3560.00 -14.67734705   6.31983335
3562.00 -14.69605844   6.32975283
3564.00 -14.71477598   6.33968155
3566.00 -14.73349965   6.34961952
3568.00 -14.75222946   6.35956674
3570.00 -14.77096540   6.36952320
3572.00 -14.78970745   6.37948892
3574.00 -14.80845562   6.38946389
3576.00 -14.82720990   6.39944811
3578.00 -14.84597028   6.40944159
3580.00 -14.86473676   6.41944433
3582.00 -14.88350933   6.42945632
3584.00 -14.90228798   6.43947757
3586.00 -14.92107271   6.44950809
3588.00 -14.93986352   6.45954786
3590.00 -14.95866040   6.46959690
3592.00 -14.97746334   6.47965521
3594.00 -14.99627233   6.48972279
3596.00 -15.01508738   6.49979963
3598.00 -15.03390847   6.50988574
3600.00 -15.05273560   6.51998113
3602.00 -15.07156876   6.53008578
3604.00 -15.09040795   6.54019972
3606.00 -15.10925316   6.55032292
3608.00 -15.12810439   6.56045541
3610.00 -15.14696162   6.57059717
3612.00 -15.16582486   6.58074822
3614.00 -15.18469410   6.59090854
3616.00 -15.20356934   6.60107815
3618.00 -15.22245055   6.61125705
3620.00 -15.24133775   6.62144523
3622.00 -15.26023093   6.63164269
3624.00 -15.27913007   6.64184945
3626.00 -15.29803517   6.65206550
3628.00 -15.31694624   6.66229083
3630.00 -15.33586325   6.67252546
3632.00 -15.35478621   6.68276939
3634.00 -15.37371512   6.69302261
3636.00 -15.39264995   6.70328513
3638.00 -15.41159072   6.71355695
3640.00 -15.43053740   6.72383806
3642.00 -15.44949001   6.73412848
3644.00 -15.46844852   6.74442820
3646.00 -15.48741294   6.75473723
3648.00 -15.50638326   6.76505556
3650.00 -15.52535947   6.77538319
3652.00 -15.54434157   6.78572014
3654.00 -15.56332956   6.79606639
3656.00 -15.58232341   6.80642196
3658.00 -15.60132314   6.81678684
3660.00 -15.62032874   6.82716103
3662.00 -15.63934019   6.83754453
3664.00 -15.65835750   6.84793736
3666.00 -15.67738065   6.85833950
3668.00 -15.69640964   6.86875096
3670.00 -15.71544447   6.87917173
3672.00 -15.73448513   6.88960183
3674.00 -15.75353161   6.90004126
3676.00 -15.77258392   6.91049000
3678.00 -15.79164203   6.92094807
3680.00 -15.81070595   6.93141547
3682.00 -15.82977567   6.94189220
3684.00 -15.84885119   6.95237826
3686.00 -15.86793249   6.96287364
3688.00 -15.88701958   6.97337836
3690.00 -15.90611244   6.98389241
3692.00 -15.92521108   6.99441580
3694.00 -15.94431549   7.00494852
3696.00 -15.96342565   7.01549057
3698.00 -15.98254157   7.02604197
3700.00 -16.00166323   7.03660271
3702.00 -16.02079064   7.04717278
3704.00 -16.03992379   7.05775220
3706.00 -16.05906267   7.06834096
3708.00 -16.07820727   7.07893906
3710.00 -16.09735759   7.08954651
3712.00 -16.11651363   7.10016331
3714.00 -16.13567537   7.11078945
3716.00 -16.15484282   7.12142495
3718.00 -16.17401596   7.13206979
3720.00 -16.19319480   7.14272399
3722.00 -16.21237931   7.15338754
3724.00 -16.23156951   7.16406044
3726.00 -16.25076538   7.17474270
3728.00 -16.26996692   7.18543431
3730.00 -16.28917412   7.19613528
3732.00 -16.30838697   7.20684561
3734.00 -16.32760548   7.21756530
3736.00 -16.34682963   7.22829435
3738.00 -16.36605942   7.23903277
3740.00 -16.38529484   7.24978054
3742.00 -16.40453589   7.26053769
3744.00 -16.42378256   7.27130419
3746.00 -16.44303484   7.28208007
3748.00 -16.46229274   7.29286531
3750.00 -16.48155623   7.30365992
3752.00 -16.50082533   7.31446390
3754.00 -16.52010002   7.32527726
3756.00 -16.53938029   7.33609998
3758.00 -16.55866615   7.34693208
3760.00 -16.57795758   7.35777356
3762.00 -16.59725458   7.36862441
3764.00 -16.61655714   7.37948463
3766.00 -16.63586527   7.39035424
3768.00 -16.65517894   7.40123322
3770.00 -16.67449816   7.41212159
3772.00 -16.69382292   7.42301934
3774.00 -16.71315321   7.43392647
3776.00 -16.73248903   7.44484298
3778.00 -16.75183038   7.45576888
3780.00 -16.77117724   7.46670416
3782.00 -16.79052961   7.47764883
3784.00 -16.80988749   7.48860289
3786.00 -16.82925087   7.49956634
3788.00 -16.84861975   7.51053917
3790.00 -16.86799411   7.52152140
3792.00 -16.88737395   7.53251302
3794.00 -16.90675927   7.54351404
3796.00 -16.92615007   7.55452445
3798.00 -16.94554632   7.56554425
3800.00 -16.96494804   7.57657345
3802.00 -16.98435521   7.58761205
3804.00 -17.00376783   7.59866005
3806.00 -17.02318589   7.60971744
3808.00 -17.04260939   7.62078424
3810.00 -17.06203832   7.63186044
3812.00 -17.08147267   7.64294604
3814.00 -17.10091244   7.65404104
3816.00 -17.12035763   7.66514545
3818.00 -17.13980822   7.67625927
3820.00 -17.15926422   7.68738249
3822.00 -17.17872561   7.69851512
3824.00 -17.19819239   7.70965716
3826.00 -17.21766456   7.72080860
3828.00 -17.23714210   7.73196946
3830.00 -17.25662502   7.74313973
3832.00 -17.27611331   7.75431941
3834.00 -17.29560695   7.76550851
3836.00 -17.31510596   7.77670702
3838.00 -17.33461031   7.78791494
3840.00 -17.35412001   7.79913228
3842.00 -17.37363505   7.81035904
3844.00 -17.39315542   7.82159522
3846.00 -17.41268111   7.83284082
3848.00 -17.43221213   7.84409583
3850.00 -17.45174846   7.85536027
3852.00 -17.47129011   7.86663413
3854.00 -17.49083705   7.87791741
3856.00 -17.51038930   7.88921012
3858.00 -17.52994684   7.90051225
3860.00 -17.54950967   7.91182381
3862.00 -17.56907777   7.92314479
3864.00 -17.58865115   7.93447520
3866.00 -17.60822981   7.94581504
3868.00 -17.62781372   7.95716431
3870.00 -17.64740290   7.96852301
3872.00 -17.66699732   7.97989114
3874.00 -17.68659700   7.99126870
3876.00 -17.70620191   8.00265570
3878.00 -17.72581206   8.01405213
3880.00 -17.74542744   8.02545799
3882.00 -17.76504804   8.03687329
3884.00 -17.78467386   8.04829803
3886.00 -17.80430490   8.05973220
3888.00 -17.82394114   8.07117581
3890.00 -17.84358258   8.08262886
3892.00 -17.86322921   8.09409135
3894.00 -17.88288104   8.10556328
3896.00 -17.90253805   8.11704465
3898.00 -17.92220024   8.12853547
3900.00 -17.94186760   8.14003573
3902.00 -17.96154012   8.15154543
3904.00 -17.98121781   8.16306457
3906.00 -18.00090065   8.17459317
3908.00 -18.02058864   8.18613121
3910.00 -18.04028178   8.19767869
3912.00 -18.05998005   8.20923563
3914.00 -18.07968346   8.22080201
3916.00 -18.09939199   8.23237784
3918.00 -18.11910564   8.24396312
3920.00 -18.13882441   8.25555786
3922.00 -18.15854828   8.26716205
3924.00 -18.17827726   8.27877569
3926.00 -18.19801134   8.29039878
3928.00 -18.21775051   8.30203133
3930.00 -18.23749477   8.31367333
3932.00 -18.25724411   8.32532479
3934.00 -18.27699852   8.33698571
3936.00 -18.29675800   8.34865608
3938.00 -18.31652255   8.36033591
3940.00 -18.33629215   8.37202520
3942.00 -18.35606681   8.38372395
3944.00 -18.37584651   8.39543216
3946.00 -18.39563125   8.40714984
3948.00 -18.41542103   8.41887697
3950.00 -18.43521584   8.43061357
3952.00 -18.45501567   8.44235963
3954.00 -18.47482052   8.45411516
3956.00 -18.49463038   8.46588015
3958.00 -18.51444525   8.47765460
3960.00 -18.53426512   8.48943852
3962.00 -18.55408999   8.50123191
3964.00 -18.57391984   8.51303477
3966.00 -18.59375468   8.52484709
3968.00 -18.61359450   8.53666889
3970.00 -18.63343928   8.54850015
3972.00 -18.65328904   8.56034089
3974.00 -18.67314376   8.57219110
3976.00 -18.69300343   8.58405077
3978.00 -18.71286805   8.59591992
3980.00 -18.73273762   8.60779855
3982.00 -18.75261212   8.61968665
3984.00 -18.77249156   8.63158422
3986.00 -18.79237592   8.64349127
3988.00 -18.81226520   8.65540779
3990.00 -18.83215941   8.66733379
3992.00 -18.85205852   8.67926927
3994.00 -18.87196253   8.69121423
3996.00 -18.89187144   8.70316866
3998.00 -18.91178525   8.71513258
4000.00 -18.93170394   8.72710597
4002.00 -18.95162752   8.73908884
4004.00 -18.97155597   8.75108120
4006.00 -18.99148929   8.76308304
4008.00 -19.01142747   8.77509436
4010.00 -19.03137052   8.78711516
4012.00 -19.05131841   8.79914544
4014.00 -19.07127116   8.81118521
4016.00 -19.09122874   8.82323447
4018.00 -19.11119117   8.83529321
4020.00 -19.13115842   8.84736143
4022.00 -19.15113050   8.85943915
4024.00 -19.17110739   8.87152635
4026.00 -19.19108910   8.88362303
4028.00 -19.21107562   8.89572921
4030.00 -19.23106694   8.90784487
4032.00 -19.25106306   8.91997003
4034.00 -19.27106397   8.93210467
4036.00 -19.29106966   8.94424881
4038.00 -19.31108013   8.95640243
4040.00 -19.33109538   8.96856555
4042.00 -19.35111539   8.98073816
4044.00 -19.37114017   8.99292026
4046.00 -19.39116970   9.00511186
4048.00 -19.41120399   9.01731295
4050.00 -19.43124302   9.02952354
4052.00 -19.45128679   9.04174361
4054.00 -19.47133529   9.05397319
4056.00 -19.49138852   9.06621226
4058.00 -19.51144648   9.07846083
4060.00 -19.53150915   9.09071889
4062.00 -19.55157654   9.10298645
4064.00 -19.57164863   9.11526352
4066.00 -19.59172542   9.12755007
4068.00 -19.61180691   9.13984613
4070.00 -19.63189308   9.15215169
4072.00 -19.65198394   9.16446675
4074.00 -19.67207948   9.17679131
4076.00 -19.69217969   9.18912536
4078.00 -19.71228457   9.20146893
4080.00 -19.73239410   9.21382199
4082.00 -19.75250829   9.22618455
4084.00 -19.77262714   9.23855662
4086.00 -19.79275062   9.25093819
4088.00 -19.81287875   9.26332927
4090.00 -19.83301150   9.27572985
4092.00 -19.85314889   9.28813993
4094.00 -19.87329089   9.30055952
4096.00 -19.89343751   9.31298862
4098.00 -19.91358875   9.32542722
4100.00 -19.93374458   9.33787533
4102.00 -19.95390502   9.35033295
4104.00 -19.97407005   9.36280007
4106.00 -19.99423966   9.37527670
4108.00 -20.01441386   9.38776284
4110.00 -20.03459264   9.40025849
4112.00 -20.05477598   9.41276364
4114.00 -20.07496390   9.42527831
4116.00 -20.09515637   9.43780249
4118.00 -20.11535339   9.45033618
4120.00 -20.13555497   9.46287937
4122.00 -20.15576108   9.47543208
4124.00 -20.17597174   9.48799430
4126.00 -20.19618692   9.50056604
4128.00 -20.21640664   9.51314728
4130.00 -20.23663087   9.52573804
4132.00 -20.25685962   9.53833831
4134.00 -20.27709287   9.55094809
4136.00 -20.29733063   9.56356739
4138.00 -20.31757289   9.57619621
4140.00 -20.33781964   9.58883453
4142.00 -20.35807088   9.60148238
4144.00 -20.37832660   9.61413973
4146.00 -20.39858679   9.62680661
4148.00 -20.41885146   9.63948300
4150.00 -20.43912059   9.65216890
4152.00 -20.45939417   9.66486432
4154.00 -20.47967222   9.67756926
4156.00 -20.49995470   9.69028372
4158.00 -20.52024164   9.70300769
4160.00 -20.54053300   9.71574119
4162.00 -20.56082880   9.72848420
4164.00 -20.58112903   9.74123673
4166.00 -20.60143367   9.75399877
4168.00 -20.62174273   9.76677034
4170.00 -20.64205619   9.77955143
4172.00 -20.66237406   9.79234204
4174.00 -20.68269633   9.80514216
4176.00 -20.70302299   9.81795181
4178.00 -20.72335403   9.83077098
4180.00 -20.74368946   9.84359967
4182.00 -20.76402926   9.85643788
4184.00 -20.78437343   9.86928562
4186.00 -20.80472197   9.88214287
4188.00 -20.82507486   9.89500965
4190.00 -20.84543210   9.90788595
4192.00 -20.86579370   9.92077177
4194.00 -20.88615963   9.93366711
4196.00 -20.90652990   9.94657198
4198.00 -20.92690451   9.95948638
4200.00 -20.94728343   9.97241029
4202.00 -20.96766668   9.98534373
4204.00 -20.98805424   9.99828670
4206.00 -21.00844611  10.01123918
4208.00 -21.02884228  10.02420120
4210.00 -21.04924275  10.03717274
4212.00 -21.06964751  10.05015380
4214.00 -21.09005656  10.06314439
4216.00 -21.11046988  10.07614450
4218.00 -21.13088749  10.08915414
4220.00 -21.15130936  10.10217331
4222.00 -21.17173549  10.11520200
4224.00 -21.19216589  10.12824022
4226.00 -21.21260054  10.14128797
4228.00 -21.23303943  10.15434524
4230.00 -21.25348257  10.16741204
4232.00 -21.27392994  10.18048837
4234.00 -21.29438154  10.19357422
4236.00 -21.31483737  10.20666961
4238.00 -21.33529742  10.21977452
4240.00 -21.35576168  10.23288895
4242.00 -21.37623015  10.24601292
4244.00 -21.39670283  10.25914642
4246.00 -21.41717970  10.27228944
4248.00 -21.43766076  10.28544199
4250.00 -21.45814601  10.29860407
4252.00 -21.47863544  10.31177568
4254.00 -21.49912905  10.32495682
4256.00 -21.51962683  10.33814749
4258.00 -21.54012877  10.35134769
4260.00 -21.56063487  10.36455741
4262.00 -21.58114512  10.37777667
4264.00 -21.60165952  10.39100546
4266.00 -21.62217806  10.40424377
4268.00 -21.64270074  10.41749162
4270.00 -21.66322755  10.43074900
4272.00 -21.68375849  10.44401591
4274.00 -21.70429355  10.45729234
4276.00 -21.72483272  10.47057831
4278.00 -21.74537600  10.48387381
4280.00 -21.76592339  10.49717884
4282.00 -21.78647487  10.51049340
4284.00 -21.80703044  10.52381749
4286.00 -21.82759011  10.53715112
4288.00 -21.84815385  10.55049427
4290.00 -21.86872167  10.56384696
4292.00 -21.88929356  10.57720917
4294.00 -21.90986952  10.59058092
4296.00 -21.93044954  10.60396220
4298.00 -21.95103361  10.61735301
4300.00 -21.97162173  10.63075335
4302.00 -21.99221389  10.64416323
4304.00 -22.01281009  10.65758263
4306.00 -22.03341032  10.67101157
4308.00 -22.05401458  10.68445004
4310.00 -22.07462286  10.69789804
4312.00 -22.09523516  10.71135558
4314.00 -22.11585146  10.72482264
4316.00 -22.13647178  10.73829924
4318.00 -22.15709609  10.75178537
4320.00 -22.17772439  10.76528103
4322.00 -22.19835668  10.77878622
4324.00 -22.21899296  10.79230095
4326.00 -22.23963321  10.80582521
4328.00 -22.26027744  10.81935900
4330.00 -22.28092563  10.83290232
4332.00 -22.30157778  10.84645518
4334.00 -22.32223389  10.86001756
4336.00 -22.34289395  10.87358948
4338.00 -22.36355796  10.88717093
4340.00 -22.38422590  10.90076192
4342.00 -22.40489777  10.91436243
4344.00 -22.42557358  10.92797248
4346.00 -22.44625331  10.94159206
4348.00 -22.46693695  10.95522117
4350.00 -22.48762451  10.96885982
4352.00 -22.50831597  10.98250800
4354.00 -22.52901133  10.99616570
4356.00 -22.54971059  11.00983294
4358.00 -22.57041374  11.02350972
4360.00 -22.59112078  11.03719602
4362.00 -22.61183169  11.05089186
4364.00 -22.63254648  11.06459723
4366.00 -22.65326513  11.07831213
4368.00 -22.67398765  11.09203656
4370.00 -22.69471403  11.10577052
4372.00 -22.71544425  11.11951402
4374.00 -22.73617833  11.13326705
4376.00 -22.75691624  11.14702961
4378.00 -22.77765799  11.16080170
4380.00 -22.79840358  11.17458332
4382.00 -22.81915298  11.18837447
4384.00 -22.83990621  11.20217515
4386.00 -22.86066325  11.21598537
4388.00 -22.88142409  11.22980512
4390.00 -22.90218874  11.24363439
4392.00 -22.92295719  11.25747320
4394.00 -22.94372943  11.27132154
4396.00 -22.96450546  11.28517941
4398.00 -22.98528527  11.29904681
4400.00 -23.00606885  11.31292374
4402.00 -23.02685621  11.32681020
4404.00 -23.04764733  11.34070619
4406.00 -23.06844221  11.35461171
4408.00 -23.08924084  11.36852676
4410.00 -23.11004323  11.38245134
4412.00 -23.13084935  11.39638545
4414.00 -23.15165922  11.41032909
4416.00 -23.17247282  11.42428226
4418.00 -23.19329014  11.43824496
4420.00 -23.21411119  11.45221719
4422.00 -23.23493595  11.46619895
4424.00 -23.25576443  11.48019023
4426.00 -23.27659661  11.49419105
4428.00 -23.29743249  11.50820139
4430.00 -23.31827206  11.52222126
4432.00 -23.33911533  11.53625066
4434.00 -23.35996227  11.55028959
4436.00 -23.38081290  11.56433805
4438.00 -23.40166720  11.57839603
4440.00 -23.42252517  11.59246354
4442.00 -23.44338680  11.60654058
4444.00 -23.46425209  11.62062714
4446.00 -23.48512103  11.63472324
4448.00 -23.50599362  11.64882886
4450.00 -23.52686985  11.66294400
4452.00 -23.54774971  11.67706867
4454.00 -23.56863320  11.69120287
4456.00 -23.58952032  11.70534659
4458.00 -23.61041106  11.71949984
4460.00 -23.63130541  11.73366262
4462.00 -23.65220337  11.74783492
4464.00 -23.67310494  11.76201675
4466.00 -23.69401010  11.77620810
4468.00 -23.71491885  11.79040897
4470.00 -23.73583120  11.80461937
4472.00 -23.75674712  11.81883930
4474.00 -23.77766662  11.83306874
4476.00 -23.79858969  11.84730771
4478.00 -23.81951633  11.86155621
4480.00 -23.84044653  11.87581423
4482.00 -23.86138028  11.89008177
4484.00 -23.88231759  11.90435883
4486.00 -23.90325844  11.91864542
4488.00 -23.92420282  11.93294153
4490.00 -23.94515074  11.94724716
4492.00 -23.96610219  11.96156231
4494.00 -23.98705717  11.97588698
4496.00 -24.00801566  11.99022118
4498.00 -24.02897766  12.00456489
4500.00 -24.04994317  12.01891813
4502.00 -24.07091218  12.03328088
4504.00 -24.09188469  12.04765316
4506.00 -24.11286069  12.06203495
4508.00 -24.13384017  12.07642627
4510.00 -24.15482314  12.09082710
4512.00 -24.17580958  12.10523746
4514.00 -24.19679949  12.11965733
4516.00 -24.21779287  12.13408672
4518.00 -24.23878970  12.14852563
4520.00 -24.25978999  12.16297405
4522.00 -24.28079372  12.17743199
4524.00 -24.30180090  12.19189945
4526.00 -24.32281152  12.20637643
4528.00 -24.34382557  12.22086292
4530.00 -24.36484305  12.23535893
4532.00 -24.38586394  12.24986445
4534.00 -24.40688826  12.26437949
4536.00 -24.42791599  12.27890404
4538.00 -24.44894712  12.29343811
4540.00 -24.46998165  12.30798169
4542.00 -24.49101958  12.32253479
4544.00 -24.51206090  12.33709740
4546.00 -24.53310560  12.35166952
4548.00 -24.55415369  12.36625116
4550.00 -24.57520514  12.38084231
4552.00 -24.59625997  12.39544297
4554.00 -24.61731816  12.41005314
4556.00 -24.63837971  12.42467282
4558.00 -24.65944461  12.43930201
4560.00 -24.68051286  12.45394072
4562.00 -24.70158445  12.46858893
4564.00 -24.72265938  12.48324666
4566.00 -24.74373764  12.49791389
4568.00 -24.76481922  12.51259063
4570.00 -24.78590413  12.52727689
4572.00 -24.80699236  12.54197265
4574.00 -24.82808389  12.55667791
4576.00 -24.84917873  12.57139269
4578.00 -24.87027687  12.58611697
4580.00 -24.89137831  12.60085076
4582.00 -24.91248304  12.61559405
4584.00 -24.93359105  12.63034685
4586.00 -24.95470233  12.64510916
4588.00 -24.97581690  12.65988097
4590.00 -24.99693473  12.67466228
4592.00 -25.01805582  12.68945310
4594.00 -25.03918018  12.70425342
4596.00 -25.06030778  12.71906325
4598.00 -25.08143864  12.73388258
4600.00 -25.10257273  12.74871141
4602.00 -25.12371007  12.76354974
4604.00 -25.14485063  12.77839757
4606.00 -25.16599442  12.79325491
4608.00 -25.18714144  12.80812174
4610.00 -25.20829166  12.82299808
4612.00 -25.22944510  12.83788391
4614.00 -25.25060175  12.85277924
4616.00 -25.27176160  12.86768407
4618.00 -25.29292464  12.88259840
4620.00 -25.31409087  12.89752223
4622.00 -25.33526028  12.91245556
4624.00 -25.35643288  12.92739838
4626.00 -25.37760865  12.94235069
4628.00 -25.39878759  12.95731251
4630.00 -25.41996969  12.97228382
4632.00 -25.44115495  12.98726462
4634.00 -25.46234337  13.00225491
4636.00 -25.48353493  13.01725471
4638.00 -25.50472963  13.03226399
4640.00 -25.52592748  13.04728276
4642.00 -25.54712845  13.06231103
4644.00 -25.56833256  13.07734879
4646.00 -25.58953978  13.09239604
4648.00 -25.61075012  13.10745279
4650.00 -25.63196358  13.12251902
4652.00 -25.65318014  13.13759474
4654.00 -25.67439980  13.15267995
4656.00 -25.69562255  13.16777465
4658.00 -25.71684840  13.18287883
4660.00 -25.73807733  13.19799251
4662.00 -25.75930935  13.21311567
4664.00 -25.78054444  13.22824831
4666.00 -25.80178260  13.24339044
4668.00 -25.82302382  13.25854206
4670.00 -25.84426810  13.27370316
4672.00 -25.86551544  13.28887375
4674.00 -25.88676583  13.30405382
4676.00 -25.90801926  13.31924337
4678.00 -25.92927573  13.33444241
4680.00 -25.95053524  13.34965092
4682.00 -25.97179777  13.36486892
4684.00 -25.99306333  13.38009640
4686.00 -26.01433190  13.39533336
4688.00 -26.03560349  13.41057979
4690.00 -26.05687808  13.42583571
4692.00 -26.07815568  13.44110111
4694.00 -26.09943628  13.45637598
4696.00 -26.12071987  13.47166033
4698.00 -26.14200644  13.48695415
4700.00 -26.16329600  13.50225745
4702.00 -26.18458853  13.51757023
4704.00 -26.20588404  13.53289248
4706.00 -26.22718251  13.54822421
4708.00 -26.24848394  13.56356541
4710.00 -26.26978834  13.57891608
4712.00 -26.29109568  13.59427622
4714.00 -26.31240596  13.60964584
4716.00 -26.33371919  13.62502492
4718.00 -26.35503536  13.64041348
4720.00 -26.37635445  13.65581150
4722.00 -26.39767647  13.67121900
4724.00 -26.41900141  13.68663596
4726.00 -26.44032927  13.70206239
4728.00 -26.46166003  13.71749829
4730.00 -26.48299370  13.73294365
4732.00 -26.50433027  13.74839848
4734.00 -26.52566973  13.76386278
4736.00 -26.54701209  13.77933654
4738.00 -26.56835733  13.79481976
4740.00 -26.58970544  13.81031245
4742.00 -26.61105643  13.82581459
4744.00 -26.63241030  13.84132620
4746.00 -26.65376702  13.85684728
4748.00 -26.67512660  13.87237781
4750.00 -26.69648904  13.88791780
4752.00 -26.71785432  13.90346725
4754.00 -26.73922245  13.91902616
4756.00 -26.76059342  13.93459452
4758.00 -26.78196722  13.95017235
4760.00 -26.80334385  13.96575963
4762.00 -26.82472330  13.98135636
4764.00 -26.84610557  13.99696255
4766.00 -26.86749065  14.01257819
4768.00 -26.88887854  14.02820329
4770.00 -26.91026923  14.04383784
4772.00 -26.93166272  14.05948184
4774.00 -26.95305900  14.07513530
4776.00 -26.97445807  14.09079820
4778.00 -26.99585992  14.10647055
4780.00 -27.01726455  14.12215236
4782.00 -27.03867195  14.13784361
4784.00 -27.06008212  14.15354431
4786.00 -27.08149505  14.16925445
4788.00 -27.10291073  14.18497404
4790.00 -27.12432917  14.20070308
4792.00 -27.14575036  14.21644156
4794.00 -27.16717428  14.23218949
4796.00 -27.18860095  14.24794686
4798.00 -27.21003034  14.26371367
4800.00 -27.23146246  14.27948992
4802.00 -27.25289730  14.29527561
4804.00 -27.27433486  14.31107075
4806.00 -27.29577513  14.32687532
4808.00 -27.31721811  14.34268933
4810.00 -27.33866378  14.35851278
4812.00 -27.36011216  14.37434567
4814.00 -27.38156322  14.39018799
4816.00 -27.40301697  14.40603975
4818.00 -27.42447340  14.42190094
4820.00 -27.44593251  14.43777157
4822.00 -27.46739428  14.45365163
4824.00 -27.48885873  14.46954112
4826.00 -27.51032583  14.48544004
4828.00 -27.53179559  14.50134840
4830.00 -27.55326800  14.51726618
4832.00 -27.57474305  14.53319340
4834.00 -27.59622075  14.54913004
4836.00 -27.61770108  14.56507611
4838.00 -27.63918404  14.58103160
4840.00 -27.66066963  14.59699652
4842.00 -27.68215784  14.61297087
4844.00 -27.70364866  14.62895464
4846.00 -27.72514209  14.64494784
4848.00 -27.74663813  14.66095045
4850.00 -27.76813677  14.67696249
4852.00 -27.78963801  14.69298395
4854.00 -27.81114183  14.70901483
4856.00 -27.83264824  14.72505513
4858.00 -27.85415723  14.74110485
4860.00 -27.87566880  14.75716398
4862.00 -27.89718294  14.77323254
4864.00 -27.91869964  14.78931050
4866.00 -27.94021890  14.80539789
4868.00 -27.96174072  14.82149468
4870.00 -27.98326509  14.83760089
4872.00 -28.00479200  14.85371651
4874.00 -28.02632145  14.86984155
4876.00 -28.04785344  14.88597599
4878.00 -28.06938796  14.90211985
4880.00 -28.09092500  14.91827311
4882.00 -28.11246457  14.93443578
4884.00 -28.13400665  14.95060786
4886.00 -28.15555124  14.96678934
4888.00 -28.17709833  14.98298023
4890.00 -28.19864793  14.99918053
4892.00 -28.22020002  15.01539023
4894.00 -28.24175460  15.03160933
4896.00 -28.26331167  15.04783783
4898.00 -28.28487122  15.06407573
4900.00 -28.30643325  15.08032304
4902.00 -28.32799774  15.09657974
4904.00 -28.34956470  15.11284584
4906.00 -28.37113412  15.12912134
4908.00 -28.39270600  15.14540623
4910.00 -28.41428032  15.16170052
4912.00 -28.43585710  15.17800421
4914.00 -28.45743631  15.19431728
4916.00 -28.47901796  15.21063976
4918.00 -28.50060204  15.22697162
4920.00 -28.52218855  15.24331287
4922.00 -28.54377748  15.25966351
4924.00 -28.56536882  15.27602355
4926.00 -28.58696258  15.29239297
4928.00 -28.60855874  15.30877177
4930.00 -28.63015730  15.32515997
4932.00 -28.65175826  15.34155755
4934.00 -28.67336161  15.35796451
4936.00 -28.69496735  15.37438085
4938.00 -28.71657547  15.39080658
4940.00 -28.73818597  15.40724169
4942.00 -28.75979883  15.42368618
4944.00 -28.78141407  15.44014005
4946.00 -28.80303166  15.45660330
4948.00 -28.82465162  15.47307592
4950.00 -28.84627392  15.48955793
4952.00 -28.86789857  15.50604930
4954.00 -28.88952557  15.52255006
4956.00 -28.91115490  15.53906018
4958.00 -28.93278657  15.55557968
4960.00 -28.95442056  15.57210855
4962.00 -28.97605687  15.58864679
4964.00 -28.99769551  15.60519440
4966.00 -29.01933645  15.62175138
4968.00 -29.04097970  15.63831772
4970.00 -29.06262526  15.65489344
4972.00 -29.08427311  15.67147851
4974.00 -29.10592326  15.68807296
4976.00 -29.12757570  15.70467676
4978.00 -29.14923042  15.72128993
4980.00 -29.17088741  15.73791246
4982.00 -29.19254669  15.75454435
4984.00 -29.21420823  15.77118561
4986.00 -29.23587203  15.78783621
4988.00 -29.25753809  15.80449618
4990.00 -29.27920641  15.82116550
4992.00 -29.30087698  15.83784418
4994.00 -29.32254979  15.85453222
4996.00 -29.34422484  15.87122960
4998.00 -29.36590213  15.88793634
5000.00 -29.38758164  15.90465243
