wavelength(nm)         real         imag
100.00   3.71016710   0.00181403
102.00   3.70249858   0.00192505
104.00   3.69467826   0.00204052
106.00   3.68670616   0.00216051
108.00   3.67858227   0.00228512
110.00   3.67030659   0.00241442
112.00   3.66187914   0.00254852
114.00   3.65329991   0.00268749
116.00   3.64456891   0.00283142
118.00   3.63568614   0.00298040
120.00   3.62665160   0.00313451
122.00   3.61746531   0.00329385
124.00   3.60812726   0.00345850
126.00   3.59863746   0.00362854
128.00   3.58899590   0.00380407
130.00   3.57920261   0.00398516
132.00   3.56925757   0.00417192
134.00   3.55916080   0.00436442
136.00   3.54891230   0.00456275
138.00   3.53851207   0.00476700
140.00   3.52796013   0.00497725
142.00   3.51725646   0.00519360
144.00   3.50640108   0.00541612
146.00   3.49539399   0.00564491
148.00   3.48423520   0.00588005
150.00   3.47292472   0.00612164
152.00   3.46146254   0.00636975
154.00   3.44984867   0.00662447
156.00   3.43808312   0.00688589
158.00   3.42616589   0.00715411
160.00   3.41409699   0.00742919
162.00   3.40187642   0.00771124
164.00   3.38950419   0.00800033
166.00   3.37698030   0.00829656
168.00   3.36430476   0.00860001
170.00   3.35147758   0.00891077
172.00   3.33849875   0.00922892
174.00   3.32536829   0.00955456
176.00   3.31208621   0.00988777
178.00   3.29865250   0.01022863
180.00   3.28506717   0.01057723
182.00   3.27133024   0.01093367
184.00   3.25744169   0.01129802
186.00   3.24340155   0.01167037
188.00   3.22920982   0.01205082
190.00   3.21486650   0.01243944
192.00   3.20037160   0.01283632
194.00   3.18572513   0.01324156
196.00   3.17092709   0.01365523
198.00   3.15597749   0.01407742
200.00   3.14087634   0.01450823
202.00   3.12562363   0.01494774
204.00   3.11021939   0.01539602
206.00   3.09466361   0.01585318
208.00   3.07895631   0.01631930
210.00   3.06309748   0.01679446
212.00   3.04708714   0.01727876
214.00   3.03092530   0.01777227
216.00   3.01461195   0.01827508
218.00   2.99814712   0.01878729
220.00   2.98153079   0.01930897
222.00   2.96476299   0.01984022
224.00   2.94784372   0.02038113
226.00   2.93077299   0.02093177
228.00   2.91355080   0.02149223
230.00   2.89617716   0.02206261
232.00   2.87865208   0.02264298
234.00   2.86097557   0.02323344
236.00   2.84314763   0.02383407
238.00   2.82516828   0.02444496
240.00   2.80703752   0.02506620
242.00   2.78875535   0.02569786
244.00   2.77032179   0.02634004
246.00   2.75173685   0.02699283
248.00   2.73300053   0.02765631
250.00   2.71411284   0.02833057
252.00   2.69507379   0.02901569
254.00   2.67588338   0.02971176
256.00   2.65654164   0.03041887
258.00   2.63704855   0.03113711
260.00   2.61740414   0.03186655
262.00   2.59760842   0.03260730
264.00   2.57766138   0.03335942
266.00   2.55756304   0.03412302
268.00   2.53731340   0.03489817
270.00   2.51691249   0.03568497
272.00   2.49636030   0.03648350
274.00   2.47565684   0.03729384
276.00   2.45480213   0.03811609
278.00   2.43379617   0.03895032
280.00   2.41263897   0.03979664
282.00   2.39133055   0.04065511
284.00   2.36987090   0.04152583
286.00   2.34826004   0.04240889
288.00   2.32649799   0.04330437
290.00   2.30458474   0.04421236
292.00   2.28252031   0.04513294
294.00   2.26030471   0.04606620
296.00   2.23793794   0.04701223
298.00   2.21542002   0.04797112
300.00   2.19275096   0.04894294
302.00   2.16993077   0.04992779
304.00   2.14695945   0.05092576
306.00   2.12383703   0.05193692
308.00   2.10056349   0.05296137
310.00   2.07713887   0.05399919
312.00   2.05356317   0.05505046
314.00   2.02983639   0.05611529
316.00   2.00595855   0.05719374
318.00   1.98192966   0.05828591
320.00   1.95774973   0.05939188
322.00   1.93341877   0.06051175
324.00   1.90893679   0.06164559
326.00   1.88430380   0.06279349
328.00   1.85951981   0.06395554
330.00   1.83458483   0.06513182
332.00   1.80949888   0.06632243
334.00   1.78426197   0.06752744
336.00   1.75887410   0.06874695
338.00   1.73333528   0.06998103
340.00   1.70764554   0.07122978
342.00   1.68180487   0.07249329
344.00   1.65581330   0.07377163
346.00   1.62967082   0.07506489
348.00   1.60337746   0.07637317
350.00   1.57693323   0.07769654
352.00   1.55033813   0.07903509
354.00   1.52359218   0.08038892
356.00   1.49669539   0.08175809
358.00   1.46964777   0.08314271
360.00   1.44244933   0.08454286
362.00   1.41510009   0.08595861
364.00   1.38760005   0.08739007
366.00   1.35994924   0.08883731
368.00   1.33214765   0.09030043
370.00   1.30419531   0.09177950
372.00   1.27609222   0.09327461
374.00   1.24783841   0.09478585
376.00   1.21943387   0.09631331
378.00   1.19087862   0.09785707
380.00   1.16217268   0.09941721
382.00   1.13331606   0.10099383
384.00   1.10430876   0.10258701
386.00   1.07515081   0.10419683
388.00   1.04584222   0.10582338
390.00   1.01638299   0.10746675
392.00   0.98677315   0.10912702
394.00   0.95701270   0.11080428
396.00   0.92710165   0.11249862
398.00   0.89704003   0.11421011
400.00   0.86682784   0.11593885
402.00   0.83646509   0.11768492
404.00   0.80595181   0.11944841
406.00   0.77528799   0.12122940
408.00   0.74447367   0.12302798
410.00   0.71350884   0.12484424
412.00   0.68239353   0.12667826
414.00   0.65112774   0.12853012
416.00   0.61971150   0.13039991
418.00   0.58814481   0.13228773
420.00   0.55642768   0.13419364
422.00   0.52456014   0.13611775
424.00   0.49254219   0.13806013
426.00   0.46037386   0.14002087
428.00   0.42805515   0.14200006
430.00   0.39558607   0.14399778
432.00   0.36296665   0.14601411
434.00   0.33019689   0.14804915
436.00   0.29727682   0.15010298
438.00   0.26420644   0.15217568
440.00   0.23098576   0.15426735
442.00   0.19761482   0.15637805
444.00   0.16409361   0.15850789
446.00   0.13042215   0.16065695
448.00   0.09660046   0.16282530
450.00   0.06262855   0.16501305
452.00   0.02850644   0.16722027
454.00  -0.00576585   0.16944704
456.00  -0.04018833   0.17169346
458.00  -0.07476095   0.17395961
460.00  -0.10948373   0.17624557
462.00  -0.14435663   0.17855144
464.00  -0.17937964   0.18087729
466.00  -0.21455275   0.18322321
468.00  -0.24987594   0.18558929
470.00  -0.28534920   0.18797560
472.00  -0.32097251   0.19038225
474.00  -0.35674585   0.19280931
476.00  -0.39266922   0.19525686
478.00  -0.42874259   0.19772500
480.00  -0.46496595   0.20021381
482.00  -0.50133928   0.20272337
484.00  -0.53786257   0.20525377
486.00  -0.57453580   0.20780509
488.00  -0.61135895   0.21037743
490.00  -0.64833202   0.21297085
492.00  -0.68545498   0.21558546
494.00  -0.72272781   0.21822133
496.00  -0.76015051   0.22087856
498.00  -0.79772305   0.22355721
500.00  -0.83544541   0.22625739
502.00  -0.87331759   0.22897917
504.00  -0.91133957   0.23172265
506.00  -0.94951132   0.23448790
508.00  -0.98783284   0.23727500
510.00  -1.02630410   0.24008406
512.00  -1.06492509   0.24291515
514.00  -1.10369579   0.24576835
516.00  -1.14261619   0.24864375
518.00  -1.18168626   0.25154144
520.00  -1.22090599   0.25446150
522.00  -1.26027537   0.25740401
524.00  -1.29979438   0.26036907
526.00  -1.33946299   0.26335675
528.00  -1.37928120   0.26636714
530.00  -1.41924898   0.26940033
532.00  -1.45936632   0.27245640
534.00  -1.49963320   0.27553543
536.00  -1.54004961   0.27863751
538.00  -1.58061552   0.28176273
540.00  -1.62133091   0.28491117
542.00  -1.66219578   0.28808291
544.00  -1.70321009   0.29127804
546.00  -1.74437384   0.29449664
548.00  -1.78568701   0.29773881
550.00  -1.82714958   0.30100461
552.00  -1.86876152   0.30429415
554.00  -1.91052283   0.30760749
556.00  -1.95243348   0.31094474
558.00  -1.99449346   0.31430596
560.00  -2.03670275   0.31769126
562.00  -2.07906132   0.32110070
564.00  -2.12156917   0.32453438
566.00  -2.16422627   0.32799239
568.00  -2.20703260   0.33147479
570.00  -2.24998814   0.33498169
572.00  -2.29309289   0.33851316
574.00  -2.33634681   0.34206929
576.00  -2.37974989   0.34565016
578.00  -2.42330211   0.34925586
580.00  -2.46700345   0.35288647
582.00  -2.51085389   0.35654208
584.00  -2.55485342   0.36022277
586.00  -2.59900201   0.36392863
588.00  -2.64329965   0.36765973
590.00  -2.68774631   0.37141617
592.00  -2.73234198   0.37519803
594.00  -2.77708663   0.37900539
596.00  -2.82198025   0.38283834
598.00  -2.86702283   0.38669696
600.00  -2.91221432   0.39058134
602.00  -2.95755473   0.39449155
604.00  -3.00304403   0.39842769
606.00  -3.04868220   0.40238984
608.00  -3.09446921   0.40637808
610.00  -3.14040506   0.41039250
612.00  -3.18648972   0.41443318
614.00  -3.23272316   0.41850020
616.00  -3.27910538   0.42259366
618.00  -3.32563635   0.42671362
620.00  -3.37231604   0.43086019
622.00  -3.41914445   0.43503344
624.00  -3.46612154   0.43923345
626.00  -3.51324730   0.44346031
628.00  -3.56052171   0.44771410
630.00  -3.60794475   0.45199492
632.00  -3.65551640   0.45630283
634.00  -3.70323663   0.46063793
636.00  -3.75110543   0.46500030
638.00  -3.79912277   0.46939003
640.00  -3.84728864   0.47380719
642.00  -3.89560301   0.47825187
644.00  -3.94406586   0.48272416
646.00  -3.99267718   0.48722413
648.00  -4.04143693   0.49175188
650.00  -4.09034511   0.49630749
652.00  -4.13940168   0.50089103
654.00  -4.18860663   0.50550260
656.00  -4.23795993   0.51014228
658.00  -4.28746157   0.51481015
660.00  -4.33711152   0.51950630
662.00  -4.38690977   0.52423080
664.00  -4.43685628   0.52898375
666.00  -4.48695104   0.53376522
668.00  -4.53719402   0.53857530
670.00  -4.58758522   0.54341408
672.00  -4.63812459   0.54828163
674.00  -4.68881212   0.55317804
676.00  -4.73964780   0.55810340
678.00  -4.79063159   0.56305778
680.00  -4.84176347   0.56804128
682.00  -4.89304343   0.57305397
684.00  -4.94447144   0.57809594
686.00  -4.99604747   0.58316727
688.00  -5.04777152   0.58826804
690.00  -5.09964354   0.59339835
692.00  -5.15166353   0.59855826
694.00  -5.20383145   0.60374787
696.00  -5.25614730   0.60896726
698.00  -5.30861103   0.61421651
700.00  -5.36122264   0.61949570
702.00  -5.41398209   0.62480493
704.00  -5.46688937   0.63014426
706.00  -5.51994445   0.63551379
708.00  -5.57314731   0.64091359
710.00  -5.62649793   0.64634376
712.00  -5.67999627   0.65180437
714.00  -5.73364233   0.65729551
716.00  -5.78743608   0.66281726
718.00  -5.84137749   0.66836970
720.00  -5.89546654   0.67395291
722.00  -5.94970321   0.67956699
724.00  -6.00408747   0.68521201
726.00  -6.05861930   0.69088806
728.00  -6.11329868   0.69659521
730.00  -6.16812558   0.70233355
732.00  -6.22309998   0.70810317
734.00  -6.27822185   0.71390415
736.00  -6.33349118   0.71973657
738.00  -6.38890794   0.72560051
740.00  -6.44447209   0.73149605
742.00  -6.50018363   0.73742328
744.00  -6.55604253   0.74338229
746.00  -6.61204875   0.74937315
748.00  -6.66820228   0.75539594
750.00  -6.72450310   0.76145076
752.00  -6.78095118   0.76753768
754.00  -6.83754649   0.77365678
756.00  -6.89428901   0.77980815
758.00  -6.95117871   0.78599187
760.00  -7.00821558   0.79220803
762.00  -7.06539958   0.79845670
764.00  -7.12273070   0.80473796
766.00  -7.18020890   0.81105191
768.00  -7.23783416   0.81739862
770.00  -7.29560646   0.82377818
772.00  -7.35352578   0.83019066
774.00  -7.41159208   0.83663616
776.00  -7.46980535   0.84311474
778.00  -7.52816555   0.84962651
780.00  -7.58667266   0.85617153
782.00  -7.64532666   0.86274989
784.00  -7.70412753   0.86936167
786.00  -7.76307523   0.87600696
788.00  -7.82216974   0.88268583
790.00  -7.88141103   0.88939838
792.00  -7.94079909   0.89614467
794.00  -8.00033388   0.90292480
796.00  -8.06001538   0.90973885
798.00  -8.11984356   0.91658689
800.00  -8.17981840   0.92346901
802.00  -8.23993987   0.93038530
804.00  -8.30020795   0.93733582
806.00  -8.36062260   0.94432068
808.00  -8.42118381   0.95133994
810.00  -8.48189155   0.95839370
812.00  -8.54274579   0.96548202
814.00  -8.60374650   0.97260500
816.00  -8.66489366   0.97976272
818.00  -8.72618725   0.98695525
820.00  -8.78762723   0.99418269
822.00  -8.84921358   1.00144511
824.00  -8.91094628   1.00874259
826.00  -8.97282529   1.01607521
828.00  -9.03485059   1.02344306
830.00  -9.09702216   1.03084623
832.00  -9.15933996   1.03828478
834.00  -9.22180397   1.04575880
836.00  -9.28441416   1.05326838
838.00  -9.34717051   1.06081360
840.00  -9.41007299   1.06839453
842.00  -9.47312158   1.07601127
844.00  -9.53631623   1.08366388
846.00  -9.59965694   1.09135245
848.00  -9.66314366   1.09907707
850.00  -9.72677638   1.10683782
852.00  -9.79055506   1.11463477
854.00  -9.85447969   1.12246801
856.00  -9.91855022   1.13033761
858.00  -9.98276664   1.13824367
860.00 -10.04712891   1.14618627
862.00 -10.11163701   1.15416547
864.00 -10.17629091   1.16218137
866.00 -10.24109059   1.17023405
868.00 -10.30603601   1.17832358
870.00 -10.37112715   1.18645006
872.00 -10.43636397   1.19461355
874.00 -10.50174646   1.20281415
876.00 -10.56727458   1.21105192
878.00 -10.63294831   1.21932697
880.00 -10.69876761   1.22763935
882.00 -10.76473246   1.23598916
884.00 -10.83084283   1.24437648
886.00 -10.89709869   1.25280139
888.00 -10.96350002   1.26126396
890.00 -11.03004678   1.26976429
892.00 -11.09673895   1.27830245
894.00 -11.16357649   1.28687851
896.00 -11.23055939   1.29549257
898.00 -11.29768760   1.30414471
900.00 -11.36496111   1.31283500
902.00 -11.43237988   1.32156352
904.00 -11.49994388   1.33033036
906.00 -11.56765309   1.33913560
908.00 -11.63550748   1.34797931
910.00 -11.70350701   1.35686158
912.00 -11.77165166   1.36578249
914.00 -11.83994139   1.37474212
916.00 -11.90837619   1.38374056
918.00 -11.97695602   1.39277787
920.00 -12.04568084   1.40185414
922.00 -12.11455064   1.41096945
924.00 -12.18356538   1.42012389
926.00 -12.25272503   1.42931753
928.00 -12.32202957   1.43855045
930.00 -12.39147895   1.44782274
932.00 -12.46107316   1.45713447
934.00 -12.53081217   1.46648573
936.00 -12.60069593   1.47587659
938.00 -12.67072443   1.48530714
940.00 -12.74089764   1.49477745
942.00 -12.81121551   1.50428760
944.00 -12.88167803   1.51383769
946.00 -12.95228517   1.52342778
948.00 -13.02303688   1.53305795
950.00 -13.09393315   1.54272829
952.00 -13.16497395   1.55243888
954.00 -13.23615923   1.56218980
956.00 -13.30748898   1.57198112
958.00 -13.37896315   1.58181293
960.00 -13.45058173   1.59168531
962.00 -13.52234468   1.60159833
964.00 -13.59425197   1.61155208
966.00 -13.66630356   1.62154664
968.00 -13.73849944   1.63158208
970.00 -13.81083956   1.64165849
972.00 -13.88332389   1.65177595
974.00 -13.95595242   1.66193453
976.00 -14.02872509   1.67213432
978.00 -14.10164189   1.68237539
980.00 -14.17470278   1.69265783
982.00 -14.24790773   1.70298171
984.00 -14.32125671   1.71334712
986.00 -14.39474969   1.72375413
988.00 -14.46838664   1.73420283
990.00 -14.54216752   1.74469329
992.00 -14.61609231   1.75522559
994.00 -14.69016096   1.76579982
996.00 -14.76437346   1.77641605
998.00 -14.83872977   1.78707436
1000.00 -14.91322985   1.79777483
1002.00 -14.98787368   1.80851754
1004.00 -15.06266123   1.81930257
1006.00 -15.13759245   1.83013000
1008.00 -15.21266733   1.84099991
1010.00 -15.28788582   1.85191237
1012.00 -15.36324790   1.86286747
1014.00 -15.43875354   1.87386529
1016.00 -15.51440269   1.88490591
1018.00 -15.59019534   1.89598939
1020.00 -15.66613144   1.90711584
1022.00 -15.74221096   1.91828531
1024.00 -15.81843388   1.92949789
1026.00 -15.89480016   1.94075367
1028.00 -15.97130976   1.95205272
1030.00 -16.04796266   1.96339511
1032.00 -16.12475882   1.97478093
1034.00 -16.20169821   1.98621026
1036.00 -16.27878080   1.99768318
1038.00 -16.35600655   2.00919975
1040.00 -16.43337543   2.02076007
1042.00 -16.51088741   2.03236422
1044.00 -16.58854246   2.04401226
1046.00 -16.66634054   2.05570428
1048.00 -16.74428161   2.06744036
1050.00 -16.82236565   2.07922058
1052.00 -16.90059263   2.09104502
1054.00 -16.97896250   2.10291374
1056.00 -17.05747524   2.11482684
1058.00 -17.13613081   2.12678439
1060.00 -17.21492918   2.13878647
1062.00 -17.29387032   2.15083316
1064.00 -17.37295419   2.16292453
1066.00 -17.45218075   2.17506067
1068.00 -17.53154998   2.18724165
1070.00 -17.61106185   2.19946756
1072.00 -17.69071631   2.21173846
1074.00 -17.77051333   2.22405444
1076.00 -17.85045288   2.23641558
1078.00 -17.93053493   2.24882195
1080.00 -18.01075944   2.26127364
1082.00 -18.09112638   2.27377072
1084.00 -18.17163571   2.28631326
1086.00 -18.25228740   2.29890135
1088.00 -18.33308141   2.31153507
1090.00 -18.41401772   2.32421449
1092.00 -18.49509628   2.33693970
1094.00 -18.57631706   2.34971076
1096.00 -18.65768003   2.36252776
1098.00 -18.73918516   2.37539077
1100.00 -18.82083240   2.38829988
1102.00 -18.90262173   2.40125516
1104.00 -18.98455310   2.41425669
1106.00 -19.06662649   2.42730454
1108.00 -19.14884186   2.44039880
1110.00 -19.23119918   2.45353954
1112.00 -19.31369840   2.46672684
1114.00 -19.39633950   2.47996077
1116.00 -19.47912244   2.49324142
1118.00 -19.56204718   2.50656887
1120.00 -19.64511369   2.51994318
1122.00 -19.72832194   2.53336444
1124.00 -19.81167189   2.54683273
1126.00 -19.89516350   2.56034811
1128.00 -19.97879674   2.57391068
1130.00 -20.06257157   2.58752051
1132.00 -20.14648796   2.60117767
1134.00 -20.23054588   2.61488224
1136.00 -20.31474527   2.62863430
1138.00 -20.39908612   2.64243392
1140.00 -20.48356839   2.65628119
1142.00 -20.56819203   2.67017618
1144.00 -20.65295702   2.68411897
1146.00 -20.73786332   2.69810964
1148.00 -20.82291089   2.71214825
1150.00 -20.90809969   2.72623490
1152.00 -20.99342970   2.74036965
1154.00 -21.07890087   2.75455258
1156.00 -21.16451316   2.76878378
1158.00 -21.25026655   2.78306331
1160.00 -21.33616100   2.79739125
1162.00 -21.42219646   2.81176769
1164.00 -21.50837290   2.82619269
1166.00 -21.59469030   2.84066634
1168.00 -21.68114860   2.85518871
1170.00 -21.76774777   2.86975987
1172.00 -21.85448779   2.88437991
1174.00 -21.94136860   2.89904890
1176.00 -22.02839017   2.91376692
1178.00 -22.11555248   2.92853405
1180.00 -22.20285547   2.94335035
1182.00 -22.29029912   2.95821591
1184.00 -22.37788338   2.97313081
1186.00 -22.46560822   2.98809511
1188.00 -22.55347360   3.00310890
1190.00 -22.64147949   3.01817226
1192.00 -22.72962585   3.03328525
1194.00 -22.81791264   3.04844796
1196.00 -22.90633982   3.06366047
1198.00 -22.99490736   3.07892283
1200.00 -23.08361522   3.09423515
1202.00 -23.17246336   3.10959748
1204.00 -23.26145175   3.12500991
1206.00 -23.35058034   3.14047252
1208.00 -23.43984910   3.15598537
1210.00 -23.52925799   3.17154855
1212.00 -23.61880698   3.18716212
1214.00 -23.70849602   3.20282618
1216.00 -23.79832508   3.21854078
1218.00 -23.88829412   3.23430602
1220.00 -23.97840311   3.25012196
1222.00 -24.06865200   3.26598868
1224.00 -24.15904076   3.28190625
1226.00 -24.24956934   3.29787476
1228.00 -24.34023772   3.31389428
1230.00 -24.43104585   3.32996487
1232.00 -24.52199369   3.34608663
1234.00 -24.61308122   3.36225962
1236.00 -24.70430837   3.37848392
1238.00 -24.79567513   3.39475960
1240.00 -24.88718145   3.41108675
1242.00 -24.97882730   3.42746543
1244.00 -25.07061262   3.44389572
1246.00 -25.16253740   3.46037770
1248.00 -25.25460158   3.47691145
1250.00 -25.34680512   3.49349703
1252.00 -25.43914800   3.51013452
1254.00 -25.53163017   3.52682400
1256.00 -25.62425159   3.54356555
1258.00 -25.71701223   3.56035923
1260.00 -25.80991204   3.57720513
1262.00 -25.90295098   3.59410332
1264.00 -25.99612902   3.61105387
1266.00 -26.08944612   3.62805685
1268.00 -26.18290223   3.64511236
1270.00 -26.27649733   3.66222045
1272.00 -26.37023136   3.67938120
1274.00 -26.46410429   3.69659470
1276.00 -26.55811609   3.71386101
1278.00 -26.65226670   3.73118020
1280.00 -26.74655610   3.74855236
1282.00 -26.84098424   3.76597755
1284.00 -26.93555109   3.78345586
1286.00 -27.03025659   3.80098736
1288.00 -27.12510072   3.81857212
1290.00 -27.22008344   3.83621021
1292.00 -27.31520469   3.85390171
1294.00 -27.41046446   3.87164670
1296.00 -27.50586268   3.88944525
1298.00 -27.60139933   3.90729744
1300.00 -27.69707437   3.92520333
1302.00 -27.79288775   3.94316300
1304.00 -27.88883943   3.96117654
1306.00 -27.98492938   3.97924400
1308.00 -28.08115755   3.99736547
1310.00 -28.17752391   4.01554102
1312.00 -28.27402841   4.03377073
1314.00 -28.37067101   4.05205466
1316.00 -28.46745167   4.07039289
1318.00 -28.56437036   4.08878550
1320.00 -28.66142703   4.10723257
1322.00 -28.75862164   4.12573415
1324.00 -28.85595415   4.14429034
1326.00 -28.95342452   4.16290120
1328.00 -29.05103270   4.18156680
1330.00 -29.14877867   4.20028722
1332.00 -29.24666237   4.21906254
1334.00 -29.34468377   4.23789283
1336.00 -29.44284283   4.25677816
1338.00 -29.54113950   4.27571860
1340.00 -29.63957374   4.29471423
1342.00 -29.73814552   4.31376512
1344.00 -29.83685479   4.33287135
1346.00 -29.93570151   4.35203299
1348.00 -30.03468563   4.37125011
1350.00 -30.13380713   4.39052279
1352.00 -30.23306595   4.40985110
1354.00 -30.33246206   4.42923511
1356.00 -30.43199541   4.44867490
1358.00 -30.53166596   4.46817053
1360.00 -30.63147367   4.48772209
1362.00 -30.73141850   4.50732965
1364.00 -30.83150041   4.52699328
1366.00 -30.93171935   4.54671305
1368.00 -31.03207529   4.56648903
1370.00 -31.13256818   4.58632130
1372.00 -31.23319798   4.60620994
1374.00 -31.33396465   4.62615501
1376.00 -31.43486814   4.64615659
1378.00 -31.53590842   4.66621475
1380.00 -31.63708544   4.68632956
1382.00 -31.73839916   4.70650110
1384.00 -31.83984954   4.72672944
1386.00 -31.94143653   4.74701465
1388.00 -32.04316010   4.76735681
1390.00 -32.14502020   4.78775598
1392.00 -32.24701679   4.80821224
1394.00 -32.34914982   4.82872567
1396.00 -32.45141926   4.84929633
1398.00 -32.55382506   4.86992430
1400.00 -32.65636718   4.89060965
1402.00 -32.75904558   4.91135245
1404.00 -32.86186021   4.93215278
1406.00 -32.96481103   4.95301070
1408.00 -33.06789799   4.97392630
1410.00 -33.17112107   4.99489964
1412.00 -33.27448020   5.01593079
1414.00 -33.37797536   5.03701983
1416.00 -33.48160649   5.05816682
1418.00 -33.58537356   5.07937185
1420.00 -33.68927651   5.10063498
1422.00 -33.79331532   5.12195629
1424.00 -33.89748993   5.14333584
1426.00 -34.00180030   5.16477371
1428.00 -34.10624638   5.18626998
1430.00 -34.21082815   5.20782470
1432.00 -34.31554554   5.22943796
1434.00 -34.42039852   5.25110983
1436.00 -34.52538705   5.27284038
1438.00 -34.63051107   5.29462968
1440.00 -34.73577056   5.31647779
1442.00 -34.84116545   5.33838481
1444.00 -34.94669572   5.36035078
1446.00 -35.05236132   5.38237580
1448.00 -35.15816219   5.40445992
1450.00 -35.26409831   5.42660322
1452.00 -35.37016962   5.44880577
1454.00 -35.47637608   5.47106765
1456.00 -35.58271765   5.49338892
1458.00 -35.68919428   5.51576965
1460.00 -35.79580593   5.53820992
1462.00 -35.90255256   5.56070980
1464.00 -36.00943412   5.58326936
1466.00 -36.11645056   5.60588867
1468.00 -36.22360185   5.62856780
1470.00 -36.33088793   5.65130682
1472.00 -36.43830877   5.67410580
1474.00 -36.54586432   5.69696482
1476.00 -36.65355453   5.71988395
1478.00 -36.76137937   5.74286325
1480.00 -36.86933878   5.76590280
1482.00 -36.97743272   5.78900267
1484.00 -37.08566115   5.81216293
1486.00 -37.19402402   5.83538364
1488.00 -37.30252128   5.85866489
1490.00 -37.41115290   5.88200674
1492.00 -37.51991883   5.90540926
1494.00 -37.62881902   5.92887252
1496.00 -37.73785343   5.95239659
1498.00 -37.84702201   5.97598155
1500.00 -37.95632472   5.99962746
1502.00 -38.06576152   6.02333440
1504.00 -38.17533235   6.04710243
1506.00 -38.28503717   6.07093163
1508.00 -38.39487595   6.09482206
1510.00 -38.50484862   6.11877380
1512.00 -38.61495515   6.14278691
1514.00 -38.72519549   6.16686147
1516.00 -38.83556960   6.19099755
1518.00 -38.94607743   6.21519521
1520.00 -39.05671894   6.23945453
1522.00 -39.16749407   6.26377557
1524.00 -39.27840279   6.28815842
1526.00 -39.38944505   6.31260312
1528.00 -39.50062080   6.33710977
1530.00 -39.61193000   6.36167842
1532.00 -39.72337260   6.38630914
1534.00 -39.83494856   6.41100202
1536.00 -39.94665782   6.43575710
1538.00 -40.05850035   6.46057448
1540.00 -40.17047610   6.48545420
1542.00 -40.28258502   6.51039635
1544.00 -40.39482706   6.53540100
1546.00 -40.50720219   6.56046821
1548.00 -40.61971035   6.58559805
1550.00 -40.73235149   6.61079060
1552.00 -40.84512558   6.63604591
1554.00 -40.95803256   6.66136407
1556.00 -41.07107239   6.68674514
1558.00 -41.18424502   6.71218918
1560.00 -41.29755041   6.73769628
1562.00 -41.41098851   6.76326649
1564.00 -41.52455927   6.78889989
1566.00 -41.63826264   6.81459655
1568.00 -41.75209859   6.84035653
1570.00 -41.86606706   6.86617991
1572.00 -41.98016800   6.89206675
1574.00 -42.09440137   6.91801712
1576.00 -42.20876713   6.94403110
1578.00 -42.32326522   6.97010874
1580.00 -42.43789561   6.99625012
1582.00 -42.55265823   7.02245531
1584.00 -42.66755305   7.04872438
1586.00 -42.78258001   7.07505739
1588.00 -42.89773908   7.10145441
1590.00 -43.01303020   7.12791552
1592.00 -43.12845333   7.15444078
1594.00 -43.24400841   7.18103025
1596.00 -43.35969541   7.20768402
1598.00 -43.47551428   7.23440214
1600.00 -43.59146496   7.26118468
1602.00 -43.70754741   7.28803172
1604.00 -43.82376158   7.31494332
1606.00 -43.94010743   7.34191954
1608.00 -44.05658491   7.36896047
1610.00 -44.17319396   7.39606616
1612.00 -44.28993455   7.42323668
1614.00 -44.40680662   7.45047211
1616.00 -44.52381013   7.47777250
1618.00 -44.64094503   7.50513793
1620.00 -44.75821128   7.53256847
1622.00 -44.87560881   7.56006418
1624.00 -44.99313759   7.58762514
1626.00 -45.11079757   7.61525140
1628.00 -45.22858869   7.64294304
1630.00 -45.34651092   7.67070012
1632.00 -45.46456421   7.69852272
1634.00 -45.58274850   7.72641089
1636.00 -45.70106374   7.75436472
1638.00 -45.81950990   7.78238425
1640.00 -45.93808691   7.81046957
1642.00 -46.05679474   7.83862075
1644.00 -46.17563333   7.86683783
1646.00 -46.29460264   7.89512091
1648.00 -46.41370262   7.92347003
1650.00 -46.53293321   7.95188528
1652.00 -46.65229438   7.98036671
1654.00 -46.77178606   8.00891439
1656.00 -46.89140822   8.03752840
1658.00 -47.01116081   8.06620879
1660.00 -47.13104377   8.09495564
1662.00 -47.25105705   8.12376901
1664.00 -47.37120062   8.15264897
1666.00 -47.49147442   8.18159559
1668.00 -47.61187839   8.21060892
1670.00 -47.73241250   8.23968905
1672.00 -47.85307669   8.26883604
1674.00 -47.97387091   8.29804994
1676.00 -48.09479512   8.32733084
1678.00 -48.21584927   8.35667880
1680.00 -48.33703330   8.38609387
1682.00 -48.45834717   8.41557614
1684.00 -48.57979082   8.44512566
1686.00 -48.70136422   8.47474251
1688.00 -48.82306730   8.50442675
1690.00 -48.94490003   8.53417844
1692.00 -49.06686234   8.56399765
1694.00 -49.18895420   8.59388445
1696.00 -49.31117555   8.62383891
1698.00 -49.43352634   8.65386108
1700.00 -49.55600652   8.68395104
1702.00 -49.67861605   8.71410886
1704.00 -49.80135486   8.74433459
1706.00 -49.92422293   8.77462831
1708.00 -50.04722018   8.80499008
1710.00 -50.17034659   8.83541997
1712.00 -50.29360208   8.86591804
1714.00 -50.41698662   8.89648436
1716.00 -50.54050015   8.92711900
1718.00 -50.66414263   8.95782201
1720.00 -50.78791401   8.98859347
1722.00 -50.91181422   9.01943344
1724.00 -51.03584323   9.05034199
1726.00 -51.16000099   9.08131918
1728.00 -51.28428744   9.11236508
1730.00 -51.40870253   9.14347975
1732.00 -51.53324622   9.17466327
1734.00 -51.65791845   9.20591568
1736.00 -51.78271918   9.23723707
1738.00 -51.90764834   9.26862749
1740.00 -52.03270590   9.30008702
1742.00 -52.15789180   9.33161571
1744.00 -52.28320599   9.36321363
1746.00 -52.40864842   9.39488084
1748.00 -52.53421904   9.42661742
1750.00 -52.65991780   9.45842342
1752.00 -52.78574465   9.49029892
1754.00 -52.91169954   9.52224397
1756.00 -53.03778242   9.55425864
1758.00 -53.16399323   9.58634300
1760.00 -53.29033192   9.61849711
1762.00 -53.41679845   9.65072103
1764.00 -53.54339277   9.68301484
1766.00 -53.67011481   9.71537858
1768.00 -53.79696454   9.74781234
1770.00 -53.92394190   9.78031617
1772.00 -54.05104684   9.81289014
1774.00 -54.17827931   9.84553432
1776.00 -54.30563925   9.87824876
1778.00 -54.43312662   9.91103353
1780.00 -54.56074136   9.94388870
1782.00 -54.68848343   9.97681433
1784.00 -54.81635277  10.00981048
1786.00 -54.94434933  10.04287722
1788.00 -55.07247306  10.07601462
1790.00 -55.20072391  10.10922273
1792.00 -55.32910182  10.14250163
1794.00 -55.45760675  10.17585136
1796.00 -55.58623864  10.20927201
1798.00 -55.71499744  10.24276363
1800.00 -55.84388310  10.27632629
1802.00 -55.97289557  10.30996005
1804.00 -56.10203480  10.34366497
1806.00 -56.23130073  10.37744113
1808.00 -56.36069331  10.41128857
1810.00 -56.49021249  10.44520737
1812.00 -56.61985823  10.47919759
1814.00 -56.74963046  10.51325929
1816.00 -56.87952913  10.54739254
1818.00 -57.00955420  10.58159739
1820.00 -57.13970560  10.61587392
1822.00 -57.26998330  10.65022219
1824.00 -57.40038723  10.68464226
1826.00 -57.53091735  10.71913419
1828.00 -57.66157359  10.75369804
1830.00 -57.79235592  10.78833389
1832.00 -57.92326428  10.82304179
1834.00 -58.05429861  10.85782180
1836.00 -58.18545886  10.89267400
1838.00 -58.31674498  10.92759843
1840.00 -58.44815692  10.96259517
1842.00 -58.57969463  10.99766428
1844.00 -58.71135804  11.03280581
1846.00 -58.84314712  11.06801984
1848.00 -58.97506180  11.10330643
1850.00 -59.10710204  11.13866563
1852.00 -59.23926778  11.17409752
1854.00 -59.37155897  11.20960215
1856.00 -59.50397556  11.24517959
1858.00 -59.63651749  11.28082989
1860.00 -59.76918471  11.31655313
1862.00 -59.90197717  11.35234936
1864.00 -60.03489481  11.38821865
1866.00 -60.16793758  11.42416105
1868.00 -60.30110544  11.46017664
1870.00 -60.43439831  11.49626547
1872.00 -60.56781616  11.53242761
1874.00 -60.70135893  11.56866311
1876.00 -60.83502657  11.60497204
1878.00 -60.96881902  11.64135446
1880.00 -61.10273623  11.67781044
1882.00 -61.23677814  11.71434003
1884.00 -61.37094471  11.75094330
1886.00 -61.50523587  11.78762031
1888.00 -61.63965159  11.82437112
1890.00 -61.77419179  11.86119579
1892.00 -61.90885644  11.89809439
1894.00 -62.04364547  11.93506697
1896.00 -62.17855883  11.97211361
1898.00 -62.31359647  12.00923435
1900.00 -62.44875833  12.04642926
1902.00 -62.58404437  12.08369840
1904.00 -62.71945452  12.12104184
1906.00 -62.85498874  12.15845963
1908.00 -62.99064697  12.19595184
1910.00 -63.12642915  12.23351852
1912.00 -63.26233523  12.27115975
1914.00 -63.39836516  12.30887557
1916.00 -63.53451889  12.34666606
1918.00 -63.67079635  12.38453127
1920.00 -63.80719751  12.42247126
1922.00 -63.94372229  12.46048610
1924.00 -64.08037065  12.49857584
1926.00 -64.21714254  12.53674054
1928.00 -64.35403789  12.57498028
1930.00 -64.49105666  12.61329510
1932.00 -64.62819879  12.65168507
1934.00 -64.76546423  12.69015025
1936.00 -64.90285292  12.72869070
1938.00 -65.04036481  12.76730648
1940.00 -65.17799984  12.80599765
1942.00 -65.31575796  12.84476427
1944.00 -65.45363912  12.88360641
1946.00 -65.59164325  12.92252411
1948.00 -65.72977031  12.96151745
1950.00 -65.86802024  13.00058648
1952.00 -66.00639299  13.03973127
1954.00 -66.14488850  13.07895187
1956.00 -66.28350672  13.11824834
1958.00 -66.42224758  13.15762074
1960.00 -66.56111105  13.19706914
1962.00 -66.70009706  13.23659360
1964.00 -66.83920555  13.27619417
1966.00 -66.97843648  13.31587091
1968.00 -67.11778979  13.35562388
1970.00 -67.25726542  13.39545315
1972.00 -67.39686331  13.43535877
1974.00 -67.53658342  13.47534080
1976.00 -67.67642569  13.51539931
1978.00 -67.81639006  13.55553435
1980.00 -67.95647648  13.59574598
1982.00 -68.09668489  13.63603426
1984.00 -68.23701523  13.67639925
1986.00 -68.37746746  13.71684101
1988.00 -68.51804152  13.75735960
1990.00 -68.65873734  13.79795508
1992.00 -68.79955488  13.83862751
1994.00 -68.94049409  13.87937695
1996.00 -69.08155489  13.92020345
1998.00 -69.22273725  13.96110708
2000.00 -69.36404110  14.00208789
2002.00 -69.50546639  14.04314594
2004.00 -69.64701306  14.08428130
2006.00 -69.78868106  14.12549402
2008.00 -69.93047033  14.16678416
2010.00 -70.07238082  14.20815179
2012.00 -70.21441246  14.24959694
2014.00 -70.35656521  14.29111970
2016.00 -70.49883901  14.33272011
2018.00 -70.64123380  14.37439824
2020.00 -70.78374953  14.41615413
2022.00 -70.92638614  14.45798786
2024.00 -71.06914358  14.49989948
2026.00 -71.21202178  14.54188905
2028.00 -71.35502070  14.58395663
2030.00 -71.49814027  14.62610226
2032.00 -71.64138045  14.66832603
2034.00 -71.78474117  14.71062797
2036.00 -71.92822237  14.75300816
2038.00 -72.07182401  14.79546664
2040.00 -72.21554603  14.83800348
2042.00 -72.35938837  14.88061873
2044.00 -72.50335097  14.92331245
2046.00 -72.64743378  14.96608471
2048.00 -72.79163674  15.00893555
2050.00 -72.93595979  15.05186503
2052.00 -73.08040288  15.09487322
2054.00 -73.22496596  15.13796018
2056.00 -73.36964896  15.18112595
2058.00 -73.51445182  15.22437060
2060.00 -73.65937450  15.26769418
2062.00 -73.80441694  15.31109675
2064.00 -73.94957907  15.35457837
2066.00 -74.09486085  15.39813910
2068.00 -74.24026221  15.44177900
2070.00 -74.38578310  15.48549811
2072.00 -74.53142347  15.52929650
2074.00 -74.67718325  15.57317423
2076.00 -74.82306238  15.61713135
2078.00 -74.96906082  15.66116793
2080.00 -75.11517851  15.70528401
2082.00 -75.26141538  15.74947965
2084.00 -75.40777138  15.79375492
2086.00 -75.55424646  15.83810986
2088.00 -75.70084055  15.88254454
2090.00 -75.84755360  15.92705901
2092.00 -75.99438556  15.97165333
2094.00 -76.14133636  16.01632755
2096.00 -76.28840595  16.06108174
2098.00 -76.43559427  16.10591595
2100.00 -76.58290126  16.15083023
2102.00 -76.73032687  16.19582464
2104.00 -76.87787104  16.24089925
2106.00 -77.02553371  16.28605409
2108.00 -77.17331483  16.33128924
2110.00 -77.32121433  16.37660475
2112.00 -77.46923216  16.42200067
2114.00 -77.61736827  16.46747706
2116.00 -77.76562259  16.51303398
2118.00 -77.91399507  16.55867148
2120.00 -78.06248564  16.60438961
2122.00 -78.21109426  16.65018845
2124.00 -78.35982087  16.69606803
2126.00 -78.50866540  16.74202842
2128.00 -78.65762780  16.78806967
2130.00 -78.80670801  16.83419184
2132.00 -78.95590597  16.88039499
2134.00 -79.10522163  16.92667916
2136.00 -79.25465493  16.97304442
2138.00 -79.40420581  17.01949082
2140.00 -79.55387421  17.06601842
2142.00 -79.70366008  17.11262727
2144.00 -79.85356335  17.15931743
2146.00 -80.00358397  17.20608895
2148.00 -80.15372188  17.25294189
2150.00 -80.30397702  17.29987630
2152.00 -80.45434934  17.34689224
2154.00 -80.60483877  17.39398977
2156.00 -80.75544526  17.44116893
2158.00 -80.90616875  17.48842979
2160.00 -81.05700919  17.53577240
2162.00 -81.20796650  17.58319682
2164.00 -81.35904064  17.63070309
2166.00 -81.51023155  17.67829128
2168.00 -81.66153917  17.72596144
2170.00 -81.81296343  17.77371362
2172.00 -81.96450429  17.82154788
2174.00 -82.11616168  17.86946428
2176.00 -82.26793555  17.91746286
2178.00 -82.41982583  17.96554368
2180.00 -82.57183247  18.01370681
2182.00 -82.72395541  18.06195228
2184.00 -82.87619459  18.11028017
2186.00 -83.02854996  18.15869051
2188.00 -83.18102144  18.20718337
2190.00 -83.33360899  18.25575879
2192.00 -83.48631255  18.30441685
2194.00 -83.63913206  18.35315758
2196.00 -83.79206745  18.40198104
2198.00 -83.94511867  18.45088728
2200.00 -84.09828566  18.49987637
2202.00 -84.25156837  18.54894835
2204.00 -84.40496673  18.59810328
2206.00 -84.55848068  18.64734122
2208.00 -84.71211017  18.69666221
2210.00 -84.86585514  18.74606630
2212.00 -85.01971552  18.79555356
2214.00 -85.17369126  18.84512404
2216.00 -85.32778230  18.89477779
2218.00 -85.48198858  18.94451487
2220.00 -85.63631004  18.99433532
2222.00 -85.79074662  19.04423920
2224.00 -85.94529827  19.09422657
2226.00 -86.09996492  19.14429747
2228.00 -86.25474651  19.19445197
2230.00 -86.40964299  19.24469011
2232.00 -86.56465429  19.29501195
2234.00 -86.71978036  19.34541754
2236.00 -86.87502114  19.39590694
2238.00 -87.03037656  19.44648019
2240.00 -87.18584657  19.49713736
2242.00 -87.34143111  19.54787848
2244.00 -87.49713012  19.59870362
2246.00 -87.65294354  19.64961284
2248.00 -87.80887131  19.70060617
2250.00 -87.96491337  19.75168368
2252.00 -88.12106966  19.80284541
2254.00 -88.27734012  19.85409143
2256.00 -88.43372470  19.90542178
2258.00 -88.59022332  19.95683651
2260.00 -88.74683594  20.00833568
2262.00 -88.90356249  20.05991934
2264.00 -89.06040291  20.11158754
2266.00 -89.21735715  20.16334034
2268.00 -89.37442514  20.21517778
2270.00 -89.53160682  20.26709993
2272.00 -89.68890213  20.31910682
2274.00 -89.84631102  20.37119852
2276.00 -90.00383342  20.42337508
2278.00 -90.16146928  20.47563654
2280.00 -90.31921853  20.52798296
2282.00 -90.47708111  20.58041440
2284.00 -90.63505696  20.63293090
2286.00 -90.79314603  20.68553251
2288.00 -90.95134825  20.73821929
2290.00 -91.10966357  20.79099129
2292.00 -91.26809192  20.84384856
2294.00 -91.42663324  20.89679115
2296.00 -91.58528747  20.94981911
2298.00 -91.74405455  21.00293250
2300.00 -91.90293443  21.05613137
2302.00 -92.06192703  21.10941576
2304.00 -92.22103231  21.16278574
2306.00 -92.38025020  21.21624134
2308.00 -92.53958064  21.26978263
2310.00 -92.69902357  21.32340965
2312.00 -92.85857893  21.37712245
2314.00 -93.01824666  21.43092109
2316.00 -93.17802669  21.48480561
2318.00 -93.33791898  21.53877608
2320.00 -93.49792345  21.59283253
2322.00 -93.65804005  21.64697502
2324.00 -93.81826871  21.70120360
2326.00 -93.97860938  21.75551832
2328.00 -94.13906200  21.80991923
2330.00 -94.29962650  21.86440638
2332.00 -94.46030282  21.91897983
2334.00 -94.62109091  21.97363962
2336.00 -94.78199069  22.02838580
2338.00 -94.94300212  22.08321843
2340.00 -95.10412513  22.13813756
2342.00 -95.26535966  22.19314322
2344.00 -95.42670564  22.24823549
2346.00 -95.58816303  22.30341440
2348.00 -95.74973175  22.35868000
2350.00 -95.91141174  22.41403235
2352.00 -96.07320296  22.46947150
2354.00 -96.23510532  22.52499749
2356.00 -96.39711878  22.58061038
2358.00 -96.55924327  22.63631021
2360.00 -96.72147872  22.69209704
2362.00 -96.88382509  22.74797092
2364.00 -97.04628231  22.80393189
2366.00 -97.20885031  22.85998001
2368.00 -97.37152904  22.91611532
2370.00 -97.53431844  22.97233788
2372.00 -97.69721843  23.02864773
2374.00 -97.86022897  23.08504492
2376.00 -98.02334999  23.14152951
2378.00 -98.18658143  23.19810154
2380.00 -98.34992323  23.25476106
2382.00 -98.51337532  23.31150812
2384.00 -98.67693765  23.36834277
2386.00 -98.84061016  23.42526506
2388.00 -99.00439277  23.48227504
2390.00 -99.16828544  23.53937276
2392.00 -99.33228809  23.59655827
2394.00 -99.49640067  23.65383161
2396.00 -99.66062312  23.71119283
2398.00 -99.82495538  23.76864199
2400.00 -99.98939737  23.82617913
2402.00 -100.15394905  23.88380431
2404.00 -100.31861035  23.94151756
2406.00 -100.48338121  23.99931894
2408.00 -100.64826156  24.05720850
2410.00 -100.81325135  24.11518628
2412.00 -100.97835051  24.17325234
2414.00 -101.14355898  24.23140672
2416.00 -101.30887670  24.28964947
2418.00 -101.47430360  24.34798064
2420.00 -101.63983963  24.40640028
2422.00 -101.80548473  24.46490844
2424.00 -101.97123883  24.52350516
2426.00 -102.13710187  24.58219049
2428.00 -102.30307378  24.64096448
2430.00 -102.46915451  24.69982718
2432.00 -102.63534400  24.75877864
2434.00 -102.80164217  24.81781890
2436.00 -102.96804898  24.87694801
2438.00 -103.13456435  24.93616603
2440.00 -103.30118823  24.99547299
2442.00 -103.46792055  25.05486895
2444.00 -103.63476126  25.11435395
2446.00 -103.80171028  25.17392804
2448.00 -103.96876756  25.23359127
2450.00 -104.13593303  25.29334368
2452.00 -104.30320664  25.35318533
2454.00 -104.47058832  25.41311626
2456.00 -104.63807800  25.47313652
2458.00 -104.80567563  25.53324615
2460.00 -104.97338114  25.59344520
2462.00 -105.14119448  25.65373373
2464.00 -105.30911557  25.71411177
2466.00 -105.47714436  25.77457938
2468.00 -105.64528078  25.83513659
2470.00 -105.81352477  25.89578347
2472.00 -105.98187627  25.95652005
2474.00 -106.15033522  26.01734638
2476.00 -106.31890155  26.07826251
2478.00 -106.48757520  26.13926848
2480.00 -106.65635611  26.20036435
2482.00 -106.82524421  26.26155015
2484.00 -106.99423945  26.32282594
2486.00 -107.16334176  26.38419176
2488.00 -107.33255107  26.44564766
2490.00 -107.50186733  26.50719369
2492.00 -107.67129048  26.56882989
2494.00 -107.84082044  26.63055630
2496.00 -108.01045716  26.69237298
2498.00 -108.18020057  26.75427996
2500.00 -108.35005062  26.81627731
2502.00 -108.52000723  26.87836505
2504.00 -108.69007035  26.94054325
2506.00 -108.86023991  27.00281193
2508.00 -109.03051586  27.06517116
2510.00 -109.20089811  27.12762098
2512.00 -109.37138663  27.19016142
2514.00 -109.54198133  27.25279255
2516.00 -109.71268216  27.31551439
2518.00 -109.88348906  27.37832701
2520.00 -110.05440196  27.44123044
2522.00 -110.22542079  27.50422473
2524.00 -110.39654551  27.56730993
2526.00 -110.56777603  27.63048608
2528.00 -110.73911231  27.69375322
2530.00 -110.91055427  27.75711141
2532.00 -111.08210185  27.82056069
2534.00 -111.25375500  27.88410109
2536.00 -111.42551364  27.94773268
2538.00 -111.59737771  28.01145549
2540.00 -111.76934716  28.07526957
2542.00 -111.94142191  28.13917496
2544.00 -112.11360191  28.20317171
2546.00 -112.28588709  28.26725986
2548.00 -112.45827738  28.33143946
2550.00 -112.63077273  28.39571055
2552.00 -112.80337307  28.46007318
2554.00 -112.97607833  28.52452739
2556.00 -113.14888846  28.58907323
2558.00 -113.32180339  28.65371075
2560.00 -113.49482306  28.71843997
2562.00 -113.66794740  28.78326096
2564.00 -113.84117635  28.84817376
2566.00 -114.01450984  28.91317840
2568.00 -114.18794782  28.97827494
2570.00 -114.36149022  29.04346341
2572.00 -114.53513697  29.10874387
2574.00 -114.70888802  29.17411635
2576.00 -114.88274329  29.23958091
2578.00 -115.05670273  29.30513758
2580.00 -115.23076627  29.37078641
2582.00 -115.40493384  29.43652744
2584.00 -115.57920539  29.50236072
2586.00 -115.75358085  29.56828629
2588.00 -115.92806016  29.63430420
2590.00 -116.10264324  29.70041448
2592.00 -116.27733005  29.76661718
2594.00 -116.45212051  29.83291235
2596.00 -116.62701456  29.89930003
2598.00 -116.80201214  29.96578026
2600.00 -116.97711318  30.03235309
2602.00 -117.15231763  30.09901856
2604.00 -117.32762540  30.16577671
2606.00 -117.50303645  30.23262759
2608.00 -117.67855071  30.29957123
2610.00 -117.85416811  30.36660769
2612.00 -118.02988858  30.43373701
2614.00 -118.20571208  30.50095922
2616.00 -118.38163852  30.56827438
2618.00 -118.55766786  30.63568252
2620.00 -118.73380001  30.70318369
2622.00 -118.91003493  30.77077794
2624.00 -119.08637254  30.83846529
2626.00 -119.26281278  30.90624580
2628.00 -119.43935559  30.97411951
2630.00 -119.61600090  31.04208647
2632.00 -119.79274865  31.11014671
2634.00 -119.96959878  31.17830027
2636.00 -120.14655121  31.24654721
2638.00 -120.32360589  31.31488755
2640.00 -120.50076276  31.38332136
2642.00 -120.67802174  31.45184866
2644.00 -120.85538277  31.52046950
2646.00 -121.03284579  31.58918392
2648.00 -121.21041074  31.65799196
2650.00 -121.38807754  31.72689367
2652.00 -121.56584614  31.79588909
2654.00 -121.74371648  31.86497826
2656.00 -121.92168848  31.93416122
2658.00 -122.09976208  32.00343801
2660.00 -122.27793722  32.07280868
2662.00 -122.45621383  32.14227327
2664.00 -122.63459186  32.21183182
2666.00 -122.81307123  32.28148437
2668.00 -122.99165187  32.35123096
2670.00 -123.17033374  32.42107163
2672.00 -123.34911675  32.49100643
2674.00 -123.52800085  32.56103540
2676.00 -123.70698598  32.63115858
2678.00 -123.88607206  32.70137601
2680.00 -124.06525903  32.77168773
2682.00 -124.24454683  32.84209378
2684.00 -124.42393539  32.91259421
2686.00 -124.60342466  32.98318905
2688.00 -124.78301455  33.05387835
2690.00 -124.96270502  33.12466215
2692.00 -125.14249599  33.19554048
2694.00 -125.32238740  33.26651340
2696.00 -125.50237918  33.33758093
2698.00 -125.68247128  33.40874313
2700.00 -125.86266362  33.48000002
2702.00 -126.04295614  33.55135166
2704.00 -126.22334878  33.62279809
2706.00 -126.40384146  33.69433934
2708.00 -126.58443414  33.76597545
2710.00 -126.76512673  33.83770647
2712.00 -126.94591918  33.90953243
2714.00 -127.12681143  33.98145338
2716.00 -127.30780340  34.05346936
2718.00 -127.48889503  34.12558040
2720.00 -127.67008625  34.19778655
2722.00 -127.85137701  34.27008784
2724.00 -128.03276724  34.34248433
2726.00 -128.21425686  34.41497604
2728.00 -128.39584582  34.48756302
2730.00 -128.57753406  34.56024531
2732.00 -128.75932150  34.63302294
2734.00 -128.94120808  34.70589596
2736.00 -129.12319374  34.77886441
2738.00 -129.30527841  34.85192832
2740.00 -129.48746202  34.92508774
2742.00 -129.66974452  34.99834271
2744.00 -129.85212583  35.07169327
2746.00 -130.03460589  35.14513944
2748.00 -130.21718463  35.21868129
2750.00 -130.39986200  35.29231884
2752.00 -130.58263792  35.36605213
2754.00 -130.76551233  35.43988120
2756.00 -130.94848516  35.51380610
2758.00 -131.13155636  35.58782686
2760.00 -131.31472585  35.66194352
2762.00 -131.49799356  35.73615612
2764.00 -131.68135944  35.81046469
2766.00 -131.86482341  35.88486929
2768.00 -132.04838542  35.95936994
2770.00 -132.23204540  36.03396669
2772.00 -132.41580327  36.10865957
2774.00 -132.59965899  36.18344863
2776.00 -132.78361247  36.25833390
2778.00 -132.96766366  36.33331542
2780.00 -133.15181249  36.40839323
2782.00 -133.33605889  36.48356737
2784.00 -133.52040280  36.55883787
2786.00 -133.70484416  36.63420478
2788.00 -133.88938289  36.70966813
2790.00 -134.07401894  36.78522796
2792.00 -134.25875223  36.86088432
2794.00 -134.44358270  36.93663723
2796.00 -134.62851029  37.01248674
2798.00 -134.81353493  37.08843288
2800.00 -134.99865655  37.16447570
2802.00 -135.18387510  37.24061523
2804.00 -135.36919049  37.31685151
2806.00 -135.55460268  37.39318457
2808.00 -135.74011158  37.46961446
2810.00 -135.92571714  37.54614121
2812.00 -136.11141930  37.62276486
2814.00 -136.29721797  37.69948545
2816.00 -136.48311311  37.77630301
2818.00 -136.66910464  37.85321759
2820.00 -136.85519250  37.93022922
2822.00 -137.04137662  38.00733793
2824.00 -137.22765693  38.08454378
2826.00 -137.41403338  38.16184678
2828.00 -137.60050589  38.23924699
2830.00 -137.78707440  38.31674443
2832.00 -137.97373884  38.39433915
2834.00 -138.16049915  38.47203118
2836.00 -138.34735527  38.54982056
2838.00 -138.53430711  38.62770733
2840.00 -138.72135463  38.70569151
2842.00 -138.90849775  38.78377316
2844.00 -139.09573641  38.86195231
2846.00 -139.28307053  38.94022899
2848.00 -139.47050007  39.01860324
2850.00 -139.65802495  39.09707510
2852.00 -139.84564509  39.17564461
2854.00 -140.03336045  39.25431179
2856.00 -140.22117095  39.33307669
2858.00 -140.40907653  39.41193935
2860.00 -140.59707711  39.49089980
2862.00 -140.78517264  39.56995807
2864.00 -140.97336305  39.64911421
2866.00 -141.16164827  39.72836824
2868.00 -141.35002823  39.80772021
2870.00 -141.53850288  39.88717016
2872.00 -141.72707213  39.96671811
2874.00 -141.91573594  40.04636411
2876.00 -142.10449423  40.12610818
2878.00 -142.29334693  40.20595038
2880.00 -142.48229398  40.28589072
2882.00 -142.67133531  40.36592926
2884.00 -142.86047087  40.44606601
2886.00 -143.04970057  40.52630103
2888.00 -143.23902435  40.60663434
2890.00 -143.42844216  40.68706598
2892.00 -143.61795391  40.76759599
2894.00 -143.80755956  40.84822441
2896.00 -143.99725902  40.92895126
2898.00 -144.18705223  41.00977658
2900.00 -144.37693913  41.09070041
2902.00 -144.56691966  41.17172278
2904.00 -144.75699373  41.25284374
2906.00 -144.94716130  41.33406331
2908.00 -145.13742229  41.41538153
2910.00 -145.32777663  41.49679843
2912.00 -145.51822426  41.57831405
2914.00 -145.70876512  41.65992843
2916.00 -145.89939913  41.74164160
2918.00 -146.09012623  41.82345359
2920.00 -146.28094635  41.90536444
2922.00 -146.47185943  41.98737418
2924.00 -146.66286541  42.06948286
2926.00 -146.85396420  42.15169050
2928.00 -147.04515576  42.23399713
2930.00 -147.23644001  42.31640280
2932.00 -147.42781688  42.39890754
2934.00 -147.61928631  42.48151138
2936.00 -147.81084823  42.56421435
2938.00 -148.00250258  42.64701650
2940.00 -148.19424929  42.72991785
2942.00 -148.38608829  42.81291844
2944.00 -148.57801952  42.89601830
2946.00 -148.77004290  42.97921747
2948.00 -148.96215838  43.06251598
2950.00 -149.15436589  43.14591387
2952.00 -149.34666535  43.22941117
2954.00 -149.53905671  43.31300791
2956.00 -149.73153990  43.39670413
2958.00 -149.92411484  43.48049986
2960.00 -150.11678148  43.56439513
2962.00 -150.30953975  43.64838999
2964.00 -150.50238958  43.73248446
2966.00 -150.69533090  43.81667857
2968.00 -150.88836365  43.90097236
2970.00 -151.08148775  43.98536587
2972.00 -151.27470316  44.06985912
2974.00 -151.46800979  44.15445215
2976.00 -151.66140758  44.23914500
2978.00 -151.85489646  44.32393769
2980.00 -152.04847637  44.40883026
2982.00 -152.24214724  44.49382275
2984.00 -152.43590900  44.57891518
2986.00 -152.62976159  44.66410759
2988.00 -152.82370494  44.74940001
2990.00 -153.01773899  44.83479248
2992.00 -153.21186366  44.92028503
2994.00 -153.40607889  45.00587768
2996.00 -153.60038461  45.09157048
2998.00 -153.79478076  45.17736346
3000.00 -153.98926727  45.26325665
3002.00 -154.18384407  45.34925008
3004.00 -154.37851109  45.43534378
3006.00 -154.57326828  45.52153779
3008.00 -154.76811556  45.60783214
3010.00 -154.96305286  45.69422686
3012.00 -155.15808012  45.78072198
3014.00 -155.35319727  45.86731755
3016.00 -155.54840425  45.95401358
3018.00 -155.74370098  46.04081011
3020.00 -155.93908741  46.12770717
3022.00 -156.13456346  46.21470480
3024.00 -156.33012906  46.30180303
3026.00 -156.52578416  46.38900189
3028.00 -156.72152867  46.47630141
3030.00 -156.91736255  46.56370162
3032.00 -157.11328571  46.65120256
3034.00 -157.30929810  46.73880425
3036.00 -157.50539964  46.82650673
3038.00 -157.70159027  46.91431003
3040.00 -157.89786992  47.00221419
3042.00 -158.09423852  47.09021922
3044.00 -158.29069601  47.17832518
3046.00 -158.48724232  47.26653207
3048.00 -158.68387739  47.35483995
3050.00 -158.88060114  47.44324883
3052.00 -159.07741351  47.53175876
3054.00 -159.27431443  47.62036976
3056.00 -159.47130384  47.70908186
3058.00 -159.66838166  47.79789509
3060.00 -159.86554784  47.88680949
3062.00 -160.06280230  47.97582508
3064.00 -160.26014497  48.06494191
3066.00 -160.45757580  48.15415999
3068.00 -160.65509471  48.24347936
3070.00 -160.85270163  48.33290004
3072.00 -161.05039650  48.42242208
3074.00 -161.24817925  48.51204550
3076.00 -161.44604982  48.60177033
3078.00 -161.64400813  48.69159661
3080.00 -161.84205412  48.78152435
3082.00 -162.04018773  48.87155360
3084.00 -162.23840888  48.96168439
3086.00 -162.43671751  49.05191674
3088.00 -162.63511355  49.14225068
3090.00 -162.83359693  49.23268625
3092.00 -163.03216759  49.32322347
3094.00 -163.23082546  49.41386238
3096.00 -163.42957047  49.50460300
3098.00 -163.62840256  49.59544537
3100.00 -163.82732165  49.68638951
3102.00 -164.02632768  49.77743546
3104.00 -164.22542059  49.86858325
3106.00 -164.42460031  49.95983290
3108.00 -164.62386676  50.05118444
3110.00 -164.82321988  50.14263791
3112.00 -165.02265961  50.23419333
3114.00 -165.22218587  50.32585074
3116.00 -165.42179861  50.41761016
3118.00 -165.62149775  50.50947163
3120.00 -165.82128322  50.60143516
3122.00 -166.02115496  50.69350080
3124.00 -166.22111290  50.78566857
3126.00 -166.42115697  50.87793850
3128.00 -166.62128711  50.97031062
3130.00 -166.82150325  51.06278496
3132.00 -167.02180531  51.15536155
3134.00 -167.22219325  51.24804042
3136.00 -167.42266698  51.34082159
3138.00 -167.62322643  51.43370510
3140.00 -167.82387155  51.52669097
3142.00 -168.02460227  51.61977923
3144.00 -168.22541851  51.71296992
3146.00 -168.42632021  51.80626306
3148.00 -168.62730730  51.89965868
3150.00 -168.82837972  51.99315680
3152.00 -169.02953739  52.08675747
3154.00 -169.23078026  52.18046069
3156.00 -169.43210825  52.27426652
3158.00 -169.63352129  52.36817496
3160.00 -169.83501932  52.46218606
3162.00 -170.03660227  52.55629983
3164.00 -170.23827008  52.65051631
3166.00 -170.44002267  52.74483553
3168.00 -170.64185998  52.83925751
3170.00 -170.84378193  52.93378229
3172.00 -171.04578848  53.02840988
3174.00 -171.24787953  53.12314033
3176.00 -171.45005504  53.21797364
3178.00 -171.65231493  53.31290987
3180.00 -171.85465913  53.40794902
3182.00 -172.05708757  53.50309114
3184.00 -172.25960020  53.59833624
3186.00 -172.46219693  53.69368436
3188.00 -172.66487771  53.78913552
3190.00 -172.86764247  53.88468975
3192.00 -173.07049113  53.98034708
3194.00 -173.27342363  54.07610754
3196.00 -173.47643991  54.17197115
3198.00 -173.67953989  54.26793793
3200.00 -173.88272352  54.36400793
3202.00 -174.08599071  54.46018116
3204.00 -174.28934140  54.55645766
3206.00 -174.49277554  54.65283744
3208.00 -174.69629304  54.74932054
3210.00 -174.89989384  54.84590699
3212.00 -175.10357787  54.94259680
3214.00 -175.30734507  55.03939002
3216.00 -175.51119537  55.13628666
3218.00 -175.71512869  55.23328674
3220.00 -175.91914498  55.33039031
3222.00 -176.12324417  55.42759739
3224.00 -176.32742618  55.52490799
3226.00 -176.53169096  55.62232216
3228.00 -176.73603842  55.71983990
3230.00 -176.94046852  55.81746126
3232.00 -177.14498116  55.91518626
3234.00 -177.34957630  56.01301493
3236.00 -177.55425386  56.11094728
3238.00 -177.75901378  56.20898335
3240.00 -177.96385598  56.30712317
3242.00 -178.16878040  56.40536675
3244.00 -178.37378698  56.50371414
3246.00 -178.57887564  56.60216534
3248.00 -178.78404631  56.70072039
3250.00 -178.98929893  56.79937932
3252.00 -179.19463344  56.89814215
3254.00 -179.40004976  56.99700890
3256.00 -179.60554782  57.09597960
3258.00 -179.81112756  57.19505429
3260.00 -180.01678892  57.29423297
3262.00 -180.22253181  57.39351569
3264.00 -180.42835619  57.49290246
3266.00 -180.63426197  57.59239331
3268.00 -180.84024909  57.69198827
3270.00 -181.04631748  57.79168736
3272.00 -181.25246708  57.89149060
3274.00 -181.45869781  57.99139803
3276.00 -181.66500962  58.09140967
3278.00 -181.87140242  58.19152554
3280.00 -182.07787616  58.29174567
3282.00 -182.28443077  58.39207008
3284.00 -182.49106618  58.49249880
3286.00 -182.69778231  58.59303185
3288.00 -182.90457911  58.69366927
3290.00 -183.11145651  58.79441106
3292.00 -183.31841443  58.89525727
3294.00 -183.52545282  58.99620790
3296.00 -183.73257160  59.09726300
3298.00 -183.93977070  59.19842258
3300.00 -184.14705006  59.29968667
3302.00 -184.35440961  59.40105529
3304.00 -184.56184928  59.50252847
3306.00 -184.76936900  59.60410622
3308.00 -184.97696872  59.70578859
3310.00 -185.18464835  59.80757558
3312.00 -185.39240783  59.90946723
3314.00 -185.60024709  60.01146356
3316.00 -185.80816608  60.11356460
3318.00 -186.01616470  60.21577036
3320.00 -186.22424291  60.31808087
3322.00 -186.43240064  60.42049616
3324.00 -186.64063780  60.52301625
3326.00 -186.84895435  60.62564116
3328.00 -187.05735020  60.72837092
3330.00 -187.26582529  60.83120555
3332.00 -187.47437956  60.93414508
3334.00 -187.68301294  61.03718953
3336.00 -187.89172535  61.14033892
3338.00 -188.10051673  61.24359328
3340.00 -188.30938702  61.34695263
3342.00 -188.51833614  61.45041700
3344.00 -188.72736403  61.55398640
3346.00 -188.93647062  61.65766087
3348.00 -189.14565584  61.76144041
3350.00 -189.35491963  61.86532507
3352.00 -189.56426191  61.96931486
3354.00 -189.77368262  62.07340981
3356.00 -189.98318169  62.17760993
3358.00 -190.19275906  62.28191525
3360.00 -190.40241465  62.38632580
3362.00 -190.61214840  62.49084160
3364.00 -190.82196024  62.59546267
3366.00 -191.03185010  62.70018903
3368.00 -191.24181791  62.80502071
3370.00 -191.45186361  62.90995773
3372.00 -191.66198714  63.01500011
3374.00 -191.87218841  63.12014787
3376.00 -192.08246736  63.22540104
3378.00 -192.29282394  63.33075965
3380.00 -192.50325806  63.43622370
3382.00 -192.71376966  63.54179323
3384.00 -192.92435867  63.64746826
3386.00 -193.13502503  63.75324882
3388.00 -193.34576866  63.85913491
3390.00 -193.55658950  63.96512657
3392.00 -193.76748749  64.07122382
3394.00 -193.97846255  64.17742667
3396.00 -194.18951461  64.28373516
3398.00 -194.40064362  64.39014931
3400.00 -194.61184949  64.49666913
3402.00 -194.82313217  64.60329465
3404.00 -195.03449158  64.71002589
3406.00 -195.24592766  64.81686287
3408.00 -195.45744034  64.92380561
3410.00 -195.66902955  65.03085415
3412.00 -195.88069522  65.13800849
3414.00 -196.09243729  65.24526866
3416.00 -196.30425569  65.35263468
3418.00 -196.51615035  65.46010657
3420.00 -196.72812120  65.56768436
3422.00 -196.94016817  65.67536806
3424.00 -197.15229121  65.78315771
3426.00 -197.36449023  65.89105331
3428.00 -197.57676518  65.99905489
3430.00 -197.78911598  66.10716247
3432.00 -198.00154256  66.21537608
3434.00 -198.21404487  66.32369573
3436.00 -198.42662283  66.43212145
3438.00 -198.63927636  66.54065325
3440.00 -198.85200542  66.64929116
3442.00 -199.06480992  66.75803520
3444.00 -199.27768980  66.86688539
3446.00 -199.49064500  66.97584175
3448.00 -199.70367544  67.08490430
3450.00 -199.91678105  67.19407306
3452.00 -200.12996177  67.30334805
3454.00 -200.34321754  67.41272930
3456.00 -200.55654828  67.52221683
3458.00 -200.76995392  67.63181064
3460.00 -200.98343440  67.74151078
3462.00 -201.19698966  67.85131725
3464.00 -201.41061961  67.96123007
3466.00 -201.62432420  68.07124927
3468.00 -201.83810336  68.18137487
3470.00 -202.05195701  68.29160689
3472.00 -202.26588510  68.40194534
3474.00 -202.47988755  68.51239025
3476.00 -202.69396430  68.62294164
3478.00 -202.90811527  68.73359953
3480.00 -203.12234041  68.84436394
3482.00 -203.33663964  68.95523488
3484.00 -203.55101289  69.06621238
3486.00 -203.76546010  69.17729646
3488.00 -203.97998121  69.28848714
3490.00 -204.19457613  69.39978444
3492.00 -204.40924481  69.51118837
3494.00 -204.62398717  69.62269896
3496.00 -204.83880315  69.73431622
3498.00 -205.05369269  69.84604018
3500.00 -205.26865571  69.95787086
3502.00 -205.48369214  70.06980827
3504.00 -205.69880192  70.18185244
3506.00 -205.91398498  70.29400338
3508.00 -206.12924126  70.40626112
3510.00 -206.34457068  70.51862566
3512.00 -206.55997317  70.63109704
3514.00 -206.77544868  70.74367527
3516.00 -206.99099713  70.85636037
3518.00 -207.20661845  70.96915236
3520.00 -207.42231258  71.08205125
3522.00 -207.63807945  71.19505708
3524.00 -207.85391899  71.30816985
3526.00 -208.06983113  71.42138958
3528.00 -208.28581581  71.53471630
3530.00 -208.50187296  71.64815002
3532.00 -208.71800250  71.76169076
3534.00 -208.93420438  71.87533854
3536.00 -209.15047853  71.98909338
3538.00 -209.36682487  72.10295530
3540.00 -209.58324334  72.21692431
3542.00 -209.79973388  72.33100043
3544.00 -210.01629641  72.44518369
3546.00 -210.23293087  72.55947410
3548.00 -210.44963718  72.67387168
3550.00 -210.66641529  72.78837644
3552.00 -210.88326512  72.90298841
3554.00 -211.10018661  73.01770761
3556.00 -211.31717968  73.13253404
3558.00 -211.53424428  73.24746774
3560.00 -211.75138033  73.36250871
3562.00 -211.96858777  73.47765698
3564.00 -212.18586653  73.59291256
3566.00 -212.40321653  73.70827548
3568.00 -212.62063772  73.82374574
3570.00 -212.83813003  73.93932337
3572.00 -213.05569338  74.05500839
3574.00 -213.27332771  74.17080080
3576.00 -213.49103296  74.28670064
3578.00 -213.70880905  74.40270792
3580.00 -213.92665591  74.51882265
3582.00 -214.14457349  74.63504485
3584.00 -214.36256171  74.75137454
3586.00 -214.58062051  74.86781174
3588.00 -214.79874981  74.98435646
3590.00 -215.01694955  75.10100873
3592.00 -215.23521966  75.21776855
3594.00 -215.45356008  75.33463595
3596.00 -215.67197074  75.45161095
3598.00 -215.89045156  75.56869355
3600.00 -216.10900249  75.68588378
3602.00 -216.32762345  75.80318166
3604.00 -216.54631438  75.92058720
3606.00 -216.76507520  76.03810041
3608.00 -216.98390586  76.15572132
3610.00 -217.20280628  76.27344994
3612.00 -217.42177640  76.39128629
3614.00 -217.64081615  76.50923038
3616.00 -217.85992546  76.62728224
3618.00 -218.07910426  76.74544187
3620.00 -218.29835249  76.86370930
3622.00 -218.51767008  76.98208453
3624.00 -218.73705696  77.10056760
3626.00 -218.95651307  77.21915851
3628.00 -219.17603833  77.33785728
3630.00 -219.39563268  77.45666392
3632.00 -219.61529606  77.57557846
3634.00 -219.83502838  77.69460091
3636.00 -220.05482960  77.81373128
3638.00 -220.27469963  77.93296959
3640.00 -220.49463842  78.05231585
3642.00 -220.71464589  78.17177009
3644.00 -220.93472197  78.29133232
3646.00 -221.15486661  78.41100256
3648.00 -221.37507973  78.53078081
3650.00 -221.59536126  78.65066710
3652.00 -221.81571114  78.77066144
3654.00 -222.03612930  78.89076385
3656.00 -222.25661568  79.01097434
3658.00 -222.47717019  79.13129293
3660.00 -222.69779279  79.25171963
3662.00 -222.91848339  79.37225446
3664.00 -223.13924194  79.49289744
3666.00 -223.36006837  79.61364857
3668.00 -223.58096260  79.73450789
3670.00 -223.80192457  79.85547539
3672.00 -224.02295422  79.97655110
3674.00 -224.24405147  80.09773503
3676.00 -224.46521626  80.21902719
3678.00 -224.68644852  80.34042761
3680.00 -224.90774819  80.46193629
3682.00 -225.12911519  80.58355325
3684.00 -225.35054947  80.70527851
3686.00 -225.57205094  80.82711208
3688.00 -225.79361955  80.94905398
3690.00 -226.01525522  81.07110422
3692.00 -226.23695790  81.19326281
3694.00 -226.45872751  81.31552977
3696.00 -226.68056398  81.43790511
3698.00 -226.90246726  81.56038886
3700.00 -227.12443726  81.68298102
3702.00 -227.34647393  81.80568160
3704.00 -227.56857719  81.92849063
3706.00 -227.79074698  82.05140812
3708.00 -228.01298324  82.17443407
3710.00 -228.23528589  82.29756851
3712.00 -228.45765486  82.42081145
3714.00 -228.68009010  82.54416291
3716.00 -228.90259153  82.66762289
3718.00 -229.12515908  82.79119141
3720.00 -229.34779270  82.91486849
3722.00 -229.57049230  83.03865414
3724.00 -229.79325783  83.16254837
3726.00 -230.01608921  83.28655121
3728.00 -230.23898639  83.41066265
3730.00 -230.46194928  83.53488271
3732.00 -230.68497784  83.65921142
3734.00 -230.90807198  83.78364878
3736.00 -231.13123164  83.90819480
3738.00 -231.35445675  84.03284951
3740.00 -231.57774726  84.15761291
3742.00 -231.80110308  84.28248501
3744.00 -232.02452415  84.40746584
3746.00 -232.24801041  84.53255540
3748.00 -232.47156179  84.65775370
3750.00 -232.69517822  84.78306077
3752.00 -232.91885963  84.90847661
3754.00 -233.14260596  85.03400123
3756.00 -233.36641713  85.15963466
3758.00 -233.59029309  85.28537690
3760.00 -233.81423377  85.41122796
3762.00 -234.03823910  85.53718787
3764.00 -234.26230900  85.66325662
3766.00 -234.48644342  85.78943424
3768.00 -234.71064229  85.91572074
3770.00 -234.93490554  86.04211613
3772.00 -235.15923310  86.16862042
3774.00 -235.38362491  86.29523363
3776.00 -235.60808090  86.42195576
3778.00 -235.83260100  86.54878684
3780.00 -236.05718514  86.67572687
3782.00 -236.28183326  86.80277587
3784.00 -236.50654530  86.92993384
3786.00 -236.73132118  87.05720081
3788.00 -236.95616083  87.18457678
3790.00 -237.18106420  87.31206177
3792.00 -237.40603121  87.43965578
3794.00 -237.63106179  87.56735884
3796.00 -237.85615589  87.69517094
3798.00 -238.08131343  87.82309212
3800.00 -238.30653434  87.95112236
3802.00 -238.53181856  88.07926170
3804.00 -238.75716603  88.20751014
3806.00 -238.98257666  88.33586769
3808.00 -239.20805041  88.46433436
3810.00 -239.43358720  88.59291017
3812.00 -239.65918696  88.72159513
3814.00 -239.88484963  88.85038925
3816.00 -240.11057514  88.97929254
3818.00 -240.33636343  89.10830502
3820.00 -240.56221442  89.23742668
3822.00 -240.78812805  89.36665756
3824.00 -241.01410426  89.49599765
3826.00 -241.24014297  89.62544697
3828.00 -241.46624412  89.75500553
3830.00 -241.69240765  89.88467335
3832.00 -241.91863348  90.01445043
3834.00 -242.14492155  90.14433678
3836.00 -242.37127179  90.27433242
3838.00 -242.59768414  90.40443735
3840.00 -242.82415852  90.53465159
3842.00 -243.05069488  90.66497516
3844.00 -243.27729315  90.79540805
3846.00 -243.50395325  90.92595028
3848.00 -243.73067513  91.05660187
3850.00 -243.95745871  91.18736282
3852.00 -244.18430393  91.31823314
3854.00 -244.41121073  91.44921284
3856.00 -244.63817902  91.58030195
3858.00 -244.86520876  91.71150045
3860.00 -245.09229987  91.84280838
3862.00 -245.31945229  91.97422573
3864.00 -245.54666594  92.10575252
3866.00 -245.77394077  92.23738876
3868.00 -246.00127670  92.36913446
3870.00 -246.22867367  92.50098962
3872.00 -246.45613161  92.63295427
3874.00 -246.68365046  92.76502840
3876.00 -246.91123015  92.89721204
3878.00 -247.13887061  93.02950518
3880.00 -247.36657178  93.16190785
3882.00 -247.59433358  93.29442004
3884.00 -247.82215596  93.42704178
3886.00 -248.05003885  93.55977307
3888.00 -248.27798218  93.69261391
3890.00 -248.50598588  93.82556433
3892.00 -248.73404988  93.95862433
3894.00 -248.96217413  94.09179392
3896.00 -249.19035855  94.22507311
3898.00 -249.41860308  94.35846191
3900.00 -249.64690765  94.49196033
3902.00 -249.87527220  94.62556838
3904.00 -250.10369665  94.75928606
3906.00 -250.33218094  94.89311340
3908.00 -250.56072501  95.02705039
3910.00 -250.78932879  95.16109705
3912.00 -251.01799221  95.29525339
3914.00 -251.24671521  95.42951941
3916.00 -251.47549772  95.56389513
3918.00 -251.70433967  95.69838055
3920.00 -251.93324100  95.83297569
3922.00 -252.16220164  95.96768054
3924.00 -252.39122152  96.10249514
3926.00 -252.62030058  96.23741947
3928.00 -252.84943876  96.37245355
3930.00 -253.07863598  96.50759739
3932.00 -253.30789217  96.64285101
3934.00 -253.53720729  96.77821439
3936.00 -253.76658124  96.91368757
3938.00 -253.99601398  97.04927054
3940.00 -254.22550543  97.18496331
3942.00 -254.45505553  97.32076589
3944.00 -254.68466421  97.45667830
3946.00 -254.91433141  97.59270053
3948.00 -255.14405706  97.72883260
3950.00 -255.37384109  97.86507452
3952.00 -255.60368343  98.00142630
3954.00 -255.83358403  98.13788794
3956.00 -256.06354281  98.27445945
3958.00 -256.29355971  98.41114084
3960.00 -256.52363466  98.54793212
3962.00 -256.75376760  98.68483329
3964.00 -256.98395846  98.82184437
3966.00 -257.21420717  98.95896537
3968.00 -257.44451367  99.09619628
3970.00 -257.67487789  99.23353713
3972.00 -257.90529977  99.37098791
3974.00 -258.13577923  99.50854864
3976.00 -258.36631622  99.64621932
3978.00 -258.59691067  99.78399996
3980.00 -258.82756251  99.92189057
3982.00 -259.05827168 100.05989116
3984.00 -259.28903810 100.19800173
3986.00 -259.51986172 100.33622230
3988.00 -259.75074246 100.47455286
3990.00 -259.98168027 100.61299343
3992.00 -260.21267507 100.75154402
3994.00 -260.44372680 100.89020463
3996.00 -260.67483540 101.02897527
3998.00 -260.90600079 101.16785594
4000.00 -261.13722291 101.30684666
4002.00 -261.36850171 101.44594744
4004.00 -261.59983710 101.58515827
4006.00 -261.83122902 101.72447917
4008.00 -262.06267741 101.86391014
4010.00 -262.29418221 102.00345120
4012.00 -262.52574334 102.14310234
4014.00 -262.75736075 102.28286358
4016.00 -262.98903435 102.42273492
4018.00 -263.22076410 102.56271637
4020.00 -263.45254992 102.70280793
4022.00 -263.68439175 102.84300962
4024.00 -263.91628952 102.98332143
4026.00 -264.14824317 103.12374339
4028.00 -264.38025263 103.26427548
4030.00 -264.61231783 103.40491773
4032.00 -264.84443871 103.54567013
4034.00 -265.07661520 103.68653270
4036.00 -265.30884724 103.82750544
4038.00 -265.54113477 103.96858835
4040.00 -265.77347771 104.10978144
4042.00 -266.00587600 104.25108473
4044.00 -266.23832957 104.39249821
4046.00 -266.47083836 104.53402189
4048.00 -266.70340231 104.67565578
4050.00 -266.93602135 104.81739988
4052.00 -267.16869541 104.95925420
4054.00 -267.40142442 105.10121875
4056.00 -267.63420833 105.24329354
4058.00 -267.86704706 105.38547856
4060.00 -268.09994055 105.52777382
4062.00 -268.33288874 105.67017934
4064.00 -268.56589156 105.81269511
4066.00 -268.79894894 105.95532115
4068.00 -269.03206082 106.09805746
4070.00 -269.26522713 106.24090403
4072.00 -269.49844781 106.38386089
4074.00 -269.73172279 106.52692804
4076.00 -269.96505201 106.67010547
4078.00 -270.19843540 106.81339320
4080.00 -270.43187289 106.95679124
4082.00 -270.66536442 107.10029958
4084.00 -270.89890993 107.24391824
4086.00 -271.13250935 107.38764721
4088.00 -271.36616261 107.53148651
4090.00 -271.59986966 107.67543614
4092.00 -271.83363041 107.81949610
4094.00 -272.06744481 107.96366640
4096.00 -272.30131280 108.10794705
4098.00 -272.53523430 108.25233805
4100.00 -272.76920926 108.39683940
4102.00 -273.00323760 108.54145112
4104.00 -273.23731927 108.68617320
4106.00 -273.47145419 108.83100565
4108.00 -273.70564230 108.97594847
4110.00 -273.93988354 109.12100168
4112.00 -274.17417784 109.26616527
4114.00 -274.40852513 109.41143925
4116.00 -274.64292536 109.55682363
4118.00 -274.87737845 109.70231841
4120.00 -275.11188434 109.84792359
4122.00 -275.34644297 109.99363917
4124.00 -275.58105427 110.13946518
4126.00 -275.81571817 110.28540160
4128.00 -276.05043461 110.43144844
4130.00 -276.28520353 110.57760571
4132.00 -276.52002485 110.72387341
4134.00 -276.75489853 110.87025154
4136.00 -276.98982448 111.01674012
4138.00 -277.22480264 111.16333914
4140.00 -277.45983296 111.31004861
4142.00 -277.69491536 111.45686853
4144.00 -277.93004978 111.60379891
4146.00 -278.16523615 111.75083975
4148.00 -278.40047442 111.89799105
4150.00 -278.63576451 112.04525282
4152.00 -278.87110636 112.19262507
4154.00 -279.10649990 112.34010779
4156.00 -279.34194508 112.48770099
4158.00 -279.57744182 112.63540468
4160.00 -279.81299006 112.78321885
4162.00 -280.04858974 112.93114352
4164.00 -280.28424078 113.07917868
4166.00 -280.51994314 113.22732434
4168.00 -280.75569673 113.37558051
4170.00 -280.99150151 113.52394718
4172.00 -281.22735739 113.67242436
4174.00 -281.46326432 113.82101205
4176.00 -281.69922223 113.96971027
4178.00 -281.93523106 114.11851900
4180.00 -282.17129075 114.26743825
4182.00 -282.40740122 114.41646804
4184.00 -282.64356241 114.56560835
4186.00 -282.87977427 114.71485919
4188.00 -283.11603672 114.86422058
4190.00 -283.35234969 115.01369250
4192.00 -283.58871314 115.16327496
4194.00 -283.82512698 115.31296798
4196.00 -284.06159116 115.46277154
4198.00 -284.29810561 115.61268565
4200.00 -284.53467026 115.76271031
4202.00 -284.77128506 115.91284554
4204.00 -285.00794994 116.06309132
4206.00 -285.24466483 116.21344767
4208.00 -285.48142967 116.36391458
4210.00 -285.71824439 116.51449207
4212.00 -285.95510893 116.66518012
4214.00 -286.19202323 116.81597875
4216.00 -286.42898721 116.96688795
4218.00 -286.66600083 117.11790774
4220.00 -286.90306400 117.26903810
4222.00 -287.14017668 117.42027905
4224.00 -287.37733878 117.57163058
4226.00 -287.61455026 117.72309271
4228.00 -287.85181104 117.87466542
4230.00 -288.08912106 118.02634873
4232.00 -288.32648025 118.17814264
4234.00 -288.56388856 118.33004714
4236.00 -288.80134591 118.48206224
4238.00 -289.03885225 118.63418794
4240.00 -289.27640751 118.78642425
4242.00 -289.51401162 118.93877116
4244.00 -289.75166452 119.09122868
4246.00 -289.98936615 119.24379681
4248.00 -290.22711644 119.39647556
4250.00 -290.46491532 119.54926491
4252.00 -290.70276274 119.70216488
4254.00 -290.94065863 119.85517547
4256.00 -291.17860293 120.00829668
4258.00 -291.41659556 120.16152851
4260.00 -291.65463648 120.31487096
4262.00 -291.89272560 120.46832403
4264.00 -292.13086288 120.62188773
4266.00 -292.36904824 120.77556206
4268.00 -292.60728162 120.92934701
4270.00 -292.84556296 121.08324260
4272.00 -293.08389219 121.23724881
4274.00 -293.32226925 121.39136566
4276.00 -293.56069408 121.54559314
4278.00 -293.79916661 121.69993126
4280.00 -294.03768677 121.85438001
4282.00 -294.27625451 122.00893940
4284.00 -294.51486976 122.16360943
4286.00 -294.75353245 122.31839009
4288.00 -294.99224252 122.47328140
4290.00 -295.23099991 122.62828335
4292.00 -295.46980456 122.78339594
4294.00 -295.70865639 122.93861918
4296.00 -295.94755536 123.09395306
4298.00 -296.18650138 123.24939758
4300.00 -296.42549440 123.40495275
4302.00 -296.66453436 123.56061857
4304.00 -296.90362119 123.71639504
4306.00 -297.14275483 123.87228215
4308.00 -297.38193521 124.02827991
4310.00 -297.62116227 124.18438832
4312.00 -297.86043595 124.34060738
4314.00 -298.09975618 124.49693709
4316.00 -298.33912291 124.65337745
4318.00 -298.57853605 124.80992846
4320.00 -298.81799556 124.96659012
4322.00 -299.05750137 125.12336244
4324.00 -299.29705341 125.28024540
4326.00 -299.53665162 125.43723902
4328.00 -299.77629594 125.59434330
4330.00 -300.01598631 125.75155822
4332.00 -300.25572266 125.90888380
4334.00 -300.49550492 126.06632002
4336.00 -300.73533304 126.22386691
4338.00 -300.97520695 126.38152444
4340.00 -301.21512659 126.53929263
4342.00 -301.45509189 126.69717147
4344.00 -301.69510279 126.85516096
4346.00 -301.93515922 127.01326111
4348.00 -302.17526113 127.17147191
4350.00 -302.41540845 127.32979336
4352.00 -302.65560112 127.48822546
4354.00 -302.89583907 127.64676821
4356.00 -303.13612225 127.80542161
4358.00 -303.37645058 127.96418567
4360.00 -303.61682400 128.12306037
4362.00 -303.85724245 128.28204572
4364.00 -304.09770587 128.44114172
4366.00 -304.33821420 128.60034838
4368.00 -304.57876736 128.75966567
4370.00 -304.81936531 128.91909362
4372.00 -305.06000797 129.07863221
4374.00 -305.30069528 129.23828145
4376.00 -305.54142718 129.39804133
4378.00 -305.78220360 129.55791186
4380.00 -306.02302449 129.71789303
4382.00 -306.26388977 129.87798484
4384.00 -306.50479940 130.03818729
4386.00 -306.74575329 130.19850038
4388.00 -306.98675140 130.35892412
4390.00 -307.22779365 130.51945849
4392.00 -307.46887999 130.68010349
4394.00 -307.71001034 130.84085914
4396.00 -307.95118466 131.00172542
4398.00 -308.19240287 131.16270233
4400.00 -308.43366492 131.32378987
4402.00 -308.67497073 131.48498805
4404.00 -308.91632025 131.64629685
4406.00 -309.15771342 131.80771628
4408.00 -309.39915017 131.96924634
4410.00 -309.64063043 132.13088703
4412.00 -309.88215415 132.29263833
4414.00 -310.12372126 132.45450026
4416.00 -310.36533171 132.61647281
4418.00 -310.60698542 132.77855598
4420.00 -310.84868233 132.94074977
4422.00 -311.09042239 133.10305417
4424.00 -311.33220553 133.26546919
4426.00 -311.57403168 133.42799482
4428.00 -311.81590079 133.59063105
4430.00 -312.05781278 133.75337790
4432.00 -312.29976761 133.91623535
4434.00 -312.54176520 134.07920341
4436.00 -312.78380550 134.24228207
4438.00 -313.02588844 134.40547133
4440.00 -313.26801395 134.56877118
4442.00 -313.51018198 134.73218164
4444.00 -313.75239247 134.89570268
4446.00 -313.99464535 135.05933432
4448.00 -314.23694055 135.22307655
4450.00 -314.47927802 135.38692937
4452.00 -314.72165770 135.55089277
4454.00 -314.96407951 135.71496675
4456.00 -315.20654341 135.87915131
4458.00 -315.44904932 136.04344645
4460.00 -315.69159719 136.20785217
4462.00 -315.93418694 136.37236846
4464.00 -316.17681853 136.53699532
4466.00 -316.41949189 136.70173274
4468.00 -316.66220694 136.86658073
4470.00 -316.90496365 137.03153929
4472.00 -317.14776193 137.19660840
4474.00 -317.39060173 137.36178807
4476.00 -317.63348299 137.52707829
4478.00 -317.87640564 137.69247907
4480.00 -318.11936962 137.85799039
4482.00 -318.36237488 138.02361226
4484.00 -318.60542134 138.18934467
4486.00 -318.84850894 138.35518762
4488.00 -319.09163763 138.52114110
4490.00 -319.33480734 138.68720512
4492.00 -319.57801801 138.85337967
4494.00 -319.82126958 139.01966475
4496.00 -320.06456198 139.18606035
4498.00 -320.30789516 139.35256647
4500.00 -320.55126904 139.51918310
4502.00 -320.79468358 139.68591026
4504.00 -321.03813870 139.85274792
4506.00 -321.28163435 140.01969609
4508.00 -321.52517047 140.18675476
4510.00 -321.76874698 140.35392394
4512.00 -322.01236384 140.52120361
4514.00 -322.25602097 140.68859377
4516.00 -322.49971832 140.85609442
4518.00 -322.74345582 141.02370556
4520.00 -322.98723342 141.19142719
4522.00 -323.23105104 141.35925929
4524.00 -323.47490864 141.52720186
4526.00 -323.71880615 141.69525491
4528.00 -323.96274350 141.86341842
4530.00 -324.20672063 142.03169240
4532.00 -324.45073749 142.20007684
4534.00 -324.69479401 142.36857173
4536.00 -324.93889012 142.53717708
4538.00 -325.18302578 142.70589287
4540.00 -325.42720091 142.87471911
4542.00 -325.67141546 143.04365579
4544.00 -325.91566935 143.21270290
4546.00 -326.15996254 143.38186044
4548.00 -326.40429496 143.55112842
4550.00 -326.64866655 143.72050681
4552.00 -326.89307725 143.88999562
4554.00 -327.13752699 144.05959485
4556.00 -327.38201572 144.22930449
4558.00 -327.62654337 144.39912453
4560.00 -327.87110988 144.56905498
4562.00 -328.11571519 144.73909582
4564.00 -328.36035924 144.90924705
4566.00 -328.60504197 145.07950867
4568.00 -328.84976331 145.24988067
4570.00 -329.09452321 145.42036306
4572.00 -329.33932160 145.59095581
4574.00 -329.58415843 145.76165894
4576.00 -329.82903362 145.93247243
4578.00 -330.07394713 146.10339628
4580.00 -330.31889888 146.27443048
4582.00 -330.56388882 146.44557504
4584.00 -330.80891689 146.61682994
4586.00 -331.05398303 146.78819518
4588.00 -331.29908717 146.95967075
4590.00 -331.54422925 147.13125666
4592.00 -331.78940922 147.30295289
4594.00 -332.03462700 147.47475944
4596.00 -332.27988255 147.64667631
4598.00 -332.52517579 147.81870348
4600.00 -332.77050668 147.99084096
4602.00 -333.01587514 148.16308874
4604.00 -333.26128112 148.33544682
4606.00 -333.50672455 148.50791518
4608.00 -333.75220538 148.68049383
4610.00 -333.99772354 148.85318275
4612.00 -334.24327898 149.02598195
4614.00 -334.48887162 149.19889142
4616.00 -334.73450142 149.37191115
4618.00 -334.98016831 149.54504113
4620.00 -335.22587223 149.71828136
4622.00 -335.47161312 149.89163184
4624.00 -335.71739091 150.06509256
4626.00 -335.96320556 150.23866352
4628.00 -336.20905699 150.41234470
4630.00 -336.45494514 150.58613610
4632.00 -336.70086997 150.76003772
4634.00 -336.94683139 150.93404955
4636.00 -337.19282937 151.10817159
4638.00 -337.43886382 151.28240383
4640.00 -337.68493470 151.45674625
4642.00 -337.93104194 151.63119887
4644.00 -338.17718549 151.80576167
4646.00 -338.42336527 151.98043464
4648.00 -338.66958124 152.15521778
4650.00 -338.91583333 152.33011109
4652.00 -339.16212148 152.50511455
4654.00 -339.40844562 152.68022816
4656.00 -339.65480571 152.85545192
4658.00 -339.90120168 153.03078581
4660.00 -340.14763347 153.20622984
4662.00 -340.39410101 153.38178399
4664.00 -340.64060425 153.55744826
4666.00 -340.88714314 153.73322264
4668.00 -341.13371759 153.90910713
4670.00 -341.38032757 154.08510172
4672.00 -341.62697300 154.26120640
4674.00 -341.87365384 154.43742117
4676.00 -342.12037000 154.61374602
4678.00 -342.36712145 154.79018095
4680.00 -342.61390811 154.96672594
4682.00 -342.86072993 155.14338099
4684.00 -343.10758684 155.32014609
4686.00 -343.35447879 155.49702124
4688.00 -343.60140572 155.67400643
4690.00 -343.84836756 155.85110165
4692.00 -344.09536426 156.02830690
4694.00 -344.34239576 156.20562217
4696.00 -344.58946199 156.38304745
4698.00 -344.83656290 156.56058274
4700.00 -345.08369842 156.73822802
4702.00 -345.33086851 156.91598329
4704.00 -345.57807308 157.09384855
4706.00 -345.82531210 157.27182379
4708.00 -346.07258549 157.44990899
4710.00 -346.31989320 157.62810416
4712.00 -346.56723517 157.80640929
4714.00 -346.81461134 157.98482436
4716.00 -347.06202164 158.16334937
4718.00 -347.30946602 158.34198431
4720.00 -347.55694442 158.52072918
4722.00 -347.80445678 158.69958397
4724.00 -348.05200304 158.87854868
4726.00 -348.29958314 159.05762328
4728.00 -348.54719701 159.23680778
4730.00 -348.79484461 159.41610217
4732.00 -349.04252587 159.59550644
4734.00 -349.29024073 159.77502058
4736.00 -349.53798913 159.95464459
4738.00 -349.78577102 160.13437845
4740.00 -350.03358633 160.31422217
4742.00 -350.28143500 160.49417573
4744.00 -350.52931697 160.67423912
4746.00 -350.77723219 160.85441234
4748.00 -351.02518059 161.03469538
4750.00 -351.27316212 161.21508823
4752.00 -351.52117672 161.39559088
4754.00 -351.76922432 161.57620333
4756.00 -352.01730487 161.75692556
4758.00 -352.26541831 161.93775757
4760.00 -352.51356458 162.11869936
4762.00 -352.76174362 162.29975090
4764.00 -353.00995537 162.48091220
4766.00 -353.25819977 162.66218325
4768.00 -353.50647676 162.84356403
4770.00 -353.75478629 163.02505455
4772.00 -354.00312829 163.20665478
4774.00 -354.25150270 163.38836473
4776.00 -354.49990948 163.57018438
4778.00 -354.74834854 163.75211373
4780.00 -354.99681985 163.93415277
4782.00 -355.24532334 164.11630149
4784.00 -355.49385894 164.29855987
4786.00 -355.74242661 164.48092792
4788.00 -355.99102627 164.66340563
4790.00 -356.23965788 164.84599297
4792.00 -356.48832138 165.02868996
4794.00 -356.73701670 165.21149657
4796.00 -356.98574379 165.39441280
4798.00 -357.23450258 165.57743864
4800.00 -357.48329302 165.76057408
4802.00 -357.73211505 165.94381912
4804.00 -357.98096862 166.12717374
4806.00 -358.22985365 166.31063793
4808.00 -358.47877010 166.49421169
4810.00 -358.72771791 166.67789501
4812.00 -358.97669701 166.86168787
4814.00 -359.22570735 167.04559027
4816.00 -359.47474887 167.22960221
4818.00 -359.72382150 167.41372366
4820.00 -359.97292520 167.59795463
4822.00 -360.22205991 167.78229509
4824.00 -360.47122556 167.96674505
4826.00 -360.72042209 168.15130450
4828.00 -360.96964945 168.33597342
4830.00 -361.21890758 168.52075180
4832.00 -361.46819643 168.70563964
4834.00 -361.71751592 168.89063693
4836.00 -361.96686601 169.07574365
4838.00 -362.21624663 169.26095980
4840.00 -362.46565774 169.44628537
4842.00 -362.71509926 169.63172035
4844.00 -362.96457114 169.81726473
4846.00 -363.21407332 170.00291850
4848.00 -363.46360575 170.18868165
4850.00 -363.71316836 170.37455416
4852.00 -363.96276110 170.56053604
4854.00 -364.21238391 170.74662727
4856.00 -364.46203673 170.93282784
4858.00 -364.71171951 171.11913774
4860.00 -364.96143218 171.30555697
4862.00 -365.21117468 171.49208550
4864.00 -365.46094697 171.67872334
4866.00 -365.71074898 171.86547047
4868.00 -365.96058064 172.05232688
4870.00 -366.21044192 172.23929256
4872.00 -366.46033274 172.42636751
4874.00 -366.71025305 172.61355170
4876.00 -366.96020279 172.80084514
4878.00 -367.21018190 172.98824781
4880.00 -367.46019033 173.17575970
4882.00 -367.71022801 173.36338081
4884.00 -367.96029490 173.55111111
4886.00 -368.21039092 173.73895060
4888.00 -368.46051603 173.92689928
4890.00 -368.71067017 174.11495713
4892.00 -368.96085327 174.30312413
4894.00 -369.21106528 174.49140029
4896.00 -369.46130615 174.67978558
4898.00 -369.71157581 174.86828000
4900.00 -369.96187421 175.05688354
4902.00 -370.21220129 175.24559619
4904.00 -370.46255699 175.43441794
4906.00 -370.71294126 175.62334877
4908.00 -370.96335403 175.81238868
4910.00 -371.21379525 176.00153765
4912.00 -371.46426486 176.19079568
4914.00 -371.71476281 176.38016275
4916.00 -371.96528904 176.56963885
4918.00 -372.21584348 176.75922398
4920.00 -372.46642609 176.94891812
4922.00 -372.71703680 177.13872125
4924.00 -372.96767556 177.32863338
4926.00 -373.21834230 177.51865449
4928.00 -373.46903699 177.70878456
4930.00 -373.71975954 177.89902360
4932.00 -373.97050992 178.08937157
4934.00 -374.22128805 178.27982848
4936.00 -374.47209389 178.47039432
4938.00 -374.72292738 178.66106907
4940.00 -374.97378845 178.85185272
4942.00 -375.22467706 179.04274526
4944.00 -375.47559314 179.23374668
4946.00 -375.72653664 179.42485697
4948.00 -375.97750750 179.61607611
4950.00 -376.22850566 179.80740410
4952.00 -376.47953107 179.99884092
4954.00 -376.73058367 180.19038657
4956.00 -376.98166340 180.38204102
4958.00 -377.23277021 180.57380428
4960.00 -377.48390403 180.76567632
4962.00 -377.73506482 180.95765714
4964.00 -377.98625251 181.14974673
4966.00 -378.23746705 181.34194507
4968.00 -378.48870838 181.53425215
4970.00 -378.73997645 181.72666796
4972.00 -378.99127119 181.91919250
4974.00 -379.24259256 182.11182573
4976.00 -379.49394049 182.30456767
4978.00 -379.74531492 182.49741828
4980.00 -379.99671581 182.69037757
4982.00 -380.24814309 182.88344552
4984.00 -380.49959670 183.07662212
4986.00 -380.75107660 183.26990735
4988.00 -381.00258272 183.46330121
4990.00 -381.25411501 183.65680368
4992.00 -381.50567341 183.85041475
4994.00 -381.75725786 184.04413441
4996.00 -382.00886831 184.23796265
4998.00 -382.26050470 184.43189944
5000.00 -382.51216698 184.62594480
