wavelength(nm)         real         imag
100.00   3.88718719   0.00012244
102.00   3.88666961   0.00012993
104.00   3.88614177   0.00013773
106.00   3.88560369   0.00014582
108.00   3.88505537   0.00015423
110.00   3.88449680   0.00016296
112.00   3.88392799   0.00017201
114.00   3.88334893   0.00018139
116.00   3.88275963   0.00019111
118.00   3.88216009   0.00020116
120.00   3.88155030   0.00021156
122.00   3.88093027   0.00022232
124.00   3.88030000   0.00023343
126.00   3.87965948   0.00024491
128.00   3.87900872   0.00025676
130.00   3.87834772   0.00026898
132.00   3.87767648   0.00028158
134.00   3.87699500   0.00029458
136.00   3.87630327   0.00030796
138.00   3.87560131   0.00032175
140.00   3.87488910   0.00033594
142.00   3.87416666   0.00035054
144.00   3.87343397   0.00036556
146.00   3.87269105   0.00038100
148.00   3.87193788   0.00039688
150.00   3.87117448   0.00041318
152.00   3.87040084   0.00042993
154.00   3.86961696   0.00044712
156.00   3.86882284   0.00046476
158.00   3.86801848   0.00048287
160.00   3.86720389   0.00050143
162.00   3.86637906   0.00052047
164.00   3.86554399   0.00053998
166.00   3.86469869   0.00055998
168.00   3.86384316   0.00058046
170.00   3.86297738   0.00060143
172.00   3.86210137   0.00062291
174.00   3.86121513   0.00064489
176.00   3.86031865   0.00066738
178.00   3.85941194   0.00069038
180.00   3.85849500   0.00071391
182.00   3.85756782   0.00073797
184.00   3.85663041   0.00076256
186.00   3.85568277   0.00078769
188.00   3.85472490   0.00081337
190.00   3.85375679   0.00083960
192.00   3.85277846   0.00086639
194.00   3.85178989   0.00089374
196.00   3.85079110   0.00092166
198.00   3.84978207   0.00095016
200.00   3.84876281   0.00097924
202.00   3.84773333   0.00100890
204.00   3.84669362   0.00103916
206.00   3.84564368   0.00107001
208.00   3.84458351   0.00110147
210.00   3.84351312   0.00113355
212.00   3.84243250   0.00116623
214.00   3.84134165   0.00119954
216.00   3.84024058   0.00123348
218.00   3.83912928   0.00126805
220.00   3.83800776   0.00130326
222.00   3.83687601   0.00133912
224.00   3.83573404   0.00137563
226.00   3.83458185   0.00141279
228.00   3.83341944   0.00145062
230.00   3.83224680   0.00148912
232.00   3.83106394   0.00152829
234.00   3.82987086   0.00156815
236.00   3.82866756   0.00160868
238.00   3.82745404   0.00164992
240.00   3.82623030   0.00169185
242.00   3.82499635   0.00173448
244.00   3.82375217   0.00177783
246.00   3.82249778   0.00182189
248.00   3.82123316   0.00186667
250.00   3.81995834   0.00191218
252.00   3.81867329   0.00195842
254.00   3.81737803   0.00200540
256.00   3.81607256   0.00205313
258.00   3.81475687   0.00210160
260.00   3.81343097   0.00215084
262.00   3.81209485   0.00220084
264.00   3.81074852   0.00225160
266.00   3.80939198   0.00230314
268.00   3.80802523   0.00235546
270.00   3.80664826   0.00240856
272.00   3.80526109   0.00246246
274.00   3.80386371   0.00251715
276.00   3.80245611   0.00257265
278.00   3.80103831   0.00262896
280.00   3.79961030   0.00268608
282.00   3.79817209   0.00274402
284.00   3.79672367   0.00280279
286.00   3.79526504   0.00286240
288.00   3.79379620   0.00292284
290.00   3.79231717   0.00298412
292.00   3.79082792   0.00304626
294.00   3.78932848   0.00310925
296.00   3.78781883   0.00317310
298.00   3.78629898   0.00323782
300.00   3.78476892   0.00330341
302.00   3.78322867   0.00336989
304.00   3.78167822   0.00343724
306.00   3.78011757   0.00350549
308.00   3.77854672   0.00357464
310.00   3.77696567   0.00364468
312.00   3.77537442   0.00371564
314.00   3.77377298   0.00378751
316.00   3.77216134   0.00386030
318.00   3.77053950   0.00393402
320.00   3.76890747   0.00400867
322.00   3.76726525   0.00408425
324.00   3.76561284   0.00416078
326.00   3.76395023   0.00423826
328.00   3.76227743   0.00431669
330.00   3.76059444   0.00439608
332.00   3.75890126   0.00447644
334.00   3.75719789   0.00455778
336.00   3.75548433   0.00464009
338.00   3.75376058   0.00472338
340.00   3.75202665   0.00480767
342.00   3.75028253   0.00489295
344.00   3.74852822   0.00497923
346.00   3.74676373   0.00506652
348.00   3.74498906   0.00515482
350.00   3.74320420   0.00524414
352.00   3.74140916   0.00533449
354.00   3.73960393   0.00542586
356.00   3.73778853   0.00551828
358.00   3.73596295   0.00561173
360.00   3.73412718   0.00570624
362.00   3.73228124   0.00580179
364.00   3.73042512   0.00589841
366.00   3.72855883   0.00599609
368.00   3.72668235   0.00609484
370.00   3.72479570   0.00619467
372.00   3.72289888   0.00629559
374.00   3.72099188   0.00639759
376.00   3.71907472   0.00650068
378.00   3.71714737   0.00660488
380.00   3.71520986   0.00671018
382.00   3.71326218   0.00681660
384.00   3.71130433   0.00692413
386.00   3.70933631   0.00703278
388.00   3.70735812   0.00714257
390.00   3.70536976   0.00725349
392.00   3.70337124   0.00736555
394.00   3.70136255   0.00747875
396.00   3.69934370   0.00759311
398.00   3.69731469   0.00770863
400.00   3.69527551   0.00782531
402.00   3.69322617   0.00794316
404.00   3.69116667   0.00806219
406.00   3.68909701   0.00818240
408.00   3.68701719   0.00830380
410.00   3.68492722   0.00842638
412.00   3.68282708   0.00855017
414.00   3.68071679   0.00867516
416.00   3.67859635   0.00880137
418.00   3.67646575   0.00892878
420.00   3.67432500   0.00905742
422.00   3.67217409   0.00918729
424.00   3.67001303   0.00931839
426.00   3.66784183   0.00945073
428.00   3.66566047   0.00958432
430.00   3.66346896   0.00971916
432.00   3.66126731   0.00985525
434.00   3.65905551   0.00999260
436.00   3.65683356   0.01013123
438.00   3.65460147   0.01027112
440.00   3.65235924   0.01041230
442.00   3.65010686   0.01055476
444.00   3.64784434   0.01069852
446.00   3.64557168   0.01084357
448.00   3.64328888   0.01098992
450.00   3.64099594   0.01113758
452.00   3.63869286   0.01128656
454.00   3.63637964   0.01143686
456.00   3.63405629   0.01158848
458.00   3.63172281   0.01174143
460.00   3.62937919   0.01189573
462.00   3.62702544   0.01205136
464.00   3.62466155   0.01220834
466.00   3.62228754   0.01236668
468.00   3.61990339   0.01252638
470.00   3.61750912   0.01268745
472.00   3.61510472   0.01284988
474.00   3.61269019   0.01301370
476.00   3.61026553   0.01317890
478.00   3.60783075   0.01334548
480.00   3.60538585   0.01351347
482.00   3.60293083   0.01368285
484.00   3.60046568   0.01385364
486.00   3.59799042   0.01402584
488.00   3.59550503   0.01419946
490.00   3.59300953   0.01437451
492.00   3.59050391   0.01455098
494.00   3.58798817   0.01472889
496.00   3.58546232   0.01490824
498.00   3.58292635   0.01508903
500.00   3.58038028   0.01527128
502.00   3.57782409   0.01545499
504.00   3.57525779   0.01564016
506.00   3.57268138   0.01582680
508.00   3.57009486   0.01601492
510.00   3.56749823   0.01620452
512.00   3.56489150   0.01639560
514.00   3.56227467   0.01658818
516.00   3.55964773   0.01678225
518.00   3.55701069   0.01697783
520.00   3.55436355   0.01717492
522.00   3.55170630   0.01737353
524.00   3.54903896   0.01757366
526.00   3.54636152   0.01777531
528.00   3.54367398   0.01797850
530.00   3.54097635   0.01818322
532.00   3.53826862   0.01838949
534.00   3.53555080   0.01859731
536.00   3.53282289   0.01880669
538.00   3.53008489   0.01901763
540.00   3.52733680   0.01923013
542.00   3.52457861   0.01944421
544.00   3.52181035   0.01965986
546.00   3.51903199   0.01987710
548.00   3.51624355   0.02009593
550.00   3.51344503   0.02031636
552.00   3.51063642   0.02053839
554.00   3.50781774   0.02076202
556.00   3.50498897   0.02098727
558.00   3.50215012   0.02121414
560.00   3.49930120   0.02144263
562.00   3.49644220   0.02167275
564.00   3.49357313   0.02190451
566.00   3.49069398   0.02213790
568.00   3.48780476   0.02237295
570.00   3.48490546   0.02260965
572.00   3.48199610   0.02284801
574.00   3.47907667   0.02308803
576.00   3.47614717   0.02332972
578.00   3.47320761   0.02357309
580.00   3.47025798   0.02381813
582.00   3.46729828   0.02406487
584.00   3.46432853   0.02431330
586.00   3.46134871   0.02456343
588.00   3.45835883   0.02481526
590.00   3.45535890   0.02506880
592.00   3.45234891   0.02532406
594.00   3.44932886   0.02558104
596.00   3.44629876   0.02583974
598.00   3.44325860   0.02610018
600.00   3.44020839   0.02636236
602.00   3.43714813   0.02662628
604.00   3.43407782   0.02689195
606.00   3.43099747   0.02715937
608.00   3.42790707   0.02742856
610.00   3.42480662   0.02769951
612.00   3.42169613   0.02797224
614.00   3.41857559   0.02824675
616.00   3.41544501   0.02852303
618.00   3.41230440   0.02880111
620.00   3.40915374   0.02908098
622.00   3.40599305   0.02936266
624.00   3.40282233   0.02964614
626.00   3.39964156   0.02993143
628.00   3.39645077   0.03021854
630.00   3.39324994   0.03050748
632.00   3.39003909   0.03079824
634.00   3.38681820   0.03109084
636.00   3.38358729   0.03138528
638.00   3.38034635   0.03168156
640.00   3.37709539   0.03197970
642.00   3.37383440   0.03227969
644.00   3.37056339   0.03258155
646.00   3.36728236   0.03288528
648.00   3.36399131   0.03319088
650.00   3.36069025   0.03349836
652.00   3.35737916   0.03380773
654.00   3.35405807   0.03411899
656.00   3.35072696   0.03443214
658.00   3.34738584   0.03474720
660.00   3.34403470   0.03506417
662.00   3.34067356   0.03538305
664.00   3.33730241   0.03570385
666.00   3.33392126   0.03602658
668.00   3.33053010   0.03635124
670.00   3.32712894   0.03667783
672.00   3.32371777   0.03700637
674.00   3.32029661   0.03733685
676.00   3.31686545   0.03766929
678.00   3.31342429   0.03800368
680.00   3.30997313   0.03834005
682.00   3.30651198   0.03867838
684.00   3.30304084   0.03901869
686.00   3.29955970   0.03936098
688.00   3.29606858   0.03970526
690.00   3.29256747   0.04005153
692.00   3.28905637   0.04039980
694.00   3.28553529   0.04075007
696.00   3.28200422   0.04110235
698.00   3.27846317   0.04145665
700.00   3.27491214   0.04181297
702.00   3.27135113   0.04217132
704.00   3.26778015   0.04253170
706.00   3.26419919   0.04289412
708.00   3.26060825   0.04325858
710.00   3.25700734   0.04362509
712.00   3.25339646   0.04399365
714.00   3.24977561   0.04436428
716.00   3.24614479   0.04473697
718.00   3.24250401   0.04511173
720.00   3.23885326   0.04548857
722.00   3.23519254   0.04586749
724.00   3.23152187   0.04624851
726.00   3.22784123   0.04663161
728.00   3.22415064   0.04701682
730.00   3.22045009   0.04740413
732.00   3.21673958   0.04779355
734.00   3.21301912   0.04818509
736.00   3.20928871   0.04857875
738.00   3.20554834   0.04897453
740.00   3.20179803   0.04937246
742.00   3.19803777   0.04977251
744.00   3.19426756   0.05017472
746.00   3.19048741   0.05057907
748.00   3.18669732   0.05098558
750.00   3.18289729   0.05139425
752.00   3.17908731   0.05180509
754.00   3.17526740   0.05221810
756.00   3.17143756   0.05263329
758.00   3.16759778   0.05305066
760.00   3.16374806   0.05347022
762.00   3.15988842   0.05389198
764.00   3.15601884   0.05431593
766.00   3.15213934   0.05474209
768.00   3.14824992   0.05517046
770.00   3.14435056   0.05560105
772.00   3.14044129   0.05603387
774.00   3.13652209   0.05646891
776.00   3.13259298   0.05690618
778.00   3.12865395   0.05734569
780.00   3.12470500   0.05778745
782.00   3.12074614   0.05823146
784.00   3.11677736   0.05867772
786.00   3.11279868   0.05912624
788.00   3.10881008   0.05957704
790.00   3.10481158   0.06003010
792.00   3.10080317   0.06048544
794.00   3.09678486   0.06094307
796.00   3.09275665   0.06140298
798.00   3.08871854   0.06186519
800.00   3.08467052   0.06232970
802.00   3.08061261   0.06279652
804.00   3.07654481   0.06326565
806.00   3.07246711   0.06373709
808.00   3.06837952   0.06421086
810.00   3.06428204   0.06468695
812.00   3.06017468   0.06516538
814.00   3.05605742   0.06564615
816.00   3.05193028   0.06612926
818.00   3.04779326   0.06661472
820.00   3.04364636   0.06710254
822.00   3.03948958   0.06759271
824.00   3.03532292   0.06808526
826.00   3.03114638   0.06858018
828.00   3.02695998   0.06907747
830.00   3.02276369   0.06957715
832.00   3.01855754   0.07007921
834.00   3.01434152   0.07058368
836.00   3.01011564   0.07109054
838.00   3.00587989   0.07159980
840.00   3.00163427   0.07211148
842.00   2.99737880   0.07262557
844.00   2.99311346   0.07314208
846.00   2.98883827   0.07366103
848.00   2.98455322   0.07418240
850.00   2.98025832   0.07470621
852.00   2.97595357   0.07523247
854.00   2.97163896   0.07576118
856.00   2.96731451   0.07629234
858.00   2.96298021   0.07682596
860.00   2.95863607   0.07736204
862.00   2.95428209   0.07790060
864.00   2.94991826   0.07844164
866.00   2.94554459   0.07898515
868.00   2.94116109   0.07953116
870.00   2.93676775   0.08007966
872.00   2.93236458   0.08063065
874.00   2.92795158   0.08118415
876.00   2.92352875   0.08174016
878.00   2.91909609   0.08229869
880.00   2.91465360   0.08285973
882.00   2.91020129   0.08342331
884.00   2.90573916   0.08398941
886.00   2.90126721   0.08455805
888.00   2.89678544   0.08512923
890.00   2.89229386   0.08570296
892.00   2.88779246   0.08627925
894.00   2.88328124   0.08685809
896.00   2.87876022   0.08743950
898.00   2.87422939   0.08802348
900.00   2.86968875   0.08861003
902.00   2.86513831   0.08919916
904.00   2.86057807   0.08979088
906.00   2.85600802   0.09038519
908.00   2.85142818   0.09098210
910.00   2.84683854   0.09158161
912.00   2.84223910   0.09218373
914.00   2.83762988   0.09278846
916.00   2.83301086   0.09339581
918.00   2.82838205   0.09400579
920.00   2.82374346   0.09461839
922.00   2.81909508   0.09523363
924.00   2.81443691   0.09585151
926.00   2.80976897   0.09647204
928.00   2.80509125   0.09709522
930.00   2.80040375   0.09772105
932.00   2.79570648   0.09834955
934.00   2.79099943   0.09898071
936.00   2.78628261   0.09961455
938.00   2.78155603   0.10025107
940.00   2.77681968   0.10089027
942.00   2.77207356   0.10153216
944.00   2.76731768   0.10217674
946.00   2.76255204   0.10282403
948.00   2.75777664   0.10347402
950.00   2.75299148   0.10412672
952.00   2.74819657   0.10478214
954.00   2.74339191   0.10544028
956.00   2.73857749   0.10610114
958.00   2.73375333   0.10676474
960.00   2.72891942   0.10743108
962.00   2.72407577   0.10810016
964.00   2.71922237   0.10877199
966.00   2.71435924   0.10944658
968.00   2.70948637   0.11012392
970.00   2.70460376   0.11080403
972.00   2.69971141   0.11148691
974.00   2.69480934   0.11217256
976.00   2.68989753   0.11286100
978.00   2.68497600   0.11355222
980.00   2.68004474   0.11424624
982.00   2.67510376   0.11494305
984.00   2.67015306   0.11564267
986.00   2.66519264   0.11634509
988.00   2.66022250   0.11705033
990.00   2.65524265   0.11775838
992.00   2.65025308   0.11846926
994.00   2.64525380   0.11918297
996.00   2.64024482   0.11989951
998.00   2.63522612   0.12061890
1000.00   2.63019773   0.12134113
1002.00   2.62515963   0.12206621
1004.00   2.62011183   0.12279415
1006.00   2.61505434   0.12352495
1008.00   2.60998714   0.12425861
1010.00   2.60491026   0.12499515
1012.00   2.59982368   0.12573457
1014.00   2.59472741   0.12647687
1016.00   2.58962146   0.12722206
1018.00   2.58450582   0.12797014
1020.00   2.57938050   0.12872112
1022.00   2.57424550   0.12947501
1024.00   2.56910082   0.13023180
1026.00   2.56394647   0.13099151
1028.00   2.55878244   0.13175414
1030.00   2.55360874   0.13251970
1032.00   2.54842537   0.13328819
1034.00   2.54323233   0.13405961
1036.00   2.53802963   0.13483398
1038.00   2.53281726   0.13561129
1040.00   2.52759523   0.13639156
1042.00   2.52236355   0.13717478
1044.00   2.51712221   0.13796097
1046.00   2.51187121   0.13875012
1048.00   2.50661057   0.13954225
1050.00   2.50134027   0.14033736
1052.00   2.49606033   0.14113545
1054.00   2.49077074   0.14193653
1056.00   2.48547151   0.14274061
1058.00   2.48016264   0.14354769
1060.00   2.47484413   0.14435777
1062.00   2.46951598   0.14517086
1064.00   2.46417820   0.14598697
1066.00   2.45883079   0.14680610
1068.00   2.45347375   0.14762826
1070.00   2.44810708   0.14845345
1072.00   2.44273079   0.14928168
1074.00   2.43734488   0.15011295
1076.00   2.43194934   0.15094726
1078.00   2.42654419   0.15178463
1080.00   2.42112942   0.15262506
1082.00   2.41570504   0.15346856
1084.00   2.41027105   0.15431512
1086.00   2.40482745   0.15516475
1088.00   2.39937424   0.15601747
1090.00   2.39391143   0.15687327
1092.00   2.38843902   0.15773216
1094.00   2.38295701   0.15859414
1096.00   2.37746540   0.15945923
1098.00   2.37196420   0.16032742
1100.00   2.36645340   0.16119872
1102.00   2.36093302   0.16207314
1104.00   2.35540305   0.16295068
1106.00   2.34986349   0.16383135
1108.00   2.34431435   0.16471515
1110.00   2.33875563   0.16560208
1112.00   2.33318733   0.16649216
1114.00   2.32760945   0.16738539
1116.00   2.32202200   0.16828177
1118.00   2.31642498   0.16918131
1120.00   2.31081839   0.17008401
1122.00   2.30520224   0.17098988
1124.00   2.29957652   0.17189892
1126.00   2.29394124   0.17281115
1128.00   2.28829640   0.17372656
1130.00   2.28264200   0.17464515
1132.00   2.27697805   0.17556695
1134.00   2.27130454   0.17649194
1136.00   2.26562149   0.17742014
1138.00   2.25992889   0.17835154
1140.00   2.25422675   0.17928617
1142.00   2.24851506   0.18022401
1144.00   2.24279383   0.18116508
1146.00   2.23706306   0.18210939
1148.00   2.23132276   0.18305693
1150.00   2.22557293   0.18400771
1152.00   2.21981357   0.18496173
1154.00   2.21404467   0.18591901
1156.00   2.20826626   0.18687955
1158.00   2.20247832   0.18784335
1160.00   2.19668086   0.18881042
1162.00   2.19087388   0.18978076
1164.00   2.18505738   0.19075437
1166.00   2.17923138   0.19173128
1168.00   2.17339586   0.19271147
1170.00   2.16755083   0.19369495
1172.00   2.16169630   0.19468173
1174.00   2.15583226   0.19567182
1176.00   2.14995873   0.19666521
1178.00   2.14407569   0.19766192
1180.00   2.13818316   0.19866195
1182.00   2.13228114   0.19966531
1184.00   2.12636962   0.20067199
1186.00   2.12044862   0.20168201
1188.00   2.11451813   0.20269537
1190.00   2.10857815   0.20371207
1192.00   2.10262870   0.20473212
1194.00   2.09666977   0.20575553
1196.00   2.09070136   0.20678230
1198.00   2.08472348   0.20781244
1200.00   2.07873613   0.20884595
1202.00   2.07273930   0.20988283
1204.00   2.06673302   0.21092310
1206.00   2.06071727   0.21196675
1208.00   2.05469206   0.21301379
1210.00   2.04865739   0.21406423
1212.00   2.04261326   0.21511807
1214.00   2.03655969   0.21617532
1216.00   2.03049666   0.21723598
1218.00   2.02442418   0.21830006
1220.00   2.01834226   0.21936756
1222.00   2.01225089   0.22043848
1224.00   2.00615009   0.22151284
1226.00   2.00003985   0.22259064
1228.00   1.99392017   0.22367188
1230.00   1.98779106   0.22475657
1232.00   1.98165252   0.22584471
1234.00   1.97550455   0.22693631
1236.00   1.96934715   0.22803137
1238.00   1.96318034   0.22912990
1240.00   1.95700410   0.23023190
1242.00   1.95081845   0.23133738
1244.00   1.94462338   0.23244635
1246.00   1.93841891   0.23355880
1248.00   1.93220502   0.23467475
1250.00   1.92598172   0.23579420
1252.00   1.91974902   0.23691715
1254.00   1.91350692   0.23804361
1256.00   1.90725542   0.23917358
1258.00   1.90099453   0.24030708
1260.00   1.89472424   0.24144409
1262.00   1.88844456   0.24258464
1264.00   1.88215549   0.24372872
1266.00   1.87585704   0.24487634
1268.00   1.86954920   0.24602750
1270.00   1.86323198   0.24718222
1272.00   1.85690539   0.24834048
1274.00   1.85056942   0.24950231
1276.00   1.84422408   0.25066770
1278.00   1.83786936   0.25183667
1280.00   1.83150528   0.25300920
1282.00   1.82513184   0.25418532
1284.00   1.81874903   0.25536502
1286.00   1.81235687   0.25654831
1288.00   1.80595535   0.25773520
1290.00   1.79954447   0.25892569
1292.00   1.79312425   0.26011978
1294.00   1.78669467   0.26131748
1296.00   1.78025575   0.26251879
1298.00   1.77380749   0.26372373
1300.00   1.76734989   0.26493229
1302.00   1.76088294   0.26614448
1304.00   1.75440667   0.26736031
1306.00   1.74792106   0.26857978
1308.00   1.74142612   0.26980289
1310.00   1.73492186   0.27102965
1312.00   1.72840827   0.27226007
1314.00   1.72188536   0.27349414
1316.00   1.71535313   0.27473189
1318.00   1.70881159   0.27597330
1320.00   1.70226073   0.27721839
1322.00   1.69570056   0.27846716
1324.00   1.68913109   0.27971961
1326.00   1.68255231   0.28097575
1328.00   1.67596423   0.28223559
1330.00   1.66936685   0.28349913
1332.00   1.66276017   0.28476637
1334.00   1.65614420   0.28603732
1336.00   1.64951893   0.28731199
1338.00   1.64288438   0.28859038
1340.00   1.63624055   0.28987250
1342.00   1.62958743   0.29115834
1344.00   1.62292503   0.29244792
1346.00   1.61625335   0.29374124
1348.00   1.60957240   0.29503830
1350.00   1.60288218   0.29633911
1352.00   1.59618269   0.29764368
1354.00   1.58947393   0.29895201
1356.00   1.58275591   0.30026410
1358.00   1.57602863   0.30157996
1360.00   1.56929209   0.30289960
1362.00   1.56254629   0.30422301
1364.00   1.55579125   0.30555021
1366.00   1.54902695   0.30688120
1368.00   1.54225341   0.30821598
1370.00   1.53547062   0.30955457
1372.00   1.52867860   0.31089695
1374.00   1.52187733   0.31224315
1376.00   1.51506683   0.31359316
1378.00   1.50824710   0.31494699
1380.00   1.50141814   0.31630464
1382.00   1.49457995   0.31766612
1384.00   1.48773254   0.31903144
1386.00   1.48087591   0.32040059
1388.00   1.47401006   0.32177359
1390.00   1.46713500   0.32315044
1392.00   1.46025072   0.32453113
1394.00   1.45335723   0.32591569
1396.00   1.44645454   0.32730411
1398.00   1.43954264   0.32869640
1400.00   1.43262154   0.33009256
1402.00   1.42569124   0.33149260
1404.00   1.41875175   0.33289652
1406.00   1.41180307   0.33430433
1408.00   1.40484520   0.33571603
1410.00   1.39787814   0.33713163
1412.00   1.39090189   0.33855113
1414.00   1.38391647   0.33997454
1416.00   1.37692187   0.34140186
1418.00   1.36991809   0.34283310
1420.00   1.36290514   0.34426826
1422.00   1.35588303   0.34570734
1424.00   1.34885174   0.34715036
1426.00   1.34181130   0.34859731
1428.00   1.33476169   0.35004821
1430.00   1.32770292   0.35150305
1432.00   1.32063500   0.35296184
1434.00   1.31355793   0.35442459
1436.00   1.30647172   0.35589129
1438.00   1.29937635   0.35736196
1440.00   1.29227184   0.35883661
1442.00   1.28515820   0.36031523
1444.00   1.27803541   0.36179782
1446.00   1.27090349   0.36328440
1448.00   1.26376244   0.36477498
1450.00   1.25661227   0.36626954
1452.00   1.24945297   0.36776811
1454.00   1.24228454   0.36927068
1456.00   1.23510700   0.37077726
1458.00   1.22792034   0.37228785
1460.00   1.22072457   0.37380246
1462.00   1.21351969   0.37532109
1464.00   1.20630570   0.37684375
1466.00   1.19908260   0.37837045
1468.00   1.19185041   0.37990118
1470.00   1.18460911   0.38143595
1472.00   1.17735873   0.38297477
1474.00   1.17009924   0.38451765
1476.00   1.16283067   0.38606458
1478.00   1.15555302   0.38761557
1480.00   1.14826628   0.38917063
1482.00   1.14097046   0.39072976
1484.00   1.13366556   0.39229296
1486.00   1.12635159   0.39386025
1488.00   1.11902855   0.39543162
1490.00   1.11169644   0.39700708
1492.00   1.10435526   0.39858664
1494.00   1.09700503   0.40017030
1496.00   1.08964573   0.40175806
1498.00   1.08227738   0.40334993
1500.00   1.07489997   0.40494592
1502.00   1.06751352   0.40654602
1504.00   1.06011801   0.40815025
1506.00   1.05271347   0.40975860
1508.00   1.04529988   0.41137109
1510.00   1.03787725   0.41298772
1512.00   1.03044559   0.41460849
1514.00   1.02300490   0.41623340
1516.00   1.01555518   0.41786247
1518.00   1.00809644   0.41949570
1520.00   1.00062867   0.42113309
1522.00   0.99315188   0.42277464
1524.00   0.98566608   0.42442036
1526.00   0.97817126   0.42607026
1528.00   0.97066743   0.42772434
1530.00   0.96315460   0.42938261
1532.00   0.95563276   0.43104506
1534.00   0.94810192   0.43271171
1536.00   0.94056209   0.43438256
1538.00   0.93301326   0.43605762
1540.00   0.92545543   0.43773688
1542.00   0.91788862   0.43942035
1544.00   0.91031282   0.44110804
1546.00   0.90272805   0.44279996
1548.00   0.89513429   0.44449610
1550.00   0.88753155   0.44619648
1552.00   0.87991985   0.44790109
1554.00   0.87229917   0.44960994
1556.00   0.86466953   0.45132304
1558.00   0.85703092   0.45304039
1560.00   0.84938335   0.45476200
1562.00   0.84172683   0.45648787
1564.00   0.83406135   0.45821800
1566.00   0.82638692   0.45995240
1568.00   0.81870354   0.46169107
1570.00   0.81101122   0.46343403
1572.00   0.80330996   0.46518126
1574.00   0.79559976   0.46693279
1576.00   0.78788062   0.46868861
1578.00   0.78015255   0.47044872
1580.00   0.77241555   0.47221314
1582.00   0.76466963   0.47398186
1584.00   0.75691478   0.47575490
1586.00   0.74915102   0.47753225
1588.00   0.74137834   0.47931392
1590.00   0.73359674   0.48109992
1592.00   0.72580624   0.48289024
1594.00   0.71800683   0.48468491
1596.00   0.71019851   0.48648391
1598.00   0.70238130   0.48828725
1600.00   0.69455519   0.49009494
1602.00   0.68672018   0.49190699
1604.00   0.67887628   0.49372339
1606.00   0.67102350   0.49554416
1608.00   0.66316183   0.49736929
1610.00   0.65529128   0.49919879
1612.00   0.64741186   0.50103267
1614.00   0.63952356   0.50287093
1616.00   0.63162638   0.50471358
1618.00   0.62372034   0.50656061
1620.00   0.61580544   0.50841204
1622.00   0.60788167   0.51026787
1624.00   0.59994904   0.51212810
1626.00   0.59200756   0.51399274
1628.00   0.58405723   0.51586179
1630.00   0.57609805   0.51773526
1632.00   0.56813002   0.51961315
1634.00   0.56015315   0.52149547
1636.00   0.55216744   0.52338222
1638.00   0.54417290   0.52527340
1640.00   0.53616952   0.52716902
1642.00   0.52815732   0.52906909
1644.00   0.52013628   0.53097361
1646.00   0.51210643   0.53288258
1648.00   0.50406776   0.53479601
1650.00   0.49602027   0.53671390
1652.00   0.48796396   0.53863626
1654.00   0.47989885   0.54056309
1656.00   0.47182493   0.54249440
1658.00   0.46374221   0.54443019
1660.00   0.45565069   0.54637046
1662.00   0.44755037   0.54831522
1664.00   0.43944126   0.55026448
1666.00   0.43132336   0.55221824
1668.00   0.42319667   0.55417650
1670.00   0.41506120   0.55613927
1672.00   0.40691695   0.55810655
1674.00   0.39876392   0.56007835
1676.00   0.39060212   0.56205467
1678.00   0.38243155   0.56403551
1680.00   0.37425221   0.56602089
1682.00   0.36606411   0.56801080
1684.00   0.35786725   0.57000525
1686.00   0.34966163   0.57200424
1688.00   0.34144726   0.57400779
1690.00   0.33322414   0.57601588
1692.00   0.32499227   0.57802853
1694.00   0.31675166   0.58004575
1696.00   0.30850231   0.58206753
1698.00   0.30024422   0.58409388
1700.00   0.29197740   0.58612481
1702.00   0.28370185   0.58816032
1704.00   0.27541757   0.59020041
1706.00   0.26712457   0.59224509
1708.00   0.25882285   0.59429436
1710.00   0.25051241   0.59634823
1712.00   0.24219326   0.59840670
1714.00   0.23386540   0.60046978
1716.00   0.22552883   0.60253747
1718.00   0.21718356   0.60460978
1720.00   0.20882959   0.60668670
1722.00   0.20046692   0.60876825
1724.00   0.19209556   0.61085443
1726.00   0.18371551   0.61294524
1728.00   0.17532677   0.61504069
1730.00   0.16692935   0.61714078
1732.00   0.15852326   0.61924552
1734.00   0.15010848   0.62135490
1736.00   0.14168504   0.62346895
1738.00   0.13325292   0.62558765
1740.00   0.12481214   0.62771102
1742.00   0.11636269   0.62983905
1744.00   0.10790459   0.63197176
1746.00   0.09943783   0.63410914
1748.00   0.09096242   0.63625121
1750.00   0.08247836   0.63839796
1752.00   0.07398565   0.64054940
1754.00   0.06548431   0.64270554
1756.00   0.05697432   0.64486637
1758.00   0.04845570   0.64703191
1760.00   0.03992845   0.64920216
1762.00   0.03139257   0.65137712
1764.00   0.02284806   0.65355680
1766.00   0.01429493   0.65574119
1768.00   0.00573319   0.65793032
1770.00  -0.00283717   0.66012417
1772.00  -0.01141614   0.66232275
1774.00  -0.02000372   0.66452608
1776.00  -0.02859990   0.66673414
1778.00  -0.03720468   0.66894696
1780.00  -0.04581806   0.67116452
1782.00  -0.05444004   0.67338685
1784.00  -0.06307060   0.67561393
1786.00  -0.07170975   0.67784577
1788.00  -0.08035748   0.68008239
1790.00  -0.08901380   0.68232377
1792.00  -0.09767869   0.68456994
1794.00  -0.10635215   0.68682088
1796.00  -0.11503418   0.68907662
1798.00  -0.12372478   0.69133714
1800.00  -0.13242394   0.69360246
1802.00  -0.14113166   0.69587257
1804.00  -0.14984794   0.69814749
1806.00  -0.15857276   0.70042722
1808.00  -0.16730614   0.70271176
1810.00  -0.17604806   0.70500112
1812.00  -0.18479852   0.70729529
1814.00  -0.19355752   0.70959429
1816.00  -0.20232505   0.71189812
1818.00  -0.21110112   0.71420678
1820.00  -0.21988571   0.71652029
1822.00  -0.22867883   0.71883863
1824.00  -0.23748046   0.72116182
1826.00  -0.24629062   0.72348986
1828.00  -0.25510928   0.72582275
1830.00  -0.26393646   0.72816050
1832.00  -0.27277214   0.73050312
1834.00  -0.28161633   0.73285060
1836.00  -0.29046901   0.73520296
1838.00  -0.29933019   0.73756019
1840.00  -0.30819986   0.73992230
1842.00  -0.31707802   0.74228929
1844.00  -0.32596467   0.74466118
1846.00  -0.33485980   0.74703795
1848.00  -0.34376340   0.74941963
1850.00  -0.35267548   0.75180620
1852.00  -0.36159603   0.75419769
1854.00  -0.37052505   0.75659408
1856.00  -0.37946253   0.75899538
1858.00  -0.38840847   0.76140161
1860.00  -0.39736287   0.76381275
1862.00  -0.40632572   0.76622883
1864.00  -0.41529702   0.76864983
1866.00  -0.42427676   0.77107577
1868.00  -0.43326495   0.77350665
1870.00  -0.44226158   0.77594247
1872.00  -0.45126664   0.77838324
1874.00  -0.46028013   0.78082896
1876.00  -0.46930205   0.78327964
1878.00  -0.47833240   0.78573528
1880.00  -0.48737116   0.78819588
1882.00  -0.49641834   0.79066145
1884.00  -0.50547394   0.79313199
1886.00  -0.51453795   0.79560751
1888.00  -0.52361036   0.79808802
1890.00  -0.53269117   0.80057350
1892.00  -0.54178039   0.80306398
1894.00  -0.55087800   0.80555945
1896.00  -0.55998400   0.80805992
1898.00  -0.56909839   0.81056539
1900.00  -0.57822116   0.81307587
1902.00  -0.58735232   0.81559136
1904.00  -0.59649185   0.81811186
1906.00  -0.60563975   0.82063738
1908.00  -0.61479603   0.82316792
1910.00  -0.62396067   0.82570349
1912.00  -0.63313368   0.82824409
1914.00  -0.64231504   0.83078973
1916.00  -0.65150476   0.83334041
1918.00  -0.66070283   0.83589613
1920.00  -0.66990925   0.83845689
1922.00  -0.67912402   0.84102271
1924.00  -0.68834712   0.84359358
1926.00  -0.69757857   0.84616952
1928.00  -0.70681834   0.84875051
1930.00  -0.71606645   0.85133658
1932.00  -0.72532288   0.85392772
1934.00  -0.73458763   0.85652393
1936.00  -0.74386071   0.85912523
1938.00  -0.75314210   0.86173161
1940.00  -0.76243180   0.86434307
1942.00  -0.77172981   0.86695963
1944.00  -0.78103612   0.86958129
1946.00  -0.79035073   0.87220805
1948.00  -0.79967364   0.87483991
1950.00  -0.80900485   0.87747688
1952.00  -0.81834434   0.88011896
1954.00  -0.82769212   0.88276617
1956.00  -0.83704818   0.88541849
1958.00  -0.84641252   0.88807594
1960.00  -0.85578513   0.89073851
1962.00  -0.86516602   0.89340622
1964.00  -0.87455517   0.89607907
1966.00  -0.88395259   0.89875706
1968.00  -0.89335826   0.90144019
1970.00  -0.90277220   0.90412848
1972.00  -0.91219438   0.90682191
1974.00  -0.92162481   0.90952051
1976.00  -0.93106349   0.91222426
1978.00  -0.94051041   0.91493318
1980.00  -0.94996557   0.91764728
1982.00  -0.95942896   0.92036654
1984.00  -0.96890058   0.92309098
1986.00  -0.97838043   0.92582061
1988.00  -0.98786850   0.92855542
1990.00  -0.99736479   0.93129542
1992.00  -1.00686930   0.93404061
1994.00  -1.01638201   0.93679100
1996.00  -1.02590294   0.93954659
1998.00  -1.03543206   0.94230739
2000.00  -1.04496939   0.94507339
2002.00  -1.05451492   0.94784462
2004.00  -1.06406864   0.95062105
2006.00  -1.07363054   0.95340271
2008.00  -1.08320063   0.95618960
2010.00  -1.09277891   0.95898171
2012.00  -1.10236536   0.96177906
2014.00  -1.11195998   0.96458165
2016.00  -1.12156278   0.96738948
2018.00  -1.13117374   0.97020255
2020.00  -1.14079286   0.97302087
2022.00  -1.15042015   0.97584444
2024.00  -1.16005559   0.97867328
2026.00  -1.16969918   0.98150737
2028.00  -1.17935091   0.98434673
2030.00  -1.18901079   0.98719136
2032.00  -1.19867881   0.99004126
2034.00  -1.20835497   0.99289643
2036.00  -1.21803926   0.99575689
2038.00  -1.22773168   0.99862263
2040.00  -1.23743222   1.00149367
2042.00  -1.24714089   1.00436999
2044.00  -1.25685767   1.00725161
2046.00  -1.26658256   1.01013853
2048.00  -1.27631557   1.01303076
2050.00  -1.28605668   1.01592829
2052.00  -1.29580589   1.01883113
2054.00  -1.30556320   1.02173930
2056.00  -1.31532860   1.02465278
2058.00  -1.32510210   1.02757158
2060.00  -1.33488368   1.03049571
2062.00  -1.34467334   1.03342518
2064.00  -1.35447109   1.03635998
2066.00  -1.36427691   1.03930012
2068.00  -1.37409080   1.04224560
2070.00  -1.38391276   1.04519643
2072.00  -1.39374278   1.04815261
2074.00  -1.40358086   1.05111415
2076.00  -1.41342700   1.05408104
2078.00  -1.42328119   1.05705330
2080.00  -1.43314343   1.06003092
2082.00  -1.44301371   1.06301391
2084.00  -1.45289204   1.06600228
2086.00  -1.46277840   1.06899602
2088.00  -1.47267279   1.07199515
2090.00  -1.48257521   1.07499966
2092.00  -1.49248566   1.07800956
2094.00  -1.50240413   1.08102486
2096.00  -1.51233062   1.08404555
2098.00  -1.52226512   1.08707164
2100.00  -1.53220763   1.09010314
2102.00  -1.54215815   1.09314004
2104.00  -1.55211667   1.09618236
2106.00  -1.56208319   1.09923010
2108.00  -1.57205770   1.10228325
2110.00  -1.58204021   1.10534183
2112.00  -1.59203070   1.10840584
2114.00  -1.60202917   1.11147527
2116.00  -1.61203562   1.11455014
2118.00  -1.62205005   1.11763046
2120.00  -1.63207244   1.12071621
2122.00  -1.64210281   1.12380741
2124.00  -1.65214114   1.12690406
2126.00  -1.66218742   1.13000616
2128.00  -1.67224167   1.13311373
2130.00  -1.68230386   1.13622675
2132.00  -1.69237401   1.13934524
2134.00  -1.70245209   1.14246920
2136.00  -1.71253812   1.14559863
2138.00  -1.72263208   1.14873354
2140.00  -1.73273398   1.15187393
2142.00  -1.74284380   1.15501980
2144.00  -1.75296155   1.15817116
2146.00  -1.76308722   1.16132801
2148.00  -1.77322080   1.16449036
2150.00  -1.78336230   1.16765821
2152.00  -1.79351171   1.17083156
2154.00  -1.80366902   1.17401041
2156.00  -1.81383423   1.17719478
2158.00  -1.82400734   1.18038466
2160.00  -1.83418834   1.18358006
2162.00  -1.84437723   1.18678097
2164.00  -1.85457401   1.18998742
2166.00  -1.86477866   1.19319939
2168.00  -1.87499120   1.19641690
2170.00  -1.88521160   1.19963994
2172.00  -1.89543988   1.20286852
2174.00  -1.90567602   1.20610265
2176.00  -1.91592003   1.20934232
2178.00  -1.92617189   1.21258754
2180.00  -1.93643160   1.21583832
2182.00  -1.94669917   1.21909466
2184.00  -1.95697458   1.22235656
2186.00  -1.96725783   1.22562402
2188.00  -1.97754892   1.22889706
2190.00  -1.98784784   1.23217566
2192.00  -1.99815460   1.23545985
2194.00  -2.00846918   1.23874961
2196.00  -2.01879158   1.24204496
2198.00  -2.02912180   1.24534590
2200.00  -2.03945983   1.24865242
2202.00  -2.04980568   1.25196454
2204.00  -2.06015932   1.25528227
2206.00  -2.07052078   1.25860559
2208.00  -2.08089003   1.26193452
2210.00  -2.09126707   1.26526906
2212.00  -2.10165190   1.26860921
2214.00  -2.11204452   1.27195498
2216.00  -2.12244492   1.27530636
2218.00  -2.13285310   1.27866338
2220.00  -2.14326906   1.28202602
2222.00  -2.15369278   1.28539429
2224.00  -2.16412427   1.28876819
2226.00  -2.17456353   1.29214774
2228.00  -2.18501054   1.29553293
2230.00  -2.19546530   1.29892376
2232.00  -2.20592782   1.30232024
2234.00  -2.21639808   1.30572237
2236.00  -2.22687608   1.30913016
2238.00  -2.23736182   1.31254361
2240.00  -2.24785530   1.31596273
2242.00  -2.25835651   1.31938751
2244.00  -2.26886544   1.32281796
2246.00  -2.27938209   1.32625409
2248.00  -2.28990647   1.32969589
2250.00  -2.30043855   1.33314338
2252.00  -2.31097835   1.33659655
2254.00  -2.32152585   1.34005541
2256.00  -2.33208105   1.34351996
2258.00  -2.34264396   1.34699020
2260.00  -2.35321455   1.35046615
2262.00  -2.36379284   1.35394780
2264.00  -2.37437881   1.35743515
2266.00  -2.38497247   1.36092822
2268.00  -2.39557380   1.36442699
2270.00  -2.40618280   1.36793149
2272.00  -2.41679948   1.37144170
2274.00  -2.42742382   1.37495764
2276.00  -2.43805582   1.37847931
2278.00  -2.44869548   1.38200670
2280.00  -2.45934279   1.38553984
2282.00  -2.46999776   1.38907870
2284.00  -2.48066037   1.39262331
2286.00  -2.49133061   1.39617367
2288.00  -2.50200850   1.39972977
2290.00  -2.51269402   1.40329163
2292.00  -2.52338717   1.40685924
2294.00  -2.53408795   1.41043261
2296.00  -2.54479634   1.41401174
2298.00  -2.55551235   1.41759664
2300.00  -2.56623598   1.42118731
2302.00  -2.57696721   1.42478374
2304.00  -2.58770605   1.42838596
2306.00  -2.59845249   1.43199396
2308.00  -2.60920653   1.43560773
2310.00  -2.61996816   1.43922730
2312.00  -2.63073737   1.44285266
2314.00  -2.64151417   1.44648380
2316.00  -2.65229856   1.45012075
2318.00  -2.66309051   1.45376350
2320.00  -2.67389004   1.45741204
2322.00  -2.68469714   1.46106640
2324.00  -2.69551180   1.46472657
2326.00  -2.70633403   1.46839255
2328.00  -2.71716380   1.47206435
2330.00  -2.72800113   1.47574197
2332.00  -2.73884601   1.47942541
2334.00  -2.74969843   1.48311469
2336.00  -2.76055839   1.48680979
2338.00  -2.77142588   1.49051073
2340.00  -2.78230091   1.49421750
2342.00  -2.79318346   1.49793012
2344.00  -2.80407354   1.50164858
2346.00  -2.81497113   1.50537289
2348.00  -2.82587624   1.50910306
2350.00  -2.83678886   1.51283907
2352.00  -2.84770899   1.51658095
2354.00  -2.85863662   1.52032868
2356.00  -2.86957174   1.52408229
2358.00  -2.88051437   1.52784176
2360.00  -2.89146448   1.53160710
2362.00  -2.90242207   1.53537831
2364.00  -2.91338715   1.53915541
2366.00  -2.92435971   1.54293839
2368.00  -2.93533974   1.54672725
2370.00  -2.94632724   1.55052200
2372.00  -2.95732220   1.55432265
2374.00  -2.96832463   1.55812918
2376.00  -2.97933451   1.56194162
2378.00  -2.99035184   1.56575996
2380.00  -3.00137663   1.56958420
2382.00  -3.01240885   1.57341436
2384.00  -3.02344852   1.57725042
2386.00  -3.03449563   1.58109240
2388.00  -3.04555016   1.58494030
2390.00  -3.05661213   1.58879412
2392.00  -3.06768152   1.59265387
2394.00  -3.07875832   1.59651954
2396.00  -3.08984255   1.60039115
2398.00  -3.10093418   1.60426869
2400.00  -3.11203322   1.60815217
2402.00  -3.12313967   1.61204159
2404.00  -3.13425351   1.61593696
2406.00  -3.14537475   1.61983827
2408.00  -3.15650338   1.62374554
2410.00  -3.16763939   1.62765876
2412.00  -3.17878279   1.63157794
2414.00  -3.18993356   1.63550308
2416.00  -3.20109171   1.63943418
2418.00  -3.21225723   1.64337125
2420.00  -3.22343011   1.64731430
2422.00  -3.23461036   1.65126332
2424.00  -3.24579796   1.65521831
2426.00  -3.25699292   1.65917929
2428.00  -3.26819522   1.66314625
2430.00  -3.27940487   1.66711920
2432.00  -3.29062186   1.67109814
2434.00  -3.30184618   1.67508307
2436.00  -3.31307784   1.67907400
2438.00  -3.32431682   1.68307093
2440.00  -3.33556313   1.68707386
2442.00  -3.34681676   1.69108280
2444.00  -3.35807770   1.69509775
2446.00  -3.36934596   1.69911872
2448.00  -3.38062152   1.70314570
2450.00  -3.39190438   1.70717870
2452.00  -3.40319454   1.71121772
2454.00  -3.41449200   1.71526277
2456.00  -3.42579674   1.71931385
2458.00  -3.43710877   1.72337096
2460.00  -3.44842809   1.72743410
2462.00  -3.45975468   1.73150329
2464.00  -3.47108854   1.73557852
2466.00  -3.48242967   1.73965979
2468.00  -3.49377807   1.74374711
2470.00  -3.50513373   1.74784048
2472.00  -3.51649664   1.75193990
2474.00  -3.52786681   1.75604539
2476.00  -3.53924422   1.76015693
2478.00  -3.55062888   1.76427454
2480.00  -3.56202078   1.76839822
2482.00  -3.57341991   1.77252797
2484.00  -3.58482628   1.77666379
2486.00  -3.59623987   1.78080568
2488.00  -3.60766068   1.78495366
2490.00  -3.61908871   1.78910772
2492.00  -3.63052395   1.79326787
2494.00  -3.64196641   1.79743410
2496.00  -3.65341607   1.80160643
2498.00  -3.66487293   1.80578485
2500.00  -3.67633699   1.80996937
2502.00  -3.68780824   1.81416000
2504.00  -3.69928668   1.81835672
2506.00  -3.71077231   1.82255956
2508.00  -3.72226511   1.82676851
2510.00  -3.73376509   1.83098357
2512.00  -3.74527224   1.83520475
2514.00  -3.75678656   1.83943205
2516.00  -3.76830805   1.84366547
2518.00  -3.77983669   1.84790502
2520.00  -3.79137248   1.85215069
2522.00  -3.80291543   1.85640251
2524.00  -3.81446552   1.86066045
2526.00  -3.82602276   1.86492454
2528.00  -3.83758713   1.86919476
2530.00  -3.84915864   1.87347114
2532.00  -3.86073727   1.87775366
2534.00  -3.87232303   1.88204233
2536.00  -3.88391591   1.88633715
2538.00  -3.89551591   1.89063814
2540.00  -3.90712301   1.89494528
2542.00  -3.91873723   1.89925858
2544.00  -3.93035855   1.90357806
2546.00  -3.94198697   1.90790370
2548.00  -3.95362248   1.91223551
2550.00  -3.96526509   1.91657350
2552.00  -3.97691478   1.92091767
2554.00  -3.98857155   1.92526801
2556.00  -4.00023540   1.92962455
2558.00  -4.01190632   1.93398727
2560.00  -4.02358431   1.93835618
2562.00  -4.03526937   1.94273128
2564.00  -4.04696149   1.94711258
2566.00  -4.05866067   1.95150008
2568.00  -4.07036689   1.95589378
2570.00  -4.08208017   1.96029369
2572.00  -4.09380049   1.96469981
2574.00  -4.10552784   1.96911214
2576.00  -4.11726224   1.97353068
2578.00  -4.12900366   1.97795544
2580.00  -4.14075211   1.98238642
2582.00  -4.15250758   1.98682362
2584.00  -4.16427007   1.99126705
2586.00  -4.17603957   1.99571671
2588.00  -4.18781608   2.00017260
2590.00  -4.19959960   2.00463472
2592.00  -4.21139012   2.00910308
2594.00  -4.22318763   2.01357769
2596.00  -4.23499213   2.01805854
2598.00  -4.24680363   2.02254563
2600.00  -4.25862210   2.02703898
2602.00  -4.27044756   2.03153857
2604.00  -4.28227999   2.03604443
2606.00  -4.29411939   2.04055654
2608.00  -4.30596575   2.04507491
2610.00  -4.31781908   2.04959955
2612.00  -4.32967936   2.05413045
2614.00  -4.34154660   2.05866763
2616.00  -4.35342079   2.06321108
2618.00  -4.36530192   2.06776080
2620.00  -4.37718999   2.07231681
2622.00  -4.38908500   2.07687909
2624.00  -4.40098693   2.08144766
2626.00  -4.41289580   2.08602252
2628.00  -4.42481159   2.09060367
2630.00  -4.43673429   2.09519111
2632.00  -4.44866391   2.09978485
2634.00  -4.46060045   2.10438488
2636.00  -4.47254388   2.10899122
2638.00  -4.48449422   2.11360387
2640.00  -4.49645145   2.11822282
2642.00  -4.50841558   2.12284808
2644.00  -4.52038659   2.12747966
2646.00  -4.53236449   2.13211755
2648.00  -4.54434927   2.13676176
2650.00  -4.55634092   2.14141229
2652.00  -4.56833944   2.14606915
2654.00  -4.58034483   2.15073233
2656.00  -4.59235708   2.15540185
2658.00  -4.60437619   2.16007770
2660.00  -4.61640216   2.16475989
2662.00  -4.62843497   2.16944841
2664.00  -4.64047462   2.17414328
2666.00  -4.65252112   2.17884449
2668.00  -4.66457445   2.18355205
2670.00  -4.67663462   2.18826596
2672.00  -4.68870161   2.19298622
2674.00  -4.70077542   2.19771283
2676.00  -4.71285605   2.20244581
2678.00  -4.72494350   2.20718515
2680.00  -4.73703776   2.21193085
2682.00  -4.74913882   2.21668292
2684.00  -4.76124668   2.22144136
2686.00  -4.77336134   2.22620617
2688.00  -4.78548279   2.23097736
2690.00  -4.79761103   2.23575492
2692.00  -4.80974606   2.24053887
2694.00  -4.82188786   2.24532920
2696.00  -4.83403644   2.25012591
2698.00  -4.84619178   2.25492902
2700.00  -4.85835390   2.25973851
2702.00  -4.87052277   2.26455441
2704.00  -4.88269841   2.26937669
2706.00  -4.89488079   2.27420538
2708.00  -4.90706993   2.27904048
2710.00  -4.91926580   2.28388197
2712.00  -4.93146842   2.28872988
2714.00  -4.94367778   2.29358420
2716.00  -4.95589386   2.29844493
2718.00  -4.96811667   2.30331208
2720.00  -4.98034621   2.30818564
2722.00  -4.99258246   2.31306563
2724.00  -5.00482542   2.31795204
2726.00  -5.01707510   2.32284489
2728.00  -5.02933148   2.32774416
2730.00  -5.04159456   2.33264986
2732.00  -5.05386433   2.33756200
2734.00  -5.06614080   2.34248058
2736.00  -5.07842395   2.34740560
2738.00  -5.09071379   2.35233706
2740.00  -5.10301031   2.35727497
2742.00  -5.11531350   2.36221932
2744.00  -5.12762335   2.36717013
2746.00  -5.13993988   2.37212739
2748.00  -5.15226306   2.37709111
2750.00  -5.16459290   2.38206129
2752.00  -5.17692940   2.38703793
2754.00  -5.18927254   2.39202104
2756.00  -5.20162232   2.39701061
2758.00  -5.21397874   2.40200666
2760.00  -5.22634180   2.40700918
2762.00  -5.23871149   2.41201817
2764.00  -5.25108780   2.41703364
2766.00  -5.26347073   2.42205559
2768.00  -5.27586028   2.42708402
2770.00  -5.28825645   2.43211895
2772.00  -5.30065922   2.43716035
2774.00  -5.31306859   2.44220826
2776.00  -5.32548456   2.44726265
2778.00  -5.33790713   2.45232354
2780.00  -5.35033629   2.45739093
2782.00  -5.36277203   2.46246482
2784.00  -5.37521436   2.46754522
2786.00  -5.38766326   2.47263212
2788.00  -5.40011873   2.47772553
2790.00  -5.41258077   2.48282546
2792.00  -5.42504938   2.48793190
2794.00  -5.43752455   2.49304485
2796.00  -5.45000627   2.49816433
2798.00  -5.46249454   2.50329033
2800.00  -5.47498935   2.50842285
2802.00  -5.48749071   2.51356190
2804.00  -5.49999861   2.51870748
2806.00  -5.51251304   2.52385960
2808.00  -5.52503399   2.52901825
2810.00  -5.53756147   2.53418343
2812.00  -5.55009547   2.53935516
2814.00  -5.56263599   2.54453343
2816.00  -5.57518301   2.54971824
2818.00  -5.58773654   2.55490961
2820.00  -5.60029658   2.56010752
2822.00  -5.61286311   2.56531199
2824.00  -5.62543613   2.57052301
2826.00  -5.63801564   2.57574059
2828.00  -5.65060163   2.58096473
2830.00  -5.66319411   2.58619543
2832.00  -5.67579306   2.59143270
2834.00  -5.68839848   2.59667654
2836.00  -5.70101037   2.60192695
2838.00  -5.71362871   2.60718393
2840.00  -5.72625352   2.61244748
2842.00  -5.73888478   2.61771762
2844.00  -5.75152248   2.62299433
2846.00  -5.76416663   2.62827763
2848.00  -5.77681722   2.63356752
2850.00  -5.78947425   2.63886399
2852.00  -5.80213770   2.64416705
2854.00  -5.81480758   2.64947671
2856.00  -5.82748389   2.65479296
2858.00  -5.84016661   2.66011581
2860.00  -5.85285574   2.66544526
2862.00  -5.86555128   2.67078131
2864.00  -5.87825322   2.67612397
2866.00  -5.89096157   2.68147323
2868.00  -5.90367631   2.68682911
2870.00  -5.91639744   2.69219159
2872.00  -5.92912495   2.69756070
2874.00  -5.94185885   2.70293642
2876.00  -5.95459912   2.70831876
2878.00  -5.96734577   2.71370772
2880.00  -5.98009878   2.71910331
2882.00  -5.99285816   2.72450552
2884.00  -6.00562390   2.72991437
2886.00  -6.01839599   2.73532985
2888.00  -6.03117443   2.74075196
2890.00  -6.04395922   2.74618070
2892.00  -6.05675035   2.75161609
2894.00  -6.06954782   2.75705812
2896.00  -6.08235162   2.76250679
2898.00  -6.09516174   2.76796211
2900.00  -6.10797819   2.77342408
2902.00  -6.12080096   2.77889270
2904.00  -6.13363005   2.78436797
2906.00  -6.14646544   2.78984990
2908.00  -6.15930714   2.79533849
2910.00  -6.17215514   2.80083374
2912.00  -6.18500943   2.80633565
2914.00  -6.19787002   2.81184423
2916.00  -6.21073690   2.81735947
2918.00  -6.22361006   2.82288139
2920.00  -6.23648950   2.82840997
2922.00  -6.24937521   2.83394524
2924.00  -6.26226719   2.83948718
2926.00  -6.27516544   2.84503579
2928.00  -6.28806995   2.85059110
2930.00  -6.30098071   2.85615308
2932.00  -6.31389773   2.86172175
2934.00  -6.32682099   2.86729711
2936.00  -6.33975049   2.87287916
2938.00  -6.35268624   2.87846791
2940.00  -6.36562822   2.88406335
2942.00  -6.37857642   2.88966549
2944.00  -6.39153086   2.89527433
2946.00  -6.40449151   2.90088987
2948.00  -6.41745838   2.90651212
2950.00  -6.43043146   2.91214108
2952.00  -6.44341074   2.91777674
2954.00  -6.45639623   2.92341912
2956.00  -6.46938792   2.92906821
2958.00  -6.48238580   2.93472402
2960.00  -6.49538987   2.94038654
2962.00  -6.50840012   2.94605579
2964.00  -6.52141655   2.95173176
2966.00  -6.53443916   2.95741446
2968.00  -6.54746794   2.96310388
2970.00  -6.56050289   2.96880004
2972.00  -6.57354399   2.97450292
2974.00  -6.58659126   2.98021255
2976.00  -6.59964468   2.98592890
2978.00  -6.61270424   2.99165200
2980.00  -6.62576995   2.99738184
2982.00  -6.63884180   3.00311842
2984.00  -6.65191979   3.00886175
2986.00  -6.66500390   3.01461183
2988.00  -6.67809414   3.02036866
2990.00  -6.69119051   3.02613224
2992.00  -6.70429298   3.03190257
2994.00  -6.71740158   3.03767966
2996.00  -6.73051627   3.04346351
2998.00  -6.74363708   3.04925413
3000.00  -6.75676398   3.05505150
3002.00  -6.76989697   3.06085564
3004.00  -6.78303606   3.06666655
3006.00  -6.79618123   3.07248423
3008.00  -6.80933248   3.07830868
3010.00  -6.82248981   3.08413991
3012.00  -6.83565321   3.08997792
3014.00  -6.84882267   3.09582270
3016.00  -6.86199820   3.10167426
3018.00  -6.87517979   3.10753261
3020.00  -6.88836743   3.11339774
3022.00  -6.90156112   3.11926966
3024.00  -6.91476086   3.12514837
3026.00  -6.92796663   3.13103387
3028.00  -6.94117844   3.13692617
3030.00  -6.95439629   3.14282526
3032.00  -6.96762015   3.14873116
3034.00  -6.98085005   3.15464385
3036.00  -6.99408595   3.16056334
3038.00  -7.00732787   3.16648964
3040.00  -7.02057580   3.17242275
3042.00  -7.03382974   3.17836266
3044.00  -7.04708967   3.18430939
3046.00  -7.06035560   3.19026293
3048.00  -7.07362752   3.19622329
3050.00  -7.08690542   3.20219046
3052.00  -7.10018931   3.20816445
3054.00  -7.11347917   3.21414527
3056.00  -7.12677500   3.22013291
3058.00  -7.14007681   3.22612737
3060.00  -7.15338457   3.23212866
3062.00  -7.16669830   3.23813679
3064.00  -7.18001798   3.24415174
3066.00  -7.19334360   3.25017353
3068.00  -7.20667518   3.25620216
3070.00  -7.22001269   3.26223762
3072.00  -7.23335614   3.26827993
3074.00  -7.24670552   3.27432908
3076.00  -7.26006083   3.28038507
3078.00  -7.27342206   3.28644791
3080.00  -7.28678921   3.29251760
3082.00  -7.30016228   3.29859414
3084.00  -7.31354125   3.30467753
3086.00  -7.32692612   3.31076778
3088.00  -7.34031690   3.31686489
3090.00  -7.35371357   3.32296885
3092.00  -7.36711613   3.32907968
3094.00  -7.38052458   3.33519737
3096.00  -7.39393891   3.34132192
3098.00  -7.40735912   3.34745334
3100.00  -7.42078520   3.35359164
3102.00  -7.43421714   3.35973680
3104.00  -7.44765495   3.36588883
3106.00  -7.46109862   3.37204774
3108.00  -7.47454815   3.37821353
3110.00  -7.48800352   3.38438620
3112.00  -7.50146474   3.39056575
3114.00  -7.51493180   3.39675218
3116.00  -7.52840470   3.40294550
3118.00  -7.54188343   3.40914571
3120.00  -7.55536798   3.41535280
3122.00  -7.56885836   3.42156679
3124.00  -7.58235456   3.42778767
3126.00  -7.59585657   3.43401544
3128.00  -7.60936439   3.44025012
3130.00  -7.62287801   3.44649169
3132.00  -7.63639744   3.45274016
3134.00  -7.64992265   3.45899554
3136.00  -7.66345366   3.46525782
3138.00  -7.67699046   3.47152701
3140.00  -7.69053304   3.47780311
3142.00  -7.70408139   3.48408612
3144.00  -7.71763552   3.49037604
3146.00  -7.73119542   3.49667287
3148.00  -7.74476108   3.50297663
3150.00  -7.75833249   3.50928730
3152.00  -7.77190967   3.51560489
3154.00  -7.78549259   3.52192941
3156.00  -7.79908126   3.52826085
3158.00  -7.81267567   3.53459922
3160.00  -7.82627581   3.54094451
3162.00  -7.83988169   3.54729674
3164.00  -7.85349329   3.55365590
3166.00  -7.86711062   3.56002199
3168.00  -7.88073366   3.56639502
3170.00  -7.89436242   3.57277498
3172.00  -7.90799689   3.57916189
3174.00  -7.92163706   3.58555574
3176.00  -7.93528293   3.59195653
3178.00  -7.94893450   3.59836427
3180.00  -7.96259176   3.60477895
3182.00  -7.97625470   3.61120059
3184.00  -7.98992333   3.61762917
3186.00  -8.00359763   3.62406471
3188.00  -8.01727760   3.63050720
3190.00  -8.03096325   3.63695665
3192.00  -8.04465455   3.64341306
3194.00  -8.05835152   3.64987643
3196.00  -8.07205414   3.65634676
3198.00  -8.08576241   3.66282405
3200.00  -8.09947632   3.66930832
3202.00  -8.11319588   3.67579955
3204.00  -8.12692107   3.68229774
3206.00  -8.14065189   3.68880292
3208.00  -8.15438834   3.69531506
3210.00  -8.16813041   3.70183418
3212.00  -8.18187810   3.70836027
3214.00  -8.19563140   3.71489335
3216.00  -8.20939032   3.72143341
3218.00  -8.22315483   3.72798044
3220.00  -8.23692495   3.73453447
3222.00  -8.25070066   3.74109547
3224.00  -8.26448196   3.74766347
3226.00  -8.27826885   3.75423846
3228.00  -8.29206131   3.76082043
3230.00  -8.30585936   3.76740941
3232.00  -8.31966298   3.77400537
3234.00  -8.33347216   3.78060833
3236.00  -8.34728691   3.78721830
3238.00  -8.36110722   3.79383526
3240.00  -8.37493308   3.80045922
3242.00  -8.38876449   3.80709019
3244.00  -8.40260144   3.81372816
3246.00  -8.41644394   3.82037315
3248.00  -8.43029197   3.82702514
3250.00  -8.44414553   3.83368414
3252.00  -8.45800462   3.84035015
3254.00  -8.47186923   3.84702318
3256.00  -8.48573936   3.85370323
3258.00  -8.49961500   3.86039029
3260.00  -8.51349615   3.86708437
3262.00  -8.52738280   3.87378548
3264.00  -8.54127495   3.88049360
3266.00  -8.55517260   3.88720876
3268.00  -8.56907574   3.89393094
3270.00  -8.58298436   3.90066014
3272.00  -8.59689846   3.90739638
3274.00  -8.61081804   3.91413965
3276.00  -8.62474310   3.92088995
3278.00  -8.63867361   3.92764729
3280.00  -8.65260960   3.93441167
3282.00  -8.66655104   3.94118308
3284.00  -8.68049793   3.94796154
3286.00  -8.69445027   3.95474703
3288.00  -8.70840806   3.96153957
3290.00  -8.72237128   3.96833916
3292.00  -8.73633995   3.97514579
3294.00  -8.75031404   3.98195947
3296.00  -8.76429356   3.98878020
3298.00  -8.77827850   3.99560799
3300.00  -8.79226885   4.00244282
3302.00  -8.80626462   4.00928472
3304.00  -8.82026580   4.01613367
3306.00  -8.83427238   4.02298968
3308.00  -8.84828436   4.02985275
3310.00  -8.86230173   4.03672288
3312.00  -8.87632450   4.04360007
3314.00  -8.89035264   4.05048433
3316.00  -8.90438617   4.05737566
3318.00  -8.91842508   4.06427405
3320.00  -8.93246935   4.07117952
3322.00  -8.94651899   4.07809206
3324.00  -8.96057400   4.08501167
3326.00  -8.97463436   4.09193836
3328.00  -8.98870008   4.09887212
3330.00  -9.00277114   4.10581296
3332.00  -9.01684755   4.11276088
3334.00  -9.03092929   4.11971589
3336.00  -9.04501637   4.12667797
3338.00  -9.05910878   4.13364714
3340.00  -9.07320652   4.14062340
3342.00  -9.08730958   4.14760675
3344.00  -9.10141795   4.15459718
3346.00  -9.11553164   4.16159471
3348.00  -9.12965063   4.16859933
3350.00  -9.14377493   4.17561104
3352.00  -9.15790452   4.18262985
3354.00  -9.17203941   4.18965576
3356.00  -9.18617959   4.19668876
3358.00  -9.20032505   4.20372887
3360.00  -9.21447579   4.21077608
3362.00  -9.22863181   4.21783039
3364.00  -9.24279309   4.22489181
3366.00  -9.25695965   4.23196033
3368.00  -9.27113146   4.23903596
3370.00  -9.28530853   4.24611871
3372.00  -9.29949086   4.25320856
3374.00  -9.31367843   4.26030553
3376.00  -9.32787125   4.26740961
3378.00  -9.34206930   4.27452081
3380.00  -9.35627259   4.28163912
3382.00  -9.37048111   4.28876456
3384.00  -9.38469485   4.29589711
3386.00  -9.39891381   4.30303679
3388.00  -9.41313799   4.31018359
3390.00  -9.42736738   4.31733751
3392.00  -9.44160198   4.32449857
3394.00  -9.45584178   4.33166675
3396.00  -9.47008677   4.33884206
3398.00  -9.48433696   4.34602450
3400.00  -9.49859234   4.35321407
3402.00  -9.51285290   4.36041078
3404.00  -9.52711864   4.36761463
3406.00  -9.54138956   4.37482561
3408.00  -9.55566564   4.38204373
3410.00  -9.56994689   4.38926899
3412.00  -9.58423331   4.39650139
3414.00  -9.59852487   4.40374093
3416.00  -9.61282159   4.41098762
3418.00  -9.62712346   4.41824145
3420.00  -9.64143047   4.42550244
3422.00  -9.65574262   4.43277057
3424.00  -9.67005990   4.44004585
3426.00  -9.68438231   4.44732828
3428.00  -9.69870985   4.45461787
3430.00  -9.71304250   4.46191461
3432.00  -9.72738027   4.46921850
3434.00  -9.74172315   4.47652956
3436.00  -9.75607114   4.48384777
3438.00  -9.77042423   4.49117314
3440.00  -9.78478241   4.49850568
3442.00  -9.79914569   4.50584538
3444.00  -9.81351406   4.51319224
3446.00  -9.82788750   4.52054627
3448.00  -9.84226603   4.52790746
3450.00  -9.85664963   4.53527583
3452.00  -9.87103830   4.54265136
3454.00  -9.88543204   4.55003407
3456.00  -9.89983083   4.55742395
3458.00  -9.91423469   4.56482100
3460.00  -9.92864359   4.57222523
3462.00  -9.94305754   4.57963664
3464.00  -9.95747653   4.58705523
3466.00  -9.97190056   4.59448099
3468.00  -9.98632962   4.60191394
3470.00 -10.00076371   4.60935407
3472.00 -10.01520282   4.61680138
3474.00 -10.02964696   4.62425588
3476.00 -10.04409611   4.63171757
3478.00 -10.05855026   4.63918644
3480.00 -10.07300943   4.64666250
3482.00 -10.08747359   4.65414576
3484.00 -10.10194275   4.66163620
3486.00 -10.11641690   4.66913384
3488.00 -10.13089604   4.67663868
3490.00 -10.14538017   4.68415071
3492.00 -10.15986927   4.69166993
3494.00 -10.17436334   4.69919636
3496.00 -10.18886238   4.70672999
3498.00 -10.20336639   4.71427082
3500.00 -10.21787536   4.72181885
3502.00 -10.23238928   4.72937408
3504.00 -10.24690815   4.73693652
3506.00 -10.26143197   4.74450617
3508.00 -10.27596073   4.75208303
3510.00 -10.29049443   4.75966709
3512.00 -10.30503306   4.76725837
3514.00 -10.31957661   4.77485686
3516.00 -10.33412510   4.78246256
3518.00 -10.34867849   4.79007547
3520.00 -10.36323681   4.79769560
3522.00 -10.37780003   4.80532295
3524.00 -10.39236816   4.81295752
3526.00 -10.40694119   4.82059930
3528.00 -10.42151911   4.82824831
3530.00 -10.43610193   4.83590454
3532.00 -10.45068963   4.84356799
3534.00 -10.46528221   4.85123867
3536.00 -10.47987967   4.85891657
3538.00 -10.49448201   4.86660170
3540.00 -10.50908921   4.87429406
3542.00 -10.52370128   4.88199365
3544.00 -10.53831820   4.88970047
3546.00 -10.55293999   4.89741452
3548.00 -10.56756662   4.90513580
3550.00 -10.58219809   4.91286432
3552.00 -10.59683441   4.92060008
3554.00 -10.61147556   4.92834307
3556.00 -10.62612155   4.93609330
3558.00 -10.64077236   4.94385077
3560.00 -10.65542800   4.95161548
3562.00 -10.67008845   4.95938743
3564.00 -10.68475372   4.96716663
3566.00 -10.69942380   4.97495307
3568.00 -10.71409868   4.98274676
3570.00 -10.72877836   4.99054769
3572.00 -10.74346284   4.99835587
3574.00 -10.75815211   5.00617130
3576.00 -10.77284616   5.01399398
3578.00 -10.78754500   5.02182391
3580.00 -10.80224861   5.02966109
3582.00 -10.81695700   5.03750553
3584.00 -10.83167015   5.04535723
3586.00 -10.84638807   5.05321618
3588.00 -10.86111074   5.06108238
3590.00 -10.87583817   5.06895585
3592.00 -10.89057035   5.07683657
3594.00 -10.90530728   5.08472456
3596.00 -10.92004894   5.09261981
3598.00 -10.93479534   5.10052232
3600.00 -10.94954648   5.10843209
3602.00 -10.96430234   5.11634913
3604.00 -10.97906292   5.12427344
3606.00 -10.99382822   5.13220502
3608.00 -11.00859823   5.14014386
3610.00 -11.02337296   5.14808997
3612.00 -11.03815238   5.15604336
3614.00 -11.05293651   5.16400402
3616.00 -11.06772533   5.17197195
3618.00 -11.08251884   5.17994715
3620.00 -11.09731704   5.18792963
3622.00 -11.11211992   5.19591939
3624.00 -11.12692748   5.20391643
3626.00 -11.14173971   5.21192074
3628.00 -11.15655660   5.21993234
3630.00 -11.17137816   5.22795121
3632.00 -11.18620438   5.23597737
3634.00 -11.20103525   5.24401081
3636.00 -11.21587078   5.25205153
3638.00 -11.23071094   5.26009955
3640.00 -11.24555575   5.26815484
3642.00 -11.26040519   5.27621743
3644.00 -11.27525927   5.28428730
3646.00 -11.29011797   5.29236447
3648.00 -11.30498129   5.30044892
3650.00 -11.31984923   5.30854067
3652.00 -11.33472179   5.31663971
3654.00 -11.34959895   5.32474604
3656.00 -11.36448072   5.33285967
3658.00 -11.37936708   5.34098059
3660.00 -11.39425804   5.34910881
3662.00 -11.40915359   5.35724433
3664.00 -11.42405373   5.36538715
3666.00 -11.43895845   5.37353727
3668.00 -11.45386774   5.38169469
3670.00 -11.46878161   5.38985941
3672.00 -11.48370005   5.39803144
3674.00 -11.49862305   5.40621077
3676.00 -11.51355060   5.41439741
3678.00 -11.52848271   5.42259135
3680.00 -11.54341937   5.43079260
3682.00 -11.55836058   5.43900116
3684.00 -11.57330632   5.44721703
3686.00 -11.58825660   5.45544020
3688.00 -11.60321142   5.46367069
3690.00 -11.61817076   5.47190850
3692.00 -11.63313462   5.48015361
3694.00 -11.64810300   5.48840604
3696.00 -11.66307589   5.49666579
3698.00 -11.67805329   5.50493285
3700.00 -11.69303519   5.51320723
3702.00 -11.70802160   5.52148893
3704.00 -11.72301250   5.52977794
3706.00 -11.73800789   5.53807428
3708.00 -11.75300776   5.54637794
3710.00 -11.76801212   5.55468892
3712.00 -11.78302095   5.56300722
3714.00 -11.79803426   5.57133285
3716.00 -11.81305203   5.57966581
3718.00 -11.82807427   5.58800609
3720.00 -11.84310096   5.59635369
3722.00 -11.85813211   5.60470863
3724.00 -11.87316771   5.61307089
3726.00 -11.88820775   5.62144048
3728.00 -11.90325224   5.62981741
3730.00 -11.91830116   5.63820166
3732.00 -11.93335451   5.64659325
3734.00 -11.94841229   5.65499217
3736.00 -11.96347449   5.66339843
3738.00 -11.97854111   5.67181202
3740.00 -11.99361214   5.68023295
3742.00 -12.00868758   5.68866121
3744.00 -12.02376742   5.69709681
3746.00 -12.03885167   5.70553976
3748.00 -12.05394031   5.71399004
3750.00 -12.06903334   5.72244766
3752.00 -12.08413075   5.73091262
3754.00 -12.09923255   5.73938493
3756.00 -12.11433873   5.74786458
3758.00 -12.12944927   5.75635158
3760.00 -12.14456419   5.76484592
3762.00 -12.15968347   5.77334760
3764.00 -12.17480711   5.78185663
3766.00 -12.18993510   5.79037301
3768.00 -12.20506744   5.79889674
3770.00 -12.22020413   5.80742782
3772.00 -12.23534516   5.81596625
3774.00 -12.25049052   5.82451203
3776.00 -12.26564022   5.83306517
3778.00 -12.28079424   5.84162565
3780.00 -12.29595259   5.85019349
3782.00 -12.31111525   5.85876869
3784.00 -12.32628223   5.86735124
3786.00 -12.34145352   5.87594114
3788.00 -12.35662911   5.88453841
3790.00 -12.37180900   5.89314303
3792.00 -12.38699319   5.90175501
3794.00 -12.40218167   5.91037435
3796.00 -12.41737444   5.91900105
3798.00 -12.43257148   5.92763511
3800.00 -12.44777281   5.93627654
3802.00 -12.46297841   5.94492532
3804.00 -12.47818828   5.95358147
3806.00 -12.49340241   5.96224499
3808.00 -12.50862080   5.97091587
3810.00 -12.52384344   5.97959412
3812.00 -12.53907034   5.98827973
3814.00 -12.55430148   5.99697271
3816.00 -12.56953686   6.00567306
3818.00 -12.58477648   6.01438078
3820.00 -12.60002034   6.02309587
3822.00 -12.61526842   6.03181833
3824.00 -12.63052072   6.04054817
3826.00 -12.64577724   6.04928537
3828.00 -12.66103798   6.05802995
3830.00 -12.67630293   6.06678190
3832.00 -12.69157208   6.07554123
3834.00 -12.70684543   6.08430793
3836.00 -12.72212298   6.09308201
3838.00 -12.73740472   6.10186346
3840.00 -12.75269065   6.11065230
3842.00 -12.76798076   6.11944851
3844.00 -12.78327505   6.12825210
3846.00 -12.79857352   6.13706307
3848.00 -12.81387615   6.14588142
3850.00 -12.82918295   6.15470716
3852.00 -12.84449391   6.16354027
3854.00 -12.85980902   6.17238077
3856.00 -12.87512829   6.18122865
3858.00 -12.89045170   6.19008392
3860.00 -12.90577925   6.19894657
3862.00 -12.92111095   6.20781661
3864.00 -12.93644677   6.21669403
3866.00 -12.95178673   6.22557884
3868.00 -12.96713080   6.23447104
3870.00 -12.98247900   6.24337063
3872.00 -12.99783132   6.25227761
3874.00 -13.01318774   6.26119197
3876.00 -13.02854827   6.27011373
3878.00 -13.04391291   6.27904288
3880.00 -13.05928164   6.28797942
3882.00 -13.07465446   6.29692336
3884.00 -13.09003137   6.30587468
3886.00 -13.10541237   6.31483341
3888.00 -13.12079744   6.32379952
3890.00 -13.13618659   6.33277303
3892.00 -13.15157981   6.34175394
3894.00 -13.16697710   6.35074225
3896.00 -13.18237845   6.35973795
3898.00 -13.19778385   6.36874105
3900.00 -13.21319331   6.37775155
3902.00 -13.22860681   6.38676945
3904.00 -13.24402436   6.39579475
3906.00 -13.25944595   6.40482745
3908.00 -13.27487157   6.41386755
3910.00 -13.29030123   6.42291505
3912.00 -13.30573490   6.43196996
3914.00 -13.32117260   6.44103227
3916.00 -13.33661432   6.45010198
3918.00 -13.35206005   6.45917910
3920.00 -13.36750978   6.46826362
3922.00 -13.38296352   6.47735555
3924.00 -13.39842126   6.48645488
3926.00 -13.41388299   6.49556162
3928.00 -13.42934871   6.50467577
3930.00 -13.44481842   6.51379733
3932.00 -13.46029211   6.52292630
3934.00 -13.47576977   6.53206267
3936.00 -13.49125141   6.54120646
3938.00 -13.50673701   6.55035765
3940.00 -13.52222658   6.55951626
3942.00 -13.53772010   6.56868228
3944.00 -13.55321758   6.57785571
3946.00 -13.56871901   6.58703656
3948.00 -13.58422438   6.59622482
3950.00 -13.59973369   6.60542049
3952.00 -13.61524694   6.61462358
3954.00 -13.63076412   6.62383408
3956.00 -13.64628523   6.63305200
3958.00 -13.66181026   6.64227733
3960.00 -13.67733921   6.65151008
3962.00 -13.69287208   6.66075025
3964.00 -13.70840885   6.66999784
3966.00 -13.72394953   6.67925284
3968.00 -13.73949410   6.68851527
3970.00 -13.75504258   6.69778511
3972.00 -13.77059494   6.70706238
3974.00 -13.78615120   6.71634706
3976.00 -13.80171133   6.72563917
3978.00 -13.81727534   6.73493870
3980.00 -13.83284323   6.74424565
3982.00 -13.84841499   6.75356002
3984.00 -13.86399061   6.76288182
3986.00 -13.87957009   6.77221104
3988.00 -13.89515342   6.78154769
3990.00 -13.91074061   6.79089176
3992.00 -13.92633165   6.80024326
3994.00 -13.94192652   6.80960218
3996.00 -13.95752524   6.81896853
3998.00 -13.97312779   6.82834230
4000.00 -13.98873417   6.83772351
4002.00 -14.00434437   6.84711214
4004.00 -14.01995839   6.85650820
4006.00 -14.03557623   6.86591169
4008.00 -14.05119788   6.87532260
4010.00 -14.06682334   6.88474095
4012.00 -14.08245260   6.89416673
4014.00 -14.09808566   6.90359994
4016.00 -14.11372251   6.91304058
4018.00 -14.12936315   6.92248865
4020.00 -14.14500757   6.93194416
4022.00 -14.16065578   6.94140710
4024.00 -14.17630776   6.95087747
4026.00 -14.19196351   6.96035527
4028.00 -14.20762303   6.96984051
4030.00 -14.22328631   6.97933318
4032.00 -14.23895335   6.98883329
4034.00 -14.25462415   6.99834084
4036.00 -14.27029869   7.00785582
4038.00 -14.28597698   7.01737823
4040.00 -14.30165900   7.02690808
4042.00 -14.31734477   7.03644537
4044.00 -14.33303426   7.04599010
4046.00 -14.34872748   7.05554227
4048.00 -14.36442443   7.06510187
4050.00 -14.38012509   7.07466892
4052.00 -14.39582947   7.08424340
4054.00 -14.41153755   7.09382532
4056.00 -14.42724935   7.10341468
4058.00 -14.44296484   7.11301149
4060.00 -14.45868402   7.12261573
4062.00 -14.47440690   7.13222742
4064.00 -14.49013347   7.14184654
4066.00 -14.50586372   7.15147311
4068.00 -14.52159765   7.16110713
4070.00 -14.53733525   7.17074858
4072.00 -14.55307652   7.18039748
4074.00 -14.56882145   7.19005382
4076.00 -14.58457005   7.19971761
4078.00 -14.60032230   7.20938884
4080.00 -14.61607821   7.21906751
4082.00 -14.63183776   7.22875363
4084.00 -14.64760096   7.23844720
4086.00 -14.66336779   7.24814821
4088.00 -14.67913826   7.25785667
4090.00 -14.69491236   7.26757258
4092.00 -14.71069008   7.27729593
4094.00 -14.72647142   7.28702673
4096.00 -14.74225639   7.29676498
4098.00 -14.75804496   7.30651067
4100.00 -14.77383714   7.31626382
4102.00 -14.78963292   7.32602441
4104.00 -14.80543231   7.33579245
4106.00 -14.82123529   7.34556795
4108.00 -14.83704185   7.35535089
4110.00 -14.85285201   7.36514128
4112.00 -14.86866574   7.37493912
4114.00 -14.88448305   7.38474441
4116.00 -14.90030394   7.39455716
4118.00 -14.91612839   7.40437735
4120.00 -14.93195641   7.41420500
4122.00 -14.94778798   7.42404010
4124.00 -14.96362312   7.43388265
4126.00 -14.97946180   7.44373266
4128.00 -14.99530402   7.45359012
4130.00 -15.01114979   7.46345503
4132.00 -15.02699910   7.47332739
4134.00 -15.04285194   7.48320721
4136.00 -15.05870831   7.49309448
4138.00 -15.07456820   7.50298921
4140.00 -15.09043161   7.51289139
4142.00 -15.10629854   7.52280103
4144.00 -15.12216898   7.53271812
4146.00 -15.13804293   7.54264266
4148.00 -15.15392038   7.55257467
4150.00 -15.16980132   7.56251413
4152.00 -15.18568576   7.57246104
4154.00 -15.20157369   7.58241541
4156.00 -15.21746510   7.59237724
4158.00 -15.23336000   7.60234653
4160.00 -15.24925837   7.61232327
4162.00 -15.26516021   7.62230748
4164.00 -15.28106552   7.63229914
4166.00 -15.29697429   7.64229825
4168.00 -15.31288652   7.65230483
4170.00 -15.32880221   7.66231886
4172.00 -15.34472134   7.67234036
4174.00 -15.36064392   7.68236931
4176.00 -15.37656994   7.69240572
4178.00 -15.39249940   7.70244959
4180.00 -15.40843229   7.71250092
4182.00 -15.42436861   7.72255972
4184.00 -15.44030835   7.73262597
4186.00 -15.45625151   7.74269968
4188.00 -15.47219809   7.75278085
4190.00 -15.48814807   7.76286949
4192.00 -15.50410146   7.77296558
4194.00 -15.52005826   7.78306914
4196.00 -15.53601845   7.79318016
4198.00 -15.55198203   7.80329864
4200.00 -15.56794901   7.81342458
4202.00 -15.58391937   7.82355798
4204.00 -15.59989310   7.83369885
4206.00 -15.61587022   7.84384717
4208.00 -15.63185070   7.85400297
4210.00 -15.64783455   7.86416622
4212.00 -15.66382177   7.87433694
4214.00 -15.67981234   7.88451512
4216.00 -15.69580627   7.89470076
4218.00 -15.71180354   7.90489387
4220.00 -15.72780416   7.91509444
4222.00 -15.74380812   7.92530247
4224.00 -15.75981542   7.93551797
4226.00 -15.77582605   7.94574093
4228.00 -15.79184001   7.95597136
4230.00 -15.80785729   7.96620925
4232.00 -15.82387789   7.97645461
4234.00 -15.83990181   7.98670743
4236.00 -15.85592903   7.99696772
4238.00 -15.87195957   8.00723547
4240.00 -15.88799340   8.01751068
4242.00 -15.90403053   8.02779336
4244.00 -15.92007096   8.03808351
4246.00 -15.93611467   8.04838112
4248.00 -15.95216167   8.05868620
4250.00 -15.96821195   8.06899875
4252.00 -15.98426550   8.07931876
4254.00 -16.00032232   8.08964624
4256.00 -16.01638242   8.09998118
4258.00 -16.03244577   8.11032359
4260.00 -16.04851239   8.12067346
4262.00 -16.06458225   8.13103081
4264.00 -16.08065537   8.14139561
4266.00 -16.09673173   8.15176789
4268.00 -16.11281134   8.16214763
4270.00 -16.12889418   8.17253484
4272.00 -16.14498025   8.18292952
4274.00 -16.16106955   8.19333166
4276.00 -16.17716208   8.20374127
4278.00 -16.19325782   8.21415835
4280.00 -16.20935679   8.22458290
4282.00 -16.22545896   8.23501491
4284.00 -16.24156434   8.24545439
4286.00 -16.25767292   8.25590134
4288.00 -16.27378469   8.26635576
4290.00 -16.28989967   8.27681764
4292.00 -16.30601783   8.28728699
4294.00 -16.32213918   8.29776381
4296.00 -16.33826370   8.30824810
4298.00 -16.35439141   8.31873986
4300.00 -16.37052228   8.32923908
4302.00 -16.38665633   8.33974577
4304.00 -16.40279354   8.35025993
4306.00 -16.41893390   8.36078156
4308.00 -16.43507742   8.37131066
4310.00 -16.45122410   8.38184722
4312.00 -16.46737392   8.39239125
4314.00 -16.48352688   8.40294276
4316.00 -16.49968298   8.41350173
4318.00 -16.51584221   8.42406816
4320.00 -16.53200457   8.43464207
4322.00 -16.54817006   8.44522345
4324.00 -16.56433867   8.45581229
4326.00 -16.58051039   8.46640860
4328.00 -16.59668523   8.47701238
4330.00 -16.61286317   8.48762363
4332.00 -16.62904422   8.49824235
4334.00 -16.64522836   8.50886853
4336.00 -16.66141560   8.51950219
4338.00 -16.67760594   8.53014331
4340.00 -16.69379935   8.54079190
4342.00 -16.70999585   8.55144796
4344.00 -16.72619543   8.56211149
4346.00 -16.74239808   8.57278249
4348.00 -16.75860380   8.58346096
4350.00 -16.77481259   8.59414689
4352.00 -16.79102444   8.60484029
4354.00 -16.80723934   8.61554116
4356.00 -16.82345729   8.62624950
4358.00 -16.83967830   8.63696531
4360.00 -16.85590234   8.64768859
4362.00 -16.87212943   8.65841933
4364.00 -16.88835955   8.66915754
4366.00 -16.90459270   8.67990322
4368.00 -16.92082888   8.69065637
4370.00 -16.93706808   8.70141699
4372.00 -16.95331030   8.71218508
4374.00 -16.96955553   8.72296063
4376.00 -16.98580378   8.73374365
4378.00 -17.00205502   8.74453414
4380.00 -17.01830927   8.75533210
4382.00 -17.03456652   8.76613752
4384.00 -17.05082675   8.77695042
4386.00 -17.06708998   8.78777078
4388.00 -17.08335619   8.79859861
4390.00 -17.09962538   8.80943390
4392.00 -17.11589754   8.82027666
4394.00 -17.13217268   8.83112689
4396.00 -17.14845078   8.84198459
4398.00 -17.16473185   8.85284976
4400.00 -17.18101587   8.86372239
4402.00 -17.19730285   8.87460249
4404.00 -17.21359278   8.88549006
4406.00 -17.22988565   8.89638509
4408.00 -17.24618147   8.90728759
4410.00 -17.26248022   8.91819755
4412.00 -17.27878191   8.92911499
4414.00 -17.29508652   8.94003989
4416.00 -17.31139406   8.95097225
4418.00 -17.32770452   8.96191209
4420.00 -17.34401790   8.97285938
4422.00 -17.36033419   8.98381415
4424.00 -17.37665338   8.99477638
4426.00 -17.39297548   9.00574607
4428.00 -17.40930048   9.01672324
4430.00 -17.42562837   9.02770786
4432.00 -17.44195916   9.03869996
4434.00 -17.45829283   9.04969951
4436.00 -17.47462938   9.06070654
4438.00 -17.49096881   9.07172102
4440.00 -17.50731111   9.08274298
4442.00 -17.52365629   9.09377239
4444.00 -17.54000433   9.10480928
4446.00 -17.55635523   9.11585362
4448.00 -17.57270899   9.12690543
4450.00 -17.58906560   9.13796471
4452.00 -17.60542506   9.14903145
4454.00 -17.62178736   9.16010565
4456.00 -17.63815250   9.17118731
4458.00 -17.65452048   9.18227644
4460.00 -17.67089129   9.19337304
4462.00 -17.68726493   9.20447709
4464.00 -17.70364139   9.21558861
4466.00 -17.72002067   9.22670759
4468.00 -17.73640277   9.23783404
4470.00 -17.75278768   9.24896794
4472.00 -17.76917539   9.26010931
4474.00 -17.78556591   9.27125814
4476.00 -17.80195922   9.28241444
4478.00 -17.81835533   9.29357819
4480.00 -17.83475422   9.30474941
4482.00 -17.85115591   9.31592808
4484.00 -17.86756037   9.32711422
4486.00 -17.88396761   9.33830782
4488.00 -17.90037762   9.34950888
4490.00 -17.91679041   9.36071740
4492.00 -17.93320595   9.37193338
4494.00 -17.94962426   9.38315682
4496.00 -17.96604532   9.39438772
4498.00 -17.98246914   9.40562608
4500.00 -17.99889570   9.41687190
4502.00 -18.01532501   9.42812518
4504.00 -18.03175706   9.43938592
4506.00 -18.04819184   9.45065412
4508.00 -18.06462935   9.46192977
4510.00 -18.08106959   9.47321288
4512.00 -18.09751255   9.48450345
4514.00 -18.11395824   9.49580148
4516.00 -18.13040663   9.50710697
4518.00 -18.14685774   9.51841991
4520.00 -18.16331155   9.52974031
4522.00 -18.17976806   9.54106817
4524.00 -18.19622727   9.55240348
4526.00 -18.21268918   9.56374625
4528.00 -18.22915377   9.57509648
4530.00 -18.24562105   9.58645416
4532.00 -18.26209101   9.59781930
4534.00 -18.27856365   9.60919189
4536.00 -18.29503896   9.62057194
4538.00 -18.31151694   9.63195944
4540.00 -18.32799759   9.64335440
4542.00 -18.34448089   9.65475681
4544.00 -18.36096685   9.66616667
4546.00 -18.37745546   9.67758399
4548.00 -18.39394672   9.68900876
4550.00 -18.41044063   9.70044099
4552.00 -18.42693717   9.71188067
4554.00 -18.44343635   9.72332780
4556.00 -18.45993816   9.73478238
4558.00 -18.47644259   9.74624441
4560.00 -18.49294965   9.75771390
4562.00 -18.50945933   9.76919083
4564.00 -18.52597163   9.78067522
4566.00 -18.54248653   9.79216706
4568.00 -18.55900404   9.80366635
4570.00 -18.57552415   9.81517309
4572.00 -18.59204686   9.82668727
4574.00 -18.60857217   9.83820891
4576.00 -18.62510006   9.84973800
4578.00 -18.64163054   9.86127453
4580.00 -18.65816360   9.87281852
4582.00 -18.67469924   9.88436995
4584.00 -18.69123746   9.89592883
4586.00 -18.70777824   9.90749516
4588.00 -18.72432159   9.91906893
4590.00 -18.74086749   9.93065015
4592.00 -18.75741596   9.94223882
4594.00 -18.77396698   9.95383493
4596.00 -18.79052054   9.96543849
4598.00 -18.80707665   9.97704950
4600.00 -18.82363531   9.98866795
4602.00 -18.84019649  10.00029384
4604.00 -18.85676021  10.01192718
4606.00 -18.87332646  10.02356796
4608.00 -18.88989523  10.03521619
4610.00 -18.90646652  10.04687186
4612.00 -18.92304033  10.05853497
4614.00 -18.93961665  10.07020553
4616.00 -18.95619548  10.08188352
4618.00 -18.97277681  10.09356896
4620.00 -18.98936064  10.10526184
4622.00 -19.00594696  10.11696216
4624.00 -19.02253578  10.12866992
4626.00 -19.03912708  10.14038513
4628.00 -19.05572087  10.15210777
4630.00 -19.07231713  10.16383785
4632.00 -19.08891587  10.17557537
4634.00 -19.10551708  10.18732033
4636.00 -19.12212076  10.19907273
4638.00 -19.13872690  10.21083256
4640.00 -19.15533549  10.22259984
4642.00 -19.17194654  10.23437455
4644.00 -19.18856005  10.24615669
4646.00 -19.20517599  10.25794628
4648.00 -19.22179438  10.26974330
4650.00 -19.23841521  10.28154775
4652.00 -19.25503848  10.29335964
4654.00 -19.27166417  10.30517896
4656.00 -19.28829228  10.31700572
4658.00 -19.30492282  10.32883991
4660.00 -19.32155578  10.34068154
4662.00 -19.33819115  10.35253060
4664.00 -19.35482893  10.36438709
4666.00 -19.37146912  10.37625101
4668.00 -19.38811170  10.38812237
4670.00 -19.40475669  10.40000115
4672.00 -19.42140406  10.41188737
4674.00 -19.43805383  10.42378102
4676.00 -19.45470598  10.43568209
4678.00 -19.47136051  10.44759060
4680.00 -19.48801742  10.45950653
4682.00 -19.50467671  10.47142990
4684.00 -19.52133836  10.48336069
4686.00 -19.53800237  10.49529891
4688.00 -19.55466875  10.50724456
4690.00 -19.57133748  10.51919763
4692.00 -19.58800857  10.53115813
4694.00 -19.60468200  10.54312605
4696.00 -19.62135778  10.55510141
4698.00 -19.63803590  10.56708418
4700.00 -19.65471636  10.57907438
4702.00 -19.67139915  10.59107200
4704.00 -19.68808426  10.60307705
4706.00 -19.70477170  10.61508952
4708.00 -19.72146146  10.62710941
4710.00 -19.73815354  10.63913673
4712.00 -19.75484793  10.65117146
4714.00 -19.77154463  10.66321362
4716.00 -19.78824363  10.67526320
4718.00 -19.80494493  10.68732020
4720.00 -19.82164853  10.69938461
4722.00 -19.83835442  10.71145645
4724.00 -19.85506260  10.72353570
4726.00 -19.87177306  10.73562237
4728.00 -19.88848581  10.74771646
4730.00 -19.90520082  10.75981797
4732.00 -19.92191811  10.77192689
4734.00 -19.93863767  10.78404323
4736.00 -19.95535950  10.79616699
4738.00 -19.97208358  10.80829815
4740.00 -19.98880992  10.82043674
4742.00 -20.00553850  10.83258273
4744.00 -20.02226934  10.84473615
4746.00 -20.03900242  10.85689697
4748.00 -20.05573775  10.86906520
4750.00 -20.07247530  10.88124085
4752.00 -20.08921509  10.89342391
4754.00 -20.10595711  10.90561438
4756.00 -20.12270135  10.91781226
4758.00 -20.13944781  10.93001755
4760.00 -20.15619649  10.94223024
4762.00 -20.17294737  10.95445035
4764.00 -20.18970047  10.96667786
4766.00 -20.20645577  10.97891279
4768.00 -20.22321327  10.99115511
4770.00 -20.23997296  11.00340485
4772.00 -20.25673485  11.01566199
4774.00 -20.27349893  11.02792653
4776.00 -20.29026518  11.04019848
4778.00 -20.30703362  11.05247784
4780.00 -20.32380424  11.06476459
4782.00 -20.34057703  11.07705875
4784.00 -20.35735198  11.08936031
4786.00 -20.37412910  11.10166928
4788.00 -20.39090838  11.11398564
4790.00 -20.40768981  11.12630941
4792.00 -20.42447340  11.13864057
4794.00 -20.44125913  11.15097914
4796.00 -20.45804701  11.16332510
4798.00 -20.47483703  11.17567846
4800.00 -20.49162918  11.18803922
4802.00 -20.50842347  11.20040738
4804.00 -20.52521989  11.21278293
4806.00 -20.54201843  11.22516588
4808.00 -20.55881909  11.23755622
4810.00 -20.57562186  11.24995396
4812.00 -20.59242675  11.26235909
4814.00 -20.60923375  11.27477162
4816.00 -20.62604285  11.28719153
4818.00 -20.64285405  11.29961884
4820.00 -20.65966735  11.31205355
4822.00 -20.67648274  11.32449564
4824.00 -20.69330022  11.33694512
4826.00 -20.71011978  11.34940199
4828.00 -20.72694143  11.36186625
4830.00 -20.74376515  11.37433790
4832.00 -20.76059094  11.38681694
4834.00 -20.77741881  11.39930337
4836.00 -20.79424873  11.41179718
4838.00 -20.81108072  11.42429837
4840.00 -20.82791477  11.43680696
4842.00 -20.84475087  11.44932292
4844.00 -20.86158902  11.46184627
4846.00 -20.87842921  11.47437701
4848.00 -20.89527145  11.48691512
4850.00 -20.91211572  11.49946062
4852.00 -20.92896203  11.51201350
4854.00 -20.94581036  11.52457376
4856.00 -20.96266072  11.53714140
4858.00 -20.97951311  11.54971642
4860.00 -20.99636751  11.56229882
4862.00 -21.01322392  11.57488860
4864.00 -21.03008235  11.58748575
4866.00 -21.04694278  11.60009028
4868.00 -21.06380521  11.61270219
4870.00 -21.08066964  11.62532147
4872.00 -21.09753607  11.63794813
4874.00 -21.11440448  11.65058216
4876.00 -21.13127488  11.66322356
4878.00 -21.14814727  11.67587234
4880.00 -21.16502163  11.68852848
4882.00 -21.18189797  11.70119200
4884.00 -21.19877628  11.71386289
4886.00 -21.21565655  11.72654115
4888.00 -21.23253879  11.73922678
4890.00 -21.24942299  11.75191978
4892.00 -21.26630914  11.76462015
4894.00 -21.28319724  11.77732788
4896.00 -21.30008730  11.79004298
4898.00 -21.31697929  11.80276544
4900.00 -21.33387323  11.81549527
4902.00 -21.35076910  11.82823246
4904.00 -21.36766690  11.84097702
4906.00 -21.38456663  11.85372894
4908.00 -21.40146828  11.86648822
4910.00 -21.41837186  11.87925487
4912.00 -21.43527735  11.89202887
4914.00 -21.45218475  11.90481023
4916.00 -21.46909406  11.91759896
4918.00 -21.48600528  11.93039504
4920.00 -21.50291840  11.94319848
4922.00 -21.51983341  11.95600927
4924.00 -21.53675032  11.96882743
4926.00 -21.55366911  11.98165294
4928.00 -21.57058980  11.99448580
4930.00 -21.58751236  12.00732602
4932.00 -21.60443680  12.02017359
4934.00 -21.62136311  12.03302851
4936.00 -21.63829130  12.04589078
4938.00 -21.65522135  12.05876041
4940.00 -21.67215326  12.07163739
4942.00 -21.68908703  12.08452171
4944.00 -21.70602266  12.09741339
4946.00 -21.72296013  12.11031241
4948.00 -21.73989946  12.12321878
4950.00 -21.75684062  12.13613249
4952.00 -21.77378363  12.14905356
4954.00 -21.79072847  12.16198196
4956.00 -21.80767514  12.17491771
4958.00 -21.82462363  12.18786081
4960.00 -21.84157396  12.20081125
4962.00 -21.85852610  12.21376903
4964.00 -21.87548006  12.22673415
4966.00 -21.89243583  12.23970661
4968.00 -21.90939340  12.25268641
4970.00 -21.92635279  12.26567355
4972.00 -21.94331397  12.27866803
4974.00 -21.96027695  12.29166984
4976.00 -21.97724172  12.30467899
4978.00 -21.99420828  12.31769548
4980.00 -22.01117663  12.33071930
4982.00 -22.02814676  12.34375045
4984.00 -22.04511867  12.35678894
4986.00 -22.06209235  12.36983476
4988.00 -22.07906780  12.38288792
4990.00 -22.09604501  12.39594840
4992.00 -22.11302399  12.40901621
4994.00 -22.13000473  12.42209135
4996.00 -22.14698722  12.43517383
4998.00 -22.16397146  12.44826362
5000.00 -22.18095745  12.46136075
