wavelength(nm)         real         imag
200.00   3.60188139   0.00569759
201.00   3.59889385   0.00578346
202.00   3.59589143   0.00587019
203.00   3.59287414   0.00595778
204.00   3.58984197   0.00604624
205.00   3.58679492   0.00613557
206.00   3.58373299   0.00622577
207.00   3.58065619   0.00631685
208.00   3.57756451   0.00640882
209.00   3.57445796   0.00650168
210.00   3.57133653   0.00659542
211.00   3.56820022   0.00669007
212.00   3.56504904   0.00678561
213.00   3.56188298   0.00688206
214.00   3.55870205   0.00697942
215.00   3.55550625   0.00707769
216.00   3.55229557   0.00717688
217.00   3.54907002   0.00727700
218.00   3.54582960   0.00737803
219.00   3.54257430   0.00748000
220.00   3.53930413   0.00758291
221.00   3.53601909   0.00768675
222.00   3.53271918   0.00779154
223.00   3.52940440   0.00789727
224.00   3.52607474   0.00800396
225.00   3.52273022   0.00811160
226.00   3.51937082   0.00822020
227.00   3.51599656   0.00832977
228.00   3.51260743   0.00844030
229.00   3.50920342   0.00855181
230.00   3.50578455   0.00866430
231.00   3.50235081   0.00877777
232.00   3.49890221   0.00889222
233.00   3.49543873   0.00900766
234.00   3.49196039   0.00912410
235.00   3.48846718   0.00924154
236.00   3.48495911   0.00935998
237.00   3.48143617   0.00947942
238.00   3.47789836   0.00959988
239.00   3.47434569   0.00972136
240.00   3.47077815   0.00984385
241.00   3.46719575   0.00996737
242.00   3.46359849   0.01009191
243.00   3.45998636   0.01021749
244.00   3.45635937   0.01034411
245.00   3.45271751   0.01047177
246.00   3.44906080   0.01060047
247.00   3.44538922   0.01073022
248.00   3.44170278   0.01086103
249.00   3.43800148   0.01099289
250.00   3.43428531   0.01112582
251.00   3.43055429   0.01125981
252.00   3.42680841   0.01139487
253.00   3.42304767   0.01153101
254.00   3.41927207   0.01166823
255.00   3.41548161   0.01180653
256.00   3.41167629   0.01194592
257.00   3.40785611   0.01208641
258.00   3.40402108   0.01222798
259.00   3.40017119   0.01237066
260.00   3.39630644   0.01251445
261.00   3.39242684   0.01265934
262.00   3.38853238   0.01280535
263.00   3.38462306   0.01295247
264.00   3.38069889   0.01310072
265.00   3.37675987   0.01325009
266.00   3.37280599   0.01340059
267.00   3.36883726   0.01355223
268.00   3.36485367   0.01370501
269.00   3.36085523   0.01385893
270.00   3.35684194   0.01401399
271.00   3.35281380   0.01417021
272.00   3.34877081   0.01432759
273.00   3.34471296   0.01448612
274.00   3.34064027   0.01464582
275.00   3.33655272   0.01480669
276.00   3.33245033   0.01496873
277.00   3.32833308   0.01513195
278.00   3.32420099   0.01529634
279.00   3.32005405   0.01546193
280.00   3.31589226   0.01562870
281.00   3.31171562   0.01579667
282.00   3.30752414   0.01596584
283.00   3.30331781   0.01613621
284.00   3.29909663   0.01630778
285.00   3.29486061   0.01648057
286.00   3.29060974   0.01665457
287.00   3.28634403   0.01682979
288.00   3.28206347   0.01700624
289.00   3.27776807   0.01718391
290.00   3.27345783   0.01736282
291.00   3.26913274   0.01754296
292.00   3.26479281   0.01772434
293.00   3.26043804   0.01790697
294.00   3.25606843   0.01809085
295.00   3.25168398   0.01827598
296.00   3.24728469   0.01846237
297.00   3.24287055   0.01865002
298.00   3.23844158   0.01883894
299.00   3.23399777   0.01902912
300.00   3.22953912   0.01922059
301.00   3.22506563   0.01941333
302.00   3.22057731   0.01960735
303.00   3.21607415   0.01980266
304.00   3.21155615   0.01999927
305.00   3.20702331   0.02019716
306.00   3.20247564   0.02039636
307.00   3.19791314   0.02059687
308.00   3.19333580   0.02079868
309.00   3.18874362   0.02100180
310.00   3.18413662   0.02120625
311.00   3.17951478   0.02141201
312.00   3.17487810   0.02161910
313.00   3.17022660   0.02182752
314.00   3.16556026   0.02203727
315.00   3.16087909   0.02224836
316.00   3.15618309   0.02246079
317.00   3.15147227   0.02267457
318.00   3.14674661   0.02288970
319.00   3.14200612   0.02310619
320.00   3.13725081   0.02332403
321.00   3.13248066   0.02354324
322.00   3.12769569   0.02376382
323.00   3.12289590   0.02398577
324.00   3.11808127   0.02420910
325.00   3.11325182   0.02443380
326.00   3.10840755   0.02465989
327.00   3.10354845   0.02488737
328.00   3.09867453   0.02511625
329.00   3.09378578   0.02534652
330.00   3.08888221   0.02557819
331.00   3.08396382   0.02581127
332.00   3.07903060   0.02604576
333.00   3.07408256   0.02628166
334.00   3.06911971   0.02651898
335.00   3.06414203   0.02675773
336.00   3.05914953   0.02699790
337.00   3.05414221   0.02723950
338.00   3.04912008   0.02748254
339.00   3.04408312   0.02772702
340.00   3.03903135   0.02797294
341.00   3.03396476   0.02822032
342.00   3.02888335   0.02846914
343.00   3.02378713   0.02871942
344.00   3.01867610   0.02897116
345.00   3.01355024   0.02922437
346.00   3.00840958   0.02947905
347.00   3.00325409   0.02973520
348.00   2.99808380   0.02999282
349.00   2.99289869   0.03025193
350.00   2.98769877   0.03051253
351.00   2.98248404   0.03077462
352.00   2.97725450   0.03103820
353.00   2.97201015   0.03130328
354.00   2.96675099   0.03156987
355.00   2.96147702   0.03183796
356.00   2.95618824   0.03210756
357.00   2.95088465   0.03237868
358.00   2.94556625   0.03265132
359.00   2.94023305   0.03292548
360.00   2.93488504   0.03320118
361.00   2.92952223   0.03347840
362.00   2.92414461   0.03375717
363.00   2.91875218   0.03403747
364.00   2.91334495   0.03431932
365.00   2.90792292   0.03460272
366.00   2.90248609   0.03488767
367.00   2.89703445   0.03517418
368.00   2.89156801   0.03546226
369.00   2.88608677   0.03575190
370.00   2.88059073   0.03604311
371.00   2.87507989   0.03633589
372.00   2.86955425   0.03663026
373.00   2.86401381   0.03692621
374.00   2.85845858   0.03722375
375.00   2.85288854   0.03752288
376.00   2.84730371   0.03782360
377.00   2.84170409   0.03812593
378.00   2.83608966   0.03842986
379.00   2.83046045   0.03873540
380.00   2.82481643   0.03904255
381.00   2.81915763   0.03935132
382.00   2.81348403   0.03966171
383.00   2.80779564   0.03997372
384.00   2.80209245   0.04028737
385.00   2.79637448   0.04060265
386.00   2.79064171   0.04091957
387.00   2.78489416   0.04123813
388.00   2.77913181   0.04155834
389.00   2.77335468   0.04188020
390.00   2.76756276   0.04220372
391.00   2.76175605   0.04252889
392.00   2.75593455   0.04285573
393.00   2.75009827   0.04318423
394.00   2.74424720   0.04351441
395.00   2.73838135   0.04384627
396.00   2.73250071   0.04417980
397.00   2.72660529   0.04451502
398.00   2.72069508   0.04485193
399.00   2.71477010   0.04519053
400.00   2.70883033   0.04553083
401.00   2.70287578   0.04587283
402.00   2.69690645   0.04621654
403.00   2.69092234   0.04656195
404.00   2.68492345   0.04690908
405.00   2.67890978   0.04725793
406.00   2.67288134   0.04760850
407.00   2.66683811   0.04796080
408.00   2.66078011   0.04831483
409.00   2.65470734   0.04867060
410.00   2.64861979   0.04902810
411.00   2.64251746   0.04938735
412.00   2.63640036   0.04974835
413.00   2.63026849   0.05011109
414.00   2.62412185   0.05047560
415.00   2.61796043   0.05084186
416.00   2.61178424   0.05120989
417.00   2.60559328   0.05157969
418.00   2.59938756   0.05195126
419.00   2.59316706   0.05232461
420.00   2.58693179   0.05269974
421.00   2.58068176   0.05307666
422.00   2.57441696   0.05345537
423.00   2.56813739   0.05383587
424.00   2.56184306   0.05421817
425.00   2.55553396   0.05460227
426.00   2.54921010   0.05498818
427.00   2.54287147   0.05537590
428.00   2.53651808   0.05576543
429.00   2.53014993   0.05615679
430.00   2.52376701   0.05654997
431.00   2.51736934   0.05694497
432.00   2.51095690   0.05734181
433.00   2.50452971   0.05774048
434.00   2.49808776   0.05814100
435.00   2.49163105   0.05854336
436.00   2.48515958   0.05894757
437.00   2.47867335   0.05935363
438.00   2.47217237   0.05976155
439.00   2.46565663   0.06017133
440.00   2.45912614   0.06058297
441.00   2.45258090   0.06099649
442.00   2.44602090   0.06141188
443.00   2.43944615   0.06182914
444.00   2.43285664   0.06224829
445.00   2.42625239   0.06266933
446.00   2.41963339   0.06309226
447.00   2.41299963   0.06351708
448.00   2.40635113   0.06394380
449.00   2.39968788   0.06437243
450.00   2.39300988   0.06480296
451.00   2.38631713   0.06523541
452.00   2.37960964   0.06566977
453.00   2.37288741   0.06610605
454.00   2.36615043   0.06654425
455.00   2.35939870   0.06698439
456.00   2.35263224   0.06742645
457.00   2.34585103   0.06787046
458.00   2.33905507   0.06831640
459.00   2.33224438   0.06876429
460.00   2.32541895   0.06921413
461.00   2.31857878   0.06966593
462.00   2.31172387   0.07011968
463.00   2.30485422   0.07057539
464.00   2.29796984   0.07103307
465.00   2.29107071   0.07149272
466.00   2.28415686   0.07195435
467.00   2.27722827   0.07241795
468.00   2.27028494   0.07288354
469.00   2.26332688   0.07335112
470.00   2.25635409   0.07382068
471.00   2.24936656   0.07429224
472.00   2.24236431   0.07476581
473.00   2.23534732   0.07524137
474.00   2.22831561   0.07571895
475.00   2.22126917   0.07619853
476.00   2.21420800   0.07668014
477.00   2.20713210   0.07716376
478.00   2.20004147   0.07764941
479.00   2.19293612   0.07813709
480.00   2.18581605   0.07862680
481.00   2.17868125   0.07911855
482.00   2.17153172   0.07961234
483.00   2.16436748   0.08010818
484.00   2.15718851   0.08060606
485.00   2.14999482   0.08110600
486.00   2.14278641   0.08160800
487.00   2.13556329   0.08211207
488.00   2.12832544   0.08261820
489.00   2.12107287   0.08312640
490.00   2.11380559   0.08363667
491.00   2.10652360   0.08414903
492.00   2.09922688   0.08466346
493.00   2.09191545   0.08517999
494.00   2.08458931   0.08569861
495.00   2.07724846   0.08621932
496.00   2.06989289   0.08674214
497.00   2.06252261   0.08726706
498.00   2.05513762   0.08779408
499.00   2.04773792   0.08832322
500.00   2.04032351   0.08885448
501.00   2.03289440   0.08938786
502.00   2.02545057   0.08992336
503.00   2.01799204   0.09046100
504.00   2.01051880   0.09100077
505.00   2.00303086   0.09154267
506.00   1.99552821   0.09208672
507.00   1.98801087   0.09263291
508.00   1.98047881   0.09318126
509.00   1.97293206   0.09373175
510.00   1.96537060   0.09428441
511.00   1.95779445   0.09483923
512.00   1.95020359   0.09539622
513.00   1.94259804   0.09595538
514.00   1.93497779   0.09651671
515.00   1.92734284   0.09708023
516.00   1.91969320   0.09764592
517.00   1.91202886   0.09821381
518.00   1.90434983   0.09878389
519.00   1.89665610   0.09935616
520.00   1.88894768   0.09993063
521.00   1.88122457   0.10050731
522.00   1.87348677   0.10108620
523.00   1.86573428   0.10166730
524.00   1.85796710   0.10225062
525.00   1.85018523   0.10283616
526.00   1.84238867   0.10342393
527.00   1.83457743   0.10401392
528.00   1.82675150   0.10460615
529.00   1.81891088   0.10520062
530.00   1.81105558   0.10579733
531.00   1.80318560   0.10639628
532.00   1.79530093   0.10699749
533.00   1.78740159   0.10760095
534.00   1.77948756   0.10820667
535.00   1.77155885   0.10881465
536.00   1.76361547   0.10942490
537.00   1.75565740   0.11003742
538.00   1.74768466   0.11065221
539.00   1.73969724   0.11126929
540.00   1.73169515   0.11188865
541.00   1.72367838   0.11251030
542.00   1.71564694   0.11313424
543.00   1.70760082   0.11376047
544.00   1.69954003   0.11438901
545.00   1.69146457   0.11501985
546.00   1.68337444   0.11565300
547.00   1.67526965   0.11628847
548.00   1.66715018   0.11692625
549.00   1.65901604   0.11756635
550.00   1.65086724   0.11820877
551.00   1.64270377   0.11885353
552.00   1.63452564   0.11950062
553.00   1.62633284   0.12015005
554.00   1.61812538   0.12080182
555.00   1.60990326   0.12145594
556.00   1.60166648   0.12211240
557.00   1.59341503   0.12277122
558.00   1.58514893   0.12343240
559.00   1.57686816   0.12409595
560.00   1.56857274   0.12476186
561.00   1.56026266   0.12543014
562.00   1.55193793   0.12610079
563.00   1.54359854   0.12677383
564.00   1.53524450   0.12744925
565.00   1.52687580   0.12812706
566.00   1.51849245   0.12880726
567.00   1.51009445   0.12948985
568.00   1.50168180   0.13017485
569.00   1.49325450   0.13086225
570.00   1.48481255   0.13155205
571.00   1.47635595   0.13224427
572.00   1.46788470   0.13293891
573.00   1.45939881   0.13363597
574.00   1.45089828   0.13433545
575.00   1.44238310   0.13503737
576.00   1.43385327   0.13574171
577.00   1.42530881   0.13644850
578.00   1.41674970   0.13715772
579.00   1.40817595   0.13786940
580.00   1.39958756   0.13858352
581.00   1.39098454   0.13930009
582.00   1.38236687   0.14001913
583.00   1.37373457   0.14074062
584.00   1.36508763   0.14146459
585.00   1.35642606   0.14219102
586.00   1.34774986   0.14291993
587.00   1.33905902   0.14365131
588.00   1.33035355   0.14438519
589.00   1.32163345   0.14512154
590.00   1.31289872   0.14586039
591.00   1.30414935   0.14660174
592.00   1.29538536   0.14734558
593.00   1.28660675   0.14809193
594.00   1.27781350   0.14884079
595.00   1.26900564   0.14959215
596.00   1.26018314   0.15034604
597.00   1.25134603   0.15110244
598.00   1.24249429   0.15186137
599.00   1.23362793   0.15262283
600.00   1.22474695   0.15338682
601.00   1.21585135   0.15415335
602.00   1.20694113   0.15492242
603.00   1.19801629   0.15569403
604.00   1.18907683   0.15646820
605.00   1.18012276   0.15724492
606.00   1.17115408   0.15802419
607.00   1.16217078   0.15880603
608.00   1.15317287   0.15959043
609.00   1.14416035   0.16037740
610.00   1.13513321   0.16116695
611.00   1.12609147   0.16195907
612.00   1.11703511   0.16275378
613.00   1.10796415   0.16355107
614.00   1.09887859   0.16435096
615.00   1.08977841   0.16515344
616.00   1.08066363   0.16595851
617.00   1.07153425   0.16676620
618.00   1.06239026   0.16757648
619.00   1.05323167   0.16838938
620.00   1.04405848   0.16920490
621.00   1.03487070   0.17002303
622.00   1.02566831   0.17084379
623.00   1.01645132   0.17166718
624.00   1.00721974   0.17249320
625.00   0.99797356   0.17332185
626.00   0.98871278   0.17415314
627.00   0.97943741   0.17498708
628.00   0.97014745   0.17582367
629.00   0.96084290   0.17666291
630.00   0.95152375   0.17750481
631.00   0.94219002   0.17834936
632.00   0.93284169   0.17919659
633.00   0.92347878   0.18004648
634.00   0.91410128   0.18089904
635.00   0.90470920   0.18175428
636.00   0.89530253   0.18261221
637.00   0.88588127   0.18347281
638.00   0.87644544   0.18433611
639.00   0.86699502   0.18520210
640.00   0.85753002   0.18607079
641.00   0.84805044   0.18694219
642.00   0.83855628   0.18781628
643.00   0.82904754   0.18869309
644.00   0.81952423   0.18957261
645.00   0.80998634   0.19045485
646.00   0.80043388   0.19133982
647.00   0.79086684   0.19222751
648.00   0.78128523   0.19311793
649.00   0.77168905   0.19401109
650.00   0.76207830   0.19490698
651.00   0.75245298   0.19580562
652.00   0.74281309   0.19670700
653.00   0.73315863   0.19761114
654.00   0.72348961   0.19851803
655.00   0.71380602   0.19942768
656.00   0.70410787   0.20034010
657.00   0.69439515   0.20125528
658.00   0.68466787   0.20217324
659.00   0.67492603   0.20309397
660.00   0.66516963   0.20401748
661.00   0.65539868   0.20494378
662.00   0.64561316   0.20587286
663.00   0.63581309   0.20680474
664.00   0.62599846   0.20773941
665.00   0.61616927   0.20867688
666.00   0.60632553   0.20961716
667.00   0.59646724   0.21056025
668.00   0.58659440   0.21150615
669.00   0.57670701   0.21245487
670.00   0.56680507   0.21340640
671.00   0.55688858   0.21436077
672.00   0.54695754   0.21531796
673.00   0.53701196   0.21627799
674.00   0.52705183   0.21724085
675.00   0.51707715   0.21820656
676.00   0.50708794   0.21917511
677.00   0.49708418   0.22014651
678.00   0.48706588   0.22112077
679.00   0.47703304   0.22209788
680.00   0.46698567   0.22307786
681.00   0.45692375   0.22406070
682.00   0.44684730   0.22504641
683.00   0.43675631   0.22603500
684.00   0.42665079   0.22702646
685.00   0.41653074   0.22802081
686.00   0.40639615   0.22901805
687.00   0.39624704   0.23001817
688.00   0.38608339   0.23102119
689.00   0.37590521   0.23202711
690.00   0.36571251   0.23303594
691.00   0.35550528   0.23404767
692.00   0.34528352   0.23506231
693.00   0.33504724   0.23607986
694.00   0.32479644   0.23710034
695.00   0.31453112   0.23812374
696.00   0.30425127   0.23915007
697.00   0.29395690   0.24017933
698.00   0.28364802   0.24121152
699.00   0.27332461   0.24224666
700.00   0.26298669   0.24328474
701.00   0.25263426   0.24432576
702.00   0.24226731   0.24536974
703.00   0.23188585   0.24641668
704.00   0.22148987   0.24746658
705.00   0.21107939   0.24851944
706.00   0.20065439   0.24957527
707.00   0.19021489   0.25063407
708.00   0.17976087   0.25169585
709.00   0.16929235   0.25276060
710.00   0.15880933   0.25382835
711.00   0.14831180   0.25489908
712.00   0.13779977   0.25597281
713.00   0.12727324   0.25704953
714.00   0.11673220   0.25812926
715.00   0.10617667   0.25921199
716.00   0.09560664   0.26029772
717.00   0.08502211   0.26138648
718.00   0.07442308   0.26247825
719.00   0.06380956   0.26357304
720.00   0.05318155   0.26467086
721.00   0.04253904   0.26577170
722.00   0.03188204   0.26687558
723.00   0.02121055   0.26798250
724.00   0.01052457   0.26909246
725.00  -0.00017590   0.27020547
726.00  -0.01089085   0.27132153
727.00  -0.02162030   0.27244064
728.00  -0.03236422   0.27356281
729.00  -0.04312263   0.27468804
730.00  -0.05389552   0.27581633
731.00  -0.06468289   0.27694770
732.00  -0.07548475   0.27808215
733.00  -0.08630108   0.27921967
734.00  -0.09713189   0.28036027
735.00  -0.10797717   0.28150396
736.00  -0.11883693   0.28265074
737.00  -0.12971117   0.28380062
738.00  -0.14059988   0.28495360
739.00  -0.15150306   0.28610967
740.00  -0.16242071   0.28726886
741.00  -0.17335283   0.28843116
742.00  -0.18429942   0.28959657
743.00  -0.19526048   0.29076510
744.00  -0.20623600   0.29193675
745.00  -0.21722599   0.29311154
746.00  -0.22823044   0.29428945
747.00  -0.23924935   0.29547050
748.00  -0.25028273   0.29665469
749.00  -0.26133056   0.29784202
750.00  -0.27239285   0.29903250
751.00  -0.28346961   0.30022613
752.00  -0.29456081   0.30142292
753.00  -0.30566648   0.30262287
754.00  -0.31678659   0.30382598
755.00  -0.32792116   0.30503226
756.00  -0.33907018   0.30624171
757.00  -0.35023366   0.30745433
758.00  -0.36141158   0.30867014
759.00  -0.37260395   0.30988913
760.00  -0.38381076   0.31111131
761.00  -0.39503202   0.31233669
762.00  -0.40626773   0.31356525
763.00  -0.41751788   0.31479702
764.00  -0.42878247   0.31603200
765.00  -0.44006150   0.31727018
766.00  -0.45135498   0.31851157
767.00  -0.46266289   0.31975618
768.00  -0.47398523   0.32100402
769.00  -0.48532202   0.32225507
770.00  -0.49667323   0.32350936
771.00  -0.50803889   0.32476688
772.00  -0.51941897   0.32602763
773.00  -0.53081348   0.32729163
774.00  -0.54222243   0.32855887
775.00  -0.55364580   0.32982936
776.00  -0.56508360   0.33110310
777.00  -0.57653583   0.33238010
778.00  -0.58800248   0.33366036
779.00  -0.59948355   0.33494389
780.00  -0.61097905   0.33623069
781.00  -0.62248897   0.33752076
782.00  -0.63401331   0.33881410
783.00  -0.64555207   0.34011073
784.00  -0.65710524   0.34141064
785.00  -0.66867283   0.34271384
786.00  -0.68025484   0.34402034
787.00  -0.69185126   0.34533013
788.00  -0.70346209   0.34664323
789.00  -0.71508733   0.34795963
790.00  -0.72672698   0.34927934
791.00  -0.73838105   0.35060236
792.00  -0.75004952   0.35192871
793.00  -0.76173239   0.35325837
794.00  -0.77342967   0.35459136
795.00  -0.78514135   0.35592768
796.00  -0.79686744   0.35726733
797.00  -0.80860793   0.35861032
798.00  -0.82036282   0.35995665
799.00  -0.83213210   0.36130633
800.00  -0.84391578   0.36265936
801.00  -0.85571386   0.36401574
802.00  -0.86752634   0.36537548
803.00  -0.87935321   0.36673859
804.00  -0.89119447   0.36810505
805.00  -0.90305012   0.36947489
806.00  -0.91492016   0.37084811
807.00  -0.92680459   0.37222470
808.00  -0.93870340   0.37360467
809.00  -0.95061660   0.37498803
810.00  -0.96254419   0.37637478
811.00  -0.97448616   0.37776492
812.00  -0.98644251   0.37915847
813.00  -0.99841324   0.38055541
814.00  -1.01039836   0.38195576
815.00  -1.02239785   0.38335952
816.00  -1.03441171   0.38476670
817.00  -1.04643995   0.38617729
818.00  -1.05848257   0.38759131
819.00  -1.07053956   0.38900875
820.00  -1.08261092   0.39042962
821.00  -1.09469665   0.39185393
822.00  -1.10679675   0.39328168
823.00  -1.11891122   0.39471287
824.00  -1.13104006   0.39614750
825.00  -1.14318326   0.39758559
826.00  -1.15534082   0.39902713
827.00  -1.16751275   0.40047213
828.00  -1.17969904   0.40192059
829.00  -1.19189968   0.40337252
830.00  -1.20411469   0.40482791
831.00  -1.21634405   0.40628679
832.00  -1.22858777   0.40774914
833.00  -1.24084585   0.40921497
834.00  -1.25311828   0.41068429
835.00  -1.26540506   0.41215711
836.00  -1.27770619   0.41363341
837.00  -1.29002167   0.41511322
838.00  -1.30235149   0.41659653
839.00  -1.31469567   0.41808334
840.00  -1.32705419   0.41957367
841.00  -1.33942705   0.42106751
842.00  -1.35181426   0.42256486
843.00  -1.36421581   0.42406575
844.00  -1.37663170   0.42557015
845.00  -1.38906192   0.42707809
846.00  -1.40150649   0.42858957
847.00  -1.41396539   0.43010458
848.00  -1.42643863   0.43162313
849.00  -1.43892619   0.43314524
850.00  -1.45142809   0.43467089
851.00  -1.46394433   0.43620009
852.00  -1.47647489   0.43773286
853.00  -1.48901978   0.43926919
854.00  -1.50157899   0.44080908
855.00  -1.51415253   0.44235255
856.00  -1.52674040   0.44389959
857.00  -1.53934259   0.44545021
858.00  -1.55195910   0.44700441
859.00  -1.56458992   0.44856220
860.00  -1.57723507   0.45012358
861.00  -1.58989454   0.45168856
862.00  -1.60256832   0.45325713
863.00  -1.61525641   0.45482930
864.00  -1.62795882   0.45640509
865.00  -1.64067554   0.45798448
866.00  -1.65340657   0.45956749
867.00  -1.66615191   0.46115411
868.00  -1.67891156   0.46274436
869.00  -1.69168551   0.46433824
870.00  -1.70447377   0.46593574
871.00  -1.71727633   0.46753688
872.00  -1.73009319   0.46914166
873.00  -1.74292436   0.47075008
874.00  -1.75576982   0.47236215
875.00  -1.76862958   0.47397787
876.00  -1.78150364   0.47559724
877.00  -1.79439200   0.47722028
878.00  -1.80729465   0.47884697
879.00  -1.82021159   0.48047733
880.00  -1.83314282   0.48211136
881.00  -1.84608834   0.48374907
882.00  -1.85904815   0.48539045
883.00  -1.87202225   0.48703552
884.00  -1.88501063   0.48868427
885.00  -1.89801329   0.49033671
886.00  -1.91103024   0.49199285
887.00  -1.92406147   0.49365269
888.00  -1.93710699   0.49531622
889.00  -1.95016677   0.49698347
890.00  -1.96324084   0.49865442
891.00  -1.97632918   0.50032909
892.00  -1.98943180   0.50200748
893.00  -2.00254869   0.50368959
894.00  -2.01567985   0.50537542
895.00  -2.02882528   0.50706498
896.00  -2.04198498   0.50875828
897.00  -2.05515895   0.51045532
898.00  -2.06834718   0.51215610
899.00  -2.08154968   0.51386062
900.00  -2.09476644   0.51556890
901.00  -2.10799746   0.51728093
902.00  -2.12124275   0.51899671
903.00  -2.13450229   0.52071626
904.00  -2.14777609   0.52243958
905.00  -2.16106414   0.52416666
906.00  -2.17436645   0.52589752
907.00  -2.18768302   0.52763215
908.00  -2.20101383   0.52937057
909.00  -2.21435890   0.53111277
910.00  -2.22771821   0.53285876
911.00  -2.24109177   0.53460855
912.00  -2.25447958   0.53636213
913.00  -2.26788163   0.53811951
914.00  -2.28129793   0.53988070
915.00  -2.29472846   0.54164570
916.00  -2.30817324   0.54341452
917.00  -2.32163226   0.54518715
918.00  -2.33510551   0.54696360
919.00  -2.34859300   0.54874387
920.00  -2.36209472   0.55052798
921.00  -2.37561068   0.55231591
922.00  -2.38914087   0.55410769
923.00  -2.40268529   0.55590331
924.00  -2.41624393   0.55770277
925.00  -2.42981681   0.55950608
926.00  -2.44340391   0.56131324
927.00  -2.45700523   0.56312426
928.00  -2.47062078   0.56493914
929.00  -2.48425055   0.56675788
930.00  -2.49789454   0.56858050
931.00  -2.51155275   0.57040698
932.00  -2.52522517   0.57223735
933.00  -2.53891181   0.57407159
934.00  -2.55261266   0.57590972
935.00  -2.56632773   0.57775173
936.00  -2.58005701   0.57959764
937.00  -2.59380050   0.58144745
938.00  -2.60755819   0.58330115
939.00  -2.62133010   0.58515876
940.00  -2.63511620   0.58702028
941.00  -2.64891652   0.58888570
942.00  -2.66273103   0.59075505
943.00  -2.67655975   0.59262831
944.00  -2.69040266   0.59450550
945.00  -2.70425977   0.59638662
946.00  -2.71813108   0.59827167
947.00  -2.73201659   0.60016065
948.00  -2.74591628   0.60205357
949.00  -2.75983017   0.60395044
950.00  -2.77375825   0.60585125
951.00  -2.78770052   0.60775602
952.00  -2.80165698   0.60966474
953.00  -2.81562762   0.61157742
954.00  -2.82961245   0.61349406
955.00  -2.84361146   0.61541467
956.00  -2.85762465   0.61733925
957.00  -2.87165202   0.61926781
958.00  -2.88569357   0.62120034
959.00  -2.89974930   0.62313686
960.00  -2.91381920   0.62507736
961.00  -2.92790328   0.62702186
962.00  -2.94200153   0.62897035
963.00  -2.95611395   0.63092284
964.00  -2.97024054   0.63287933
965.00  -2.98438129   0.63483982
966.00  -2.99853622   0.63680433
967.00  -3.01270531   0.63877285
968.00  -3.02688856   0.64074539
969.00  -3.04108598   0.64272195
970.00  -3.05529755   0.64470254
971.00  -3.06952329   0.64668716
972.00  -3.08376318   0.64867581
973.00  -3.09801722   0.65066850
974.00  -3.11228543   0.65266523
975.00  -3.12656778   0.65466600
976.00  -3.14086429   0.65667083
977.00  -3.15517494   0.65867971
978.00  -3.16949975   0.66069264
979.00  -3.18383870   0.66270964
980.00  -3.19819179   0.66473070
981.00  -3.21255903   0.66675584
982.00  -3.22694042   0.66878504
983.00  -3.24133594   0.67081832
984.00  -3.25574560   0.67285568
985.00  -3.27016940   0.67489713
986.00  -3.28460733   0.67694266
987.00  -3.29905940   0.67899229
988.00  -3.31352560   0.68104601
989.00  -3.32800594   0.68310384
990.00  -3.34250040   0.68516577
991.00  -3.35700899   0.68723180
992.00  -3.37153171   0.68930195
993.00  -3.38606856   0.69137622
994.00  -3.40061952   0.69345460
995.00  -3.41518461   0.69553711
996.00  -3.42976382   0.69762374
997.00  -3.44435715   0.69971451
998.00  -3.45896460   0.70180941
999.00  -3.47358616   0.70390845
1000.00  -3.48822184   0.70601164
1001.00  -3.50287162   0.70811897
1002.00  -3.51753553   0.71023045
1003.00  -3.53221354   0.71234609
1004.00  -3.54690565   0.71446589
1005.00  -3.56161188   0.71658985
1006.00  -3.57633221   0.71871797
1007.00  -3.59106664   0.72085027
1008.00  -3.60581517   0.72298674
1009.00  -3.62057781   0.72512739
1010.00  -3.63535454   0.72727222
1011.00  -3.65014537   0.72942124
1012.00  -3.66495030   0.73157444
1013.00  -3.67976932   0.73373184
1014.00  -3.69460243   0.73589344
1015.00  -3.70944963   0.73805924
1016.00  -3.72431092   0.74022925
1017.00  -3.73918630   0.74240346
1018.00  -3.75407577   0.74458189
1019.00  -3.76897932   0.74676453
1020.00  -3.78389695   0.74895140
1021.00  -3.79882866   0.75114249
1022.00  -3.81377446   0.75333781
1023.00  -3.82873433   0.75553736
1024.00  -3.84370828   0.75774115
1025.00  -3.85869630   0.75994918
1026.00  -3.87369840   0.76216146
1027.00  -3.88871456   0.76437798
1028.00  -3.90374480   0.76659875
1029.00  -3.91878911   0.76882378
1030.00  -3.93384748   0.77105307
1031.00  -3.94891992   0.77328662
1032.00  -3.96400642   0.77552444
1033.00  -3.97910699   0.77776654
1034.00  -3.99422161   0.78001290
1035.00  -4.00935029   0.78226355
1036.00  -4.02449303   0.78451848
1037.00  -4.03964983   0.78677769
1038.00  -4.05482068   0.78904120
1039.00  -4.07000558   0.79130900
1040.00  -4.08520454   0.79358110
1041.00  -4.10041754   0.79585751
1042.00  -4.11564459   0.79813821
1043.00  -4.13088568   0.80042323
1044.00  -4.14614082   0.80271257
1045.00  -4.16141001   0.80500622
1046.00  -4.17669323   0.80730419
1047.00  -4.19199050   0.80960649
1048.00  -4.20730180   0.81191311
1049.00  -4.22262713   0.81422408
1050.00  -4.23796651   0.81653937
1051.00  -4.25331991   0.81885901
1052.00  -4.26868735   0.82118300
1053.00  -4.28406881   0.82351133
1054.00  -4.29946431   0.82584401
1055.00  -4.31487383   0.82818105
1056.00  -4.33029737   0.83052245
1057.00  -4.34573494   0.83286822
1058.00  -4.36118653   0.83521835
1059.00  -4.37665214   0.83757286
1060.00  -4.39213176   0.83993174
1061.00  -4.40762541   0.84229500
1062.00  -4.42313307   0.84466265
1063.00  -4.43865474   0.84703468
1064.00  -4.45419042   0.84941110
1065.00  -4.46974011   0.85179192
1066.00  -4.48530382   0.85417713
1067.00  -4.50088152   0.85656675
1068.00  -4.51647324   0.85896078
1069.00  -4.53207895   0.86135921
1070.00  -4.54769867   0.86376206
1071.00  -4.56333239   0.86616933
1072.00  -4.57898011   0.86858102
1073.00  -4.59464182   0.87099714
1074.00  -4.61031753   0.87341768
1075.00  -4.62600723   0.87584266
1076.00  -4.64171092   0.87827208
1077.00  -4.65742860   0.88070593
1078.00  -4.67316028   0.88314423
1079.00  -4.68890593   0.88558698
1080.00  -4.70466558   0.88803419
1081.00  -4.72043920   0.89048585
1082.00  -4.73622681   0.89294197
1083.00  -4.75202840   0.89540255
1084.00  -4.76784397   0.89786760
1085.00  -4.78367351   0.90033712
1086.00  -4.79951703   0.90281112
1087.00  -4.81537452   0.90528960
1088.00  -4.83124598   0.90777256
1089.00  -4.84713141   0.91026001
1090.00  -4.86303081   0.91275195
1091.00  -4.87894418   0.91524839
1092.00  -4.89487151   0.91774932
1093.00  -4.91081281   0.92025476
1094.00  -4.92676807   0.92276470
1095.00  -4.94273728   0.92527915
1096.00  -4.95872046   0.92779811
1097.00  -4.97471759   0.93032160
1098.00  -4.99072867   0.93284960
1099.00  -5.00675371   0.93538213
1100.00  -5.02279270   0.93791919
1101.00  -5.03884564   0.94046078
1102.00  -5.05491253   0.94300691
1103.00  -5.07099336   0.94555758
1104.00  -5.08708814   0.94811280
1105.00  -5.10319686   0.95067256
1106.00  -5.11931952   0.95323687
1107.00  -5.13545613   0.95580574
1108.00  -5.15160666   0.95837917
1109.00  -5.16777114   0.96095717
1110.00  -5.18394955   0.96353973
1111.00  -5.20014189   0.96612686
1112.00  -5.21634816   0.96871857
1113.00  -5.23256836   0.97131485
1114.00  -5.24880249   0.97391572
1115.00  -5.26505055   0.97652118
1116.00  -5.28131253   0.97913122
1117.00  -5.29758843   0.98174586
1118.00  -5.31387825   0.98436510
1119.00  -5.33018199   0.98698894
1120.00  -5.34649964   0.98961738
1121.00  -5.36283121   0.99225043
1122.00  -5.37917670   0.99488810
1123.00  -5.39553610   0.99753038
1124.00  -5.41190940   1.00017729
1125.00  -5.42829662   1.00282881
1126.00  -5.44469774   1.00548497
1127.00  -5.46111277   1.00814576
1128.00  -5.47754170   1.01081118
1129.00  -5.49398453   1.01348125
1130.00  -5.51044126   1.01615595
1131.00  -5.52691189   1.01883531
1132.00  -5.54339642   1.02151931
1133.00  -5.55989484   1.02420797
1134.00  -5.57640715   1.02690129
1135.00  -5.59293336   1.02959927
1136.00  -5.60947345   1.03230192
1137.00  -5.62602743   1.03500924
1138.00  -5.64259529   1.03772123
1139.00  -5.65917704   1.04043790
1140.00  -5.67577268   1.04315925
1141.00  -5.69238219   1.04588528
1142.00  -5.70900558   1.04861601
1143.00  -5.72564285   1.05135143
1144.00  -5.74229399   1.05409154
1145.00  -5.75895901   1.05683635
1146.00  -5.77563790   1.05958587
1147.00  -5.79233066   1.06234010
1148.00  -5.80903728   1.06509903
1149.00  -5.82575778   1.06786269
1150.00  -5.84249213   1.07063106
1151.00  -5.85924035   1.07340415
1152.00  -5.87600243   1.07618198
1153.00  -5.89277838   1.07896453
1154.00  -5.90956817   1.08175181
1155.00  -5.92637183   1.08454384
1156.00  -5.94318933   1.08734061
1157.00  -5.96002069   1.09014212
1158.00  -5.97686591   1.09294838
1159.00  -5.99372496   1.09575940
1160.00  -6.01059787   1.09857517
1161.00  -6.02748462   1.10139570
1162.00  -6.04438521   1.10422100
1163.00  -6.06129965   1.10705106
1164.00  -6.07822793   1.10988590
1165.00  -6.09517004   1.11272551
1166.00  -6.11212599   1.11556991
1167.00  -6.12909577   1.11841908
1168.00  -6.14607939   1.12127305
1169.00  -6.16307683   1.12413180
1170.00  -6.18008811   1.12699535
1171.00  -6.19711321   1.12986370
1172.00  -6.21415214   1.13273685
1173.00  -6.23120489   1.13561480
1174.00  -6.24827147   1.13849757
1175.00  -6.26535186   1.14138515
1176.00  -6.28244607   1.14427754
1177.00  -6.29955410   1.14717476
1178.00  -6.31667594   1.15007680
1179.00  -6.33381160   1.15298367
1180.00  -6.35096107   1.15589537
1181.00  -6.36812434   1.15881191
1182.00  -6.38530142   1.16173329
1183.00  -6.40249231   1.16465951
1184.00  -6.41969700   1.16759058
1185.00  -6.43691550   1.17052650
1186.00  -6.45414779   1.17346727
1187.00  -6.47139388   1.17641291
1188.00  -6.48865377   1.17936340
1189.00  -6.50592746   1.18231876
1190.00  -6.52321493   1.18527900
1191.00  -6.54051620   1.18824410
1192.00  -6.55783126   1.19121408
1193.00  -6.57516010   1.19418895
1194.00  -6.59250273   1.19716869
1195.00  -6.60985914   1.20015333
1196.00  -6.62722934   1.20314286
1197.00  -6.64461331   1.20613728
1198.00  -6.66201106   1.20913661
1199.00  -6.67942259   1.21214084
1200.00  -6.69684790   1.21514997
1201.00  -6.71428697   1.21816402
1202.00  -6.73173982   1.22118298
1203.00  -6.74920643   1.22420686
1204.00  -6.76668682   1.22723566
1205.00  -6.78418097   1.23026938
1206.00  -6.80168888   1.23330804
1207.00  -6.81921055   1.23635163
1208.00  -6.83674598   1.23940016
1209.00  -6.85429518   1.24245362
1210.00  -6.87185812   1.24551204
1211.00  -6.88943482   1.24857540
1212.00  -6.90702528   1.25164371
1213.00  -6.92462948   1.25471698
1214.00  -6.94224744   1.25779521
1215.00  -6.95987914   1.26087840
1216.00  -6.97752458   1.26396655
1217.00  -6.99518377   1.26705968
1218.00  -7.01285670   1.27015778
1219.00  -7.03054337   1.27326087
1220.00  -7.04824377   1.27636893
1221.00  -7.06595791   1.27948198
1222.00  -7.08368579   1.28260001
1223.00  -7.10142740   1.28572304
1224.00  -7.11918274   1.28885107
1225.00  -7.13695180   1.29198410
1226.00  -7.15473459   1.29512213
1227.00  -7.17253111   1.29826517
1228.00  -7.19034135   1.30141322
1229.00  -7.20816531   1.30456629
1230.00  -7.22600299   1.30772437
1231.00  -7.24385438   1.31088748
1232.00  -7.26171949   1.31405561
1233.00  -7.27959832   1.31722878
1234.00  -7.29749085   1.32040698
1235.00  -7.31539710   1.32359021
1236.00  -7.33331705   1.32677849
1237.00  -7.35125071   1.32997181
1238.00  -7.36919807   1.33317018
1239.00  -7.38715914   1.33637360
1240.00  -7.40513390   1.33958208
1241.00  -7.42312236   1.34279562
1242.00  -7.44112452   1.34601422
1243.00  -7.45914037   1.34923789
1244.00  -7.47716992   1.35246663
1245.00  -7.49521315   1.35570044
1246.00  -7.51327008   1.35893934
1247.00  -7.53134069   1.36218331
1248.00  -7.54942499   1.36543237
1249.00  -7.56752297   1.36868652
1250.00  -7.58563463   1.37194577
1251.00  -7.60375997   1.37521010
1252.00  -7.62189898   1.37847954
1253.00  -7.64005167   1.38175409
1254.00  -7.65821804   1.38503374
1255.00  -7.67639808   1.38831850
1256.00  -7.69459178   1.39160838
1257.00  -7.71279916   1.39490338
1258.00  -7.73102020   1.39820350
1259.00  -7.74925490   1.40150875
1260.00  -7.76750327   1.40481912
1261.00  -7.78576530   1.40813463
1262.00  -7.80404098   1.41145528
1263.00  -7.82233032   1.41478107
1264.00  -7.84063332   1.41811200
1265.00  -7.85894996   1.42144808
1266.00  -7.87728026   1.42478931
1267.00  -7.89562421   1.42813570
1268.00  -7.91398180   1.43148725
1269.00  -7.93235304   1.43484396
1270.00  -7.95073792   1.43820584
1271.00  -7.96913644   1.44157289
1272.00  -7.98754860   1.44494511
1273.00  -8.00597440   1.44832251
1274.00  -8.02441384   1.45170510
1275.00  -8.04286690   1.45509286
1276.00  -8.06133360   1.45848582
1277.00  -8.07981393   1.46188397
1278.00  -8.09830788   1.46528731
1279.00  -8.11681546   1.46869586
1280.00  -8.13533666   1.47210961
1281.00  -8.15387149   1.47552856
1282.00  -8.17241993   1.47895273
1283.00  -8.19098199   1.48238211
1284.00  -8.20955767   1.48581671
1285.00  -8.22814696   1.48925653
1286.00  -8.24674986   1.49270157
1287.00  -8.26536637   1.49615185
1288.00  -8.28399650   1.49960736
1289.00  -8.30264022   1.50306810
1290.00  -8.32129755   1.50653409
1291.00  -8.33996849   1.51000531
1292.00  -8.35865302   1.51348179
1293.00  -8.37735115   1.51696352
1294.00  -8.39606288   1.52045050
1295.00  -8.41478820   1.52394274
1296.00  -8.43352711   1.52744024
1297.00  -8.45227961   1.53094301
1298.00  -8.47104571   1.53445105
1299.00  -8.48982539   1.53796436
1300.00  -8.50861865   1.54148294
1301.00  -8.52742549   1.54500681
1302.00  -8.54624592   1.54853596
1303.00  -8.56507992   1.55207040
1304.00  -8.58392750   1.55561013
1305.00  -8.60278866   1.55915516
1306.00  -8.62166339   1.56270548
1307.00  -8.64055169   1.56626111
1308.00  -8.65945355   1.56982204
1309.00  -8.67836899   1.57338828
1310.00  -8.69729799   1.57695984
1311.00  -8.71624055   1.58053671
1312.00  -8.73519667   1.58411890
1313.00  -8.75416635   1.58770641
1314.00  -8.77314959   1.59129926
1315.00  -8.79214638   1.59489743
1316.00  -8.81115673   1.59850094
1317.00  -8.83018062   1.60210979
1318.00  -8.84921807   1.60572398
1319.00  -8.86826906   1.60934352
1320.00  -8.88733360   1.61296840
1321.00  -8.90641168   1.61659864
1322.00  -8.92550330   1.62023424
1323.00  -8.94460845   1.62387520
1324.00  -8.96372715   1.62752152
1325.00  -8.98285938   1.63117320
1326.00  -9.00200515   1.63483026
1327.00  -9.02116444   1.63849270
1328.00  -9.04033726   1.64216051
1329.00  -9.05952361   1.64583371
1330.00  -9.07872349   1.64951229
1331.00  -9.09793689   1.65319626
1332.00  -9.11716381   1.65688562
1333.00  -9.13640424   1.66058038
1334.00  -9.15565820   1.66428054
1335.00  -9.17492567   1.66798610
1336.00  -9.19420665   1.67169707
1337.00  -9.21350114   1.67541346
1338.00  -9.23280914   1.67913525
1339.00  -9.25213065   1.68286247
1340.00  -9.27146567   1.68659511
1341.00  -9.29081418   1.69033317
1342.00  -9.31017620   1.69407666
1343.00  -9.32955171   1.69782559
1344.00  -9.34894073   1.70157995
1345.00  -9.36834323   1.70533975
1346.00  -9.38775923   1.70910500
1347.00  -9.40718872   1.71287569
1348.00  -9.42663170   1.71665183
1349.00  -9.44608817   1.72043343
1350.00  -9.46555812   1.72422049
1351.00  -9.48504155   1.72801300
1352.00  -9.50453846   1.73181099
1353.00  -9.52404885   1.73561444
1354.00  -9.54357272   1.73942336
1355.00  -9.56311006   1.74323776
1356.00  -9.58266088   1.74705764
1357.00  -9.60222516   1.75088301
1358.00  -9.62180291   1.75471386
1359.00  -9.64139413   1.75855020
1360.00  -9.66099882   1.76239203
1361.00  -9.68061696   1.76623936
1362.00  -9.70024857   1.77009220
1363.00  -9.71989363   1.77395053
1364.00  -9.73955215   1.77781438
1365.00  -9.75922412   1.78168374
1366.00  -9.77890955   1.78555861
1367.00  -9.79860842   1.78943901
1368.00  -9.81832075   1.79332492
1369.00  -9.83804652   1.79721636
1370.00  -9.85778573   1.80111334
1371.00  -9.87753838   1.80501584
1372.00  -9.89730448   1.80892389
1373.00  -9.91708401   1.81283747
1374.00  -9.93687697   1.81675660
1375.00  -9.95668337   1.82068127
1376.00  -9.97650320   1.82461150
1377.00  -9.99633647   1.82854728
1378.00 -10.01618315   1.83248862
1379.00 -10.03604327   1.83643553
1380.00 -10.05591680   1.84038800
1381.00 -10.07580376   1.84434603
1382.00 -10.09570414   1.84830965
1383.00 -10.11561793   1.85227883
1384.00 -10.13554514   1.85625360
1385.00 -10.15548576   1.86023395
1386.00 -10.17543979   1.86421989
1387.00 -10.19540723   1.86821142
1388.00 -10.21538807   1.87220854
1389.00 -10.23538232   1.87621126
1390.00 -10.25538998   1.88021959
1391.00 -10.27541103   1.88423352
1392.00 -10.29544548   1.88825305
1393.00 -10.31549333   1.89227820
1394.00 -10.33555457   1.89630896
1395.00 -10.35562920   1.90034535
1396.00 -10.37571723   1.90438735
1397.00 -10.39581864   1.90843499
1398.00 -10.41593344   1.91248825
1399.00 -10.43606162   1.91654715
1400.00 -10.45620318   1.92061168
1401.00 -10.47635812   1.92468185
1402.00 -10.49652644   1.92875767
1403.00 -10.51670813   1.93283914
1404.00 -10.53690320   1.93692626
1405.00 -10.55711164   1.94101903
1406.00 -10.57733345   1.94511746
1407.00 -10.59756862   1.94922155
1408.00 -10.61781716   1.95333131
1409.00 -10.63807906   1.95744674
1410.00 -10.65835432   1.96156783
1411.00 -10.67864294   1.96569461
1412.00 -10.69894492   1.96982707
1413.00 -10.71926025   1.97396520
1414.00 -10.73958893   1.97810903
1415.00 -10.75993096   1.98225855
1416.00 -10.78028634   1.98641376
1417.00 -10.80065507   1.99057466
1418.00 -10.82103714   1.99474127
1419.00 -10.84143255   1.99891358
1420.00 -10.86184130   2.00309160
1421.00 -10.88226339   2.00727533
1422.00 -10.90269882   2.01146478
1423.00 -10.92314757   2.01565995
1424.00 -10.94360966   2.01986084
1425.00 -10.96408508   2.02406745
1426.00 -10.98457382   2.02827979
1427.00 -11.00507589   2.03249787
1428.00 -11.02559128   2.03672168
1429.00 -11.04611999   2.04095123
1430.00 -11.06666202   2.04518653
1431.00 -11.08721736   2.04942757
1432.00 -11.10778602   2.05367436
1433.00 -11.12836799   2.05792690
1434.00 -11.14896327   2.06218521
1435.00 -11.16957186   2.06644927
1436.00 -11.19019375   2.07071910
1437.00 -11.21082895   2.07499470
1438.00 -11.23147745   2.07927607
1439.00 -11.25213924   2.08356321
1440.00 -11.27281434   2.08785613
1441.00 -11.29350273   2.09215484
1442.00 -11.31420441   2.09645933
1443.00 -11.33491938   2.10076961
1444.00 -11.35564764   2.10508568
1445.00 -11.37638918   2.10940754
1446.00 -11.39714401   2.11373521
1447.00 -11.41791212   2.11806868
1448.00 -11.43869352   2.12240796
1449.00 -11.45948818   2.12675305
1450.00 -11.48029613   2.13110395
1451.00 -11.50111735   2.13546067
1452.00 -11.52195184   2.13982320
1453.00 -11.54279959   2.14419157
1454.00 -11.56366062   2.14856576
1455.00 -11.58453491   2.15294578
1456.00 -11.60542246   2.15733164
1457.00 -11.62632327   2.16172333
1458.00 -11.64723734   2.16612087
1459.00 -11.66816466   2.17052425
1460.00 -11.68910524   2.17493348
1461.00 -11.71005908   2.17934856
1462.00 -11.73102616   2.18376950
1463.00 -11.75200648   2.18819630
1464.00 -11.77300006   2.19262896
1465.00 -11.79400687   2.19706749
1466.00 -11.81502693   2.20151188
1467.00 -11.83606023   2.20596215
1468.00 -11.85710676   2.21041830
1469.00 -11.87816653   2.21488032
1470.00 -11.89923952   2.21934823
1471.00 -11.92032575   2.22382203
1472.00 -11.94142521   2.22830172
1473.00 -11.96253789   2.23278730
1474.00 -11.98366380   2.23727878
1475.00 -12.00480292   2.24177616
1476.00 -12.02595527   2.24627944
1477.00 -12.04712083   2.25078864
1478.00 -12.06829961   2.25530374
1479.00 -12.08949160   2.25982476
1480.00 -12.11069680   2.26435170
1481.00 -12.13191521   2.26888456
1482.00 -12.15314682   2.27342334
1483.00 -12.17439164   2.27796806
1484.00 -12.19564966   2.28251870
1485.00 -12.21692087   2.28707529
1486.00 -12.23820529   2.29163781
1487.00 -12.25950290   2.29620627
1488.00 -12.28081370   2.30078068
1489.00 -12.30213770   2.30536104
1490.00 -12.32347488   2.30994736
1491.00 -12.34482525   2.31453963
1492.00 -12.36618880   2.31913786
1493.00 -12.38756553   2.32374205
1494.00 -12.40895545   2.32835221
1495.00 -12.43035854   2.33296835
1496.00 -12.45177480   2.33759045
1497.00 -12.47320424   2.34221854
1498.00 -12.49464685   2.34685260
1499.00 -12.51610263   2.35149265
1500.00 -12.53757158   2.35613868
1501.00 -12.55905368   2.36079071
1502.00 -12.58054895   2.36544873
1503.00 -12.60205738   2.37011275
1504.00 -12.62357897   2.37478278
1505.00 -12.64511371   2.37945880
1506.00 -12.66666161   2.38414084
1507.00 -12.68822266   2.38882889
1508.00 -12.70979685   2.39352295
1509.00 -12.73138419   2.39822303
1510.00 -12.75298468   2.40292914
1511.00 -12.77459831   2.40764127
1512.00 -12.79622507   2.41235943
1513.00 -12.81786498   2.41708362
1514.00 -12.83951802   2.42181385
1515.00 -12.86118419   2.42655012
1516.00 -12.88286349   2.43129243
1517.00 -12.90455592   2.43604078
1518.00 -12.92626148   2.44079519
1519.00 -12.94798017   2.44555565
1520.00 -12.96971197   2.45032217
1521.00 -12.99145689   2.45509475
1522.00 -13.01321493   2.45987339
1523.00 -13.03498609   2.46465810
1524.00 -13.05677036   2.46944888
1525.00 -13.07856774   2.47424573
1526.00 -13.10037823   2.47904866
1527.00 -13.12220182   2.48385767
1528.00 -13.14403852   2.48867276
1529.00 -13.16588832   2.49349395
1530.00 -13.18775122   2.49832122
1531.00 -13.20962721   2.50315459
1532.00 -13.23151631   2.50799406
1533.00 -13.25341849   2.51283962
1534.00 -13.27533376   2.51769130
1535.00 -13.29726213   2.52254908
1536.00 -13.31920357   2.52741297
1537.00 -13.34115811   2.53228298
1538.00 -13.36312572   2.53715910
1539.00 -13.38510641   2.54204135
1540.00 -13.40710018   2.54692973
1541.00 -13.42910703   2.55182423
1542.00 -13.45112694   2.55672486
1543.00 -13.47315993   2.56163163
1544.00 -13.49520598   2.56654454
1545.00 -13.51726510   2.57146359
1546.00 -13.53933729   2.57638879
1547.00 -13.56142253   2.58132013
1548.00 -13.58352083   2.58625763
1549.00 -13.60563219   2.59120129
1550.00 -13.62775661   2.59615110
1551.00 -13.64989407   2.60110708
1552.00 -13.67204459   2.60606922
1553.00 -13.69420815   2.61103754
1554.00 -13.71638476   2.61601202
1555.00 -13.73857441   2.62099268
1556.00 -13.76077710   2.62597953
1557.00 -13.78299283   2.63097255
1558.00 -13.80522160   2.63597176
1559.00 -13.82746340   2.64097717
1560.00 -13.84971823   2.64598876
1561.00 -13.87198609   2.65100655
1562.00 -13.89426697   2.65603055
1563.00 -13.91656089   2.66106074
1564.00 -13.93886782   2.66609715
1565.00 -13.96118777   2.67113976
1566.00 -13.98352075   2.67618859
1567.00 -14.00586673   2.68124363
1568.00 -14.02822573   2.68630490
1569.00 -14.05059775   2.69137239
1570.00 -14.07298277   2.69644610
1571.00 -14.09538079   2.70152605
1572.00 -14.11779182   2.70661223
1573.00 -14.14021586   2.71170465
1574.00 -14.16265289   2.71680331
1575.00 -14.18510292   2.72190822
1576.00 -14.20756594   2.72701937
1577.00 -14.23004196   2.73213677
1578.00 -14.25253096   2.73726043
1579.00 -14.27503296   2.74239034
1580.00 -14.29754794   2.74752652
1581.00 -14.32007590   2.75266896
1582.00 -14.34261685   2.75781767
1583.00 -14.36517077   2.76297265
1584.00 -14.38773767   2.76813390
1585.00 -14.41031754   2.77330143
1586.00 -14.43291039   2.77847525
1587.00 -14.45551620   2.78365535
1588.00 -14.47813498   2.78884173
1589.00 -14.50076673   2.79403441
1590.00 -14.52341144   2.79923339
1591.00 -14.54606911   2.80443866
1592.00 -14.56873974   2.80965023
1593.00 -14.59142332   2.81486811
1594.00 -14.61411986   2.82009229
1595.00 -14.63682934   2.82532279
1596.00 -14.65955178   2.83055960
1597.00 -14.68228716   2.83580274
1598.00 -14.70503549   2.84105219
1599.00 -14.72779675   2.84630797
1600.00 -14.75057096   2.85157007
1601.00 -14.77335811   2.85683851
1602.00 -14.79615818   2.86211328
1603.00 -14.81897120   2.86739440
1604.00 -14.84179714   2.87268185
1605.00 -14.86463600   2.87797565
1606.00 -14.88748780   2.88327580
1607.00 -14.91035252   2.88858230
1608.00 -14.93323015   2.89389515
1609.00 -14.95612071   2.89921436
1610.00 -14.97902418   2.90453994
1611.00 -15.00194057   2.90987188
1612.00 -15.02486986   2.91521019
1613.00 -15.04781207   2.92055487
1614.00 -15.07076718   2.92590593
1615.00 -15.09373520   2.93126336
1616.00 -15.11671612   2.93662718
1617.00 -15.13970994   2.94199738
1618.00 -15.16271665   2.94737397
1619.00 -15.18573626   2.95275695
1620.00 -15.20876877   2.95814633
1621.00 -15.23181416   2.96354211
1622.00 -15.25487244   2.96894429
1623.00 -15.27794361   2.97435287
1624.00 -15.30102766   2.97976786
1625.00 -15.32412459   2.98518927
1626.00 -15.34723440   2.99061709
1627.00 -15.37035708   2.99605133
1628.00 -15.39349264   3.00149199
1629.00 -15.41664107   3.00693907
1630.00 -15.43980237   3.01239259
1631.00 -15.46297654   3.01785253
1632.00 -15.48616357   3.02331891
1633.00 -15.50936346   3.02879173
1634.00 -15.53257621   3.03427099
1635.00 -15.55580182   3.03975670
1636.00 -15.57904028   3.04524886
1637.00 -15.60229160   3.05074746
1638.00 -15.62555577   3.05625253
1639.00 -15.64883278   3.06176405
1640.00 -15.67212264   3.06728203
1641.00 -15.69542534   3.07280648
1642.00 -15.71874089   3.07833739
1643.00 -15.74206927   3.08387478
1644.00 -15.76541048   3.08941864
1645.00 -15.78876453   3.09496898
1646.00 -15.81213142   3.10052581
1647.00 -15.83551113   3.10608911
1648.00 -15.85890366   3.11165891
1649.00 -15.88230902   3.11723520
1650.00 -15.90572721   3.12281798
1651.00 -15.92915821   3.12840726
1652.00 -15.95260203   3.13400304
1653.00 -15.97605866   3.13960533
1654.00 -15.99952811   3.14521412
1655.00 -16.02301036   3.15082943
1656.00 -16.04650542   3.15645125
1657.00 -16.07001329   3.16207958
1658.00 -16.09353396   3.16771444
1659.00 -16.11706743   3.17335583
1660.00 -16.14061369   3.17900374
1661.00 -16.16417276   3.18465818
1662.00 -16.18774461   3.19031916
1663.00 -16.21132926   3.19598667
1664.00 -16.23492669   3.20166073
1665.00 -16.25853691   3.20734132
1666.00 -16.28215992   3.21302847
1667.00 -16.30579570   3.21872217
1668.00 -16.32944426   3.22442242
1669.00 -16.35310560   3.23012923
1670.00 -16.37677971   3.23584260
1671.00 -16.40046660   3.24156253
1672.00 -16.42416625   3.24728903
1673.00 -16.44787867   3.25302210
1674.00 -16.47160385   3.25876175
1675.00 -16.49534180   3.26450797
1676.00 -16.51909250   3.27026077
1677.00 -16.54285596   3.27602016
1678.00 -16.56663218   3.28178613
1679.00 -16.59042115   3.28755869
1680.00 -16.61422287   3.29333785
1681.00 -16.63803733   3.29912360
1682.00 -16.66186454   3.30491595
1683.00 -16.68570449   3.31071490
1684.00 -16.70955718   3.31652047
1685.00 -16.73342261   3.32233264
1686.00 -16.75730078   3.32815142
1687.00 -16.78119168   3.33397682
1688.00 -16.80509530   3.33980884
1689.00 -16.82901166   3.34564748
1690.00 -16.85294074   3.35149275
1691.00 -16.87688254   3.35734465
1692.00 -16.90083707   3.36320318
1693.00 -16.92480431   3.36906834
1694.00 -16.94878427   3.37494015
1695.00 -16.97277694   3.38081859
1696.00 -16.99678232   3.38670369
1697.00 -17.02080042   3.39259543
1698.00 -17.04483121   3.39849382
1699.00 -17.06887471   3.40439887
1700.00 -17.09293091   3.41031058
1701.00 -17.11699982   3.41622894
1702.00 -17.14108141   3.42215398
1703.00 -17.16517570   3.42808568
1704.00 -17.18928269   3.43402405
1705.00 -17.21340236   3.43996910
1706.00 -17.23753471   3.44592082
1707.00 -17.26167976   3.45187923
1708.00 -17.28583748   3.45784432
1709.00 -17.31000788   3.46381610
1710.00 -17.33419096   3.46979457
1711.00 -17.35838671   3.47577973
1712.00 -17.38259514   3.48177159
1713.00 -17.40681623   3.48777015
1714.00 -17.43105000   3.49377542
1715.00 -17.45529642   3.49978739
1716.00 -17.47955551   3.50580607
1717.00 -17.50382726   3.51183147
1718.00 -17.52811166   3.51786358
1719.00 -17.55240872   3.52390241
1720.00 -17.57671843   3.52994797
1721.00 -17.60104079   3.53600025
1722.00 -17.62537580   3.54205926
1723.00 -17.64972346   3.54812501
1724.00 -17.67408375   3.55419749
1725.00 -17.69845669   3.56027671
1726.00 -17.72284226   3.56636267
1727.00 -17.74724047   3.57245538
1728.00 -17.77165131   3.57855484
1729.00 -17.79607478   3.58466104
1730.00 -17.82051088   3.59077401
1731.00 -17.84495961   3.59689373
1732.00 -17.86942095   3.60302022
1733.00 -17.89389492   3.60915346
1734.00 -17.91838150   3.61529348
1735.00 -17.94288070   3.62144027
1736.00 -17.96739251   3.62759384
1737.00 -17.99191694   3.63375418
1738.00 -18.01645397   3.63992130
1739.00 -18.04100360   3.64609521
1740.00 -18.06556584   3.65227590
1741.00 -18.09014068   3.65846338
1742.00 -18.11472812   3.66465766
1743.00 -18.13932815   3.67085874
1744.00 -18.16394078   3.67706661
1745.00 -18.18856599   3.68328129
1746.00 -18.21320380   3.68950278
1747.00 -18.23785418   3.69573107
1748.00 -18.26251716   3.70196618
1749.00 -18.28719271   3.70820811
1750.00 -18.31188084   3.71445685
1751.00 -18.33658155   3.72071242
1752.00 -18.36129483   3.72697481
1753.00 -18.38602068   3.73324403
1754.00 -18.41075909   3.73952008
1755.00 -18.43551008   3.74580297
1756.00 -18.46027363   3.75209270
1757.00 -18.48504973   3.75838926
1758.00 -18.50983840   3.76469268
1759.00 -18.53463962   3.77100294
1760.00 -18.55945339   3.77732005
1761.00 -18.58427972   3.78364402
1762.00 -18.60911859   3.78997484
1763.00 -18.63397001   3.79631253
1764.00 -18.65883397   3.80265708
1765.00 -18.68371047   3.80900849
1766.00 -18.70859951   3.81536678
1767.00 -18.73350109   3.82173194
1768.00 -18.75841520   3.82810398
1769.00 -18.78334184   3.83448289
1770.00 -18.80828101   3.84086869
1771.00 -18.83323270   3.84726138
1772.00 -18.85819692   3.85366095
1773.00 -18.88317365   3.86006742
1774.00 -18.90816291   3.86648078
1775.00 -18.93316468   3.87290104
1776.00 -18.95817896   3.87932820
1777.00 -18.98320576   3.88576227
1778.00 -19.00824506   3.89220325
1779.00 -19.03329687   3.89865114
1780.00 -19.05836118   3.90510594
1781.00 -19.08343799   3.91156766
1782.00 -19.10852730   3.91803630
1783.00 -19.13362910   3.92451186
1784.00 -19.15874340   3.93099436
1785.00 -19.18387018   3.93748378
1786.00 -19.20900946   3.94398013
1787.00 -19.23416122   3.95048343
1788.00 -19.25932546   3.95699366
1789.00 -19.28450218   3.96351083
1790.00 -19.30969139   3.97003495
1791.00 -19.33489306   3.97656602
1792.00 -19.36010721   3.98310405
1793.00 -19.38533383   3.98964903
1794.00 -19.41057292   3.99620096
1795.00 -19.43582447   4.00275986
1796.00 -19.46108848   4.00932572
1797.00 -19.48636495   4.01589856
1798.00 -19.51165389   4.02247836
1799.00 -19.53695527   4.02906514
1800.00 -19.56226911   4.03565889
1801.00 -19.58759540   4.04225962
1802.00 -19.61293414   4.04886734
1803.00 -19.63828532   4.05548205
1804.00 -19.66364894   4.06210374
1805.00 -19.68902500   4.06873243
1806.00 -19.71441350   4.07536812
1807.00 -19.73981443   4.08201080
1808.00 -19.76522780   4.08866049
1809.00 -19.79065360   4.09531718
1810.00 -19.81609182   4.10198088
1811.00 -19.84154246   4.10865159
1812.00 -19.86700553   4.11532932
1813.00 -19.89248102   4.12201407
1814.00 -19.91796893   4.12870583
1815.00 -19.94346924   4.13540462
1816.00 -19.96898197   4.14211044
1817.00 -19.99450711   4.14882329
1818.00 -20.02004466   4.15554317
1819.00 -20.04559461   4.16227009
1820.00 -20.07115696   4.16900405
1821.00 -20.09673171   4.17574506
1822.00 -20.12231886   4.18249310
1823.00 -20.14791840   4.18924820
1824.00 -20.17353033   4.19601035
1825.00 -20.19915465   4.20277956
1826.00 -20.22479135   4.20955582
1827.00 -20.25044044   4.21633915
1828.00 -20.27610191   4.22312954
1829.00 -20.30177576   4.22992700
1830.00 -20.32746199   4.23673153
1831.00 -20.35316058   4.24354313
1832.00 -20.37887155   4.25036181
1833.00 -20.40459489   4.25718757
1834.00 -20.43033059   4.26402041
1835.00 -20.45607865   4.27086034
1836.00 -20.48183908   4.27770736
1837.00 -20.50761186   4.28456147
1838.00 -20.53339700   4.29142268
1839.00 -20.55919449   4.29829099
1840.00 -20.58500433   4.30516640
1841.00 -20.61082651   4.31204891
1842.00 -20.63666105   4.31893853
1843.00 -20.66250792   4.32583527
1844.00 -20.68836714   4.33273911
1845.00 -20.71423869   4.33965008
1846.00 -20.74012257   4.34656816
1847.00 -20.76601879   4.35349337
1848.00 -20.79192734   4.36042570
1849.00 -20.81784821   4.36736517
1850.00 -20.84378141   4.37431176
1851.00 -20.86972693   4.38126550
1852.00 -20.89568477   4.38822637
1853.00 -20.92165492   4.39519438
1854.00 -20.94763739   4.40216954
1855.00 -20.97363217   4.40915184
1856.00 -20.99963926   4.41614130
1857.00 -21.02565866   4.42313791
1858.00 -21.05169035   4.43014168
1859.00 -21.07773435   4.43715261
1860.00 -21.10379065   4.44417070
1861.00 -21.12985924   4.45119596
1862.00 -21.15594013   4.45822839
1863.00 -21.18203331   4.46526799
1864.00 -21.20813877   4.47231477
1865.00 -21.23425652   4.47936872
1866.00 -21.26038655   4.48642986
1867.00 -21.28652886   4.49349818
1868.00 -21.31268345   4.50057369
1869.00 -21.33885032   4.50765639
1870.00 -21.36502945   4.51474628
1871.00 -21.39122086   4.52184338
1872.00 -21.41742453   4.52894767
1873.00 -21.44364047   4.53605916
1874.00 -21.46986867   4.54317786
1875.00 -21.49610913   4.55030377
1876.00 -21.52236185   4.55743689
1877.00 -21.54862681   4.56457723
1878.00 -21.57490404   4.57172479
1879.00 -21.60119350   4.57887956
1880.00 -21.62749522   4.58604157
1881.00 -21.65380918   4.59321079
1882.00 -21.68013538   4.60038725
1883.00 -21.70647382   4.60757095
1884.00 -21.73282449   4.61476188
1885.00 -21.75918740   4.62196005
1886.00 -21.78556253   4.62916546
1887.00 -21.81194990   4.63637811
1888.00 -21.83834949   4.64359802
1889.00 -21.86476130   4.65082518
1890.00 -21.89118533   4.65805959
1891.00 -21.91762158   4.66530126
1892.00 -21.94407004   4.67255019
1893.00 -21.97053072   4.67980639
1894.00 -21.99700361   4.68706985
1895.00 -22.02348870   4.69434058
1896.00 -22.04998599   4.70161859
1897.00 -22.07649549   4.70890387
1898.00 -22.10301719   4.71619643
1899.00 -22.12955108   4.72349627
1900.00 -22.15609717   4.73080340
1901.00 -22.18265544   4.73811781
1902.00 -22.20922591   4.74543952
1903.00 -22.23580856   4.75276852
1904.00 -22.26240339   4.76010481
1905.00 -22.28901041   4.76744841
1906.00 -22.31562960   4.77479931
1907.00 -22.34226097   4.78215752
1908.00 -22.36890451   4.78952303
1909.00 -22.39556022   4.79689586
1910.00 -22.42222809   4.80427600
1911.00 -22.44890813   4.81166346
1912.00 -22.47560034   4.81905824
1913.00 -22.50230470   4.82646035
1914.00 -22.52902122   4.83386978
1915.00 -22.55574989   4.84128654
1916.00 -22.58249072   4.84871064
1917.00 -22.60924369   4.85614207
1918.00 -22.63600881   4.86358084
1919.00 -22.66278607   4.87102696
1920.00 -22.68957547   4.87848042
1921.00 -22.71637701   4.88594122
1922.00 -22.74319069   4.89340938
1923.00 -22.77001650   4.90088489
1924.00 -22.79685443   4.90836776
1925.00 -22.82370450   4.91585799
1926.00 -22.85056669   4.92335558
1927.00 -22.87744100   4.93086054
1928.00 -22.90432744   4.93837287
1929.00 -22.93122598   4.94589257
1930.00 -22.95813665   4.95341964
1931.00 -22.98505942   4.96095409
1932.00 -23.01199430   4.96849593
1933.00 -23.03894129   4.97604514
1934.00 -23.06590039   4.98360175
1935.00 -23.09287158   4.99116574
1936.00 -23.11985487   4.99873713
1937.00 -23.14685026   5.00631591
1938.00 -23.17385774   5.01390209
1939.00 -23.20087731   5.02149567
1940.00 -23.22790896   5.02909666
1941.00 -23.25495270   5.03670506
1942.00 -23.28200853   5.04432086
1943.00 -23.30907643   5.05194408
1944.00 -23.33615641   5.05957472
1945.00 -23.36324846   5.06721278
1946.00 -23.39035259   5.07485825
1947.00 -23.41746878   5.08251116
1948.00 -23.44459704   5.09017149
1949.00 -23.47173737   5.09783925
1950.00 -23.49888975   5.10551445
1951.00 -23.52605419   5.11319709
1952.00 -23.55323069   5.12088716
1953.00 -23.58041924   5.12858468
1954.00 -23.60761983   5.13628965
1955.00 -23.63483248   5.14400206
1956.00 -23.66205717   5.15172193
1957.00 -23.68929390   5.15944925
1958.00 -23.71654268   5.16718403
1959.00 -23.74380348   5.17492627
1960.00 -23.77107633   5.18267598
1961.00 -23.79836120   5.19043315
1962.00 -23.82565810   5.19819779
1963.00 -23.85296703   5.20596990
1964.00 -23.88028798   5.21374949
1965.00 -23.90762095   5.22153656
1966.00 -23.93496593   5.22933111
1967.00 -23.96232294   5.23713315
1968.00 -23.98969195   5.24494267
1969.00 -24.01707297   5.25275968
1970.00 -24.04446601   5.26058419
1971.00 -24.07187104   5.26841619
1972.00 -24.09928808   5.27625569
1973.00 -24.12671711   5.28410269
1974.00 -24.15415814   5.29195720
1975.00 -24.18161117   5.29981921
1976.00 -24.20907618   5.30768874
1977.00 -24.23655318   5.31556578
1978.00 -24.26404217   5.32345034
1979.00 -24.29154314   5.33134242
1980.00 -24.31905609   5.33924202
1981.00 -24.34658102   5.34714914
1982.00 -24.37411792   5.35506379
1983.00 -24.40166679   5.36298598
1984.00 -24.42922764   5.37091570
1985.00 -24.45680044   5.37885295
1986.00 -24.48438522   5.38679775
1987.00 -24.51198195   5.39475009
1988.00 -24.53959064   5.40270998
1989.00 -24.56721128   5.41067741
1990.00 -24.59484388   5.41865240
1991.00 -24.62248843   5.42663494
1992.00 -24.65014492   5.43462503
1993.00 -24.67781336   5.44262269
1994.00 -24.70549375   5.45062792
1995.00 -24.73318607   5.45864070
1996.00 -24.76089032   5.46666106
1997.00 -24.78860651   5.47468899
1998.00 -24.81633463   5.48272449
1999.00 -24.84407468   5.49076758
2000.00 -24.87182666   5.49881824
