wavelength(nm)         real         imag
100.00   3.83408117   0.00062991
102.00   3.83141830   0.00066847
104.00   3.82870272   0.00070856
106.00   3.82593443   0.00075023
108.00   3.82311344   0.00079350
110.00   3.82023974   0.00083840
112.00   3.81731334   0.00088496
114.00   3.81433423   0.00093322
116.00   3.81130242   0.00098320
118.00   3.80821790   0.00103493
120.00   3.80508069   0.00108845
122.00   3.80189078   0.00114378
124.00   3.79864818   0.00120095
126.00   3.79535287   0.00126000
128.00   3.79200488   0.00132095
130.00   3.78860419   0.00138383
132.00   3.78515081   0.00144868
134.00   3.78164474   0.00151553
136.00   3.77808598   0.00158440
138.00   3.77447454   0.00165532
140.00   3.77081041   0.00172833
142.00   3.76709360   0.00180346
144.00   3.76332410   0.00188073
146.00   3.75950193   0.00196018
148.00   3.75562708   0.00204183
150.00   3.75169955   0.00212572
152.00   3.74771935   0.00221187
154.00   3.74368647   0.00230033
156.00   3.73960092   0.00239110
158.00   3.73546270   0.00248424
160.00   3.73127182   0.00257976
162.00   3.72702827   0.00267770
164.00   3.72273205   0.00277809
166.00   3.71838317   0.00288095
168.00   3.71398164   0.00298632
170.00   3.70952744   0.00309423
172.00   3.70502059   0.00320471
174.00   3.70046108   0.00331779
176.00   3.69584892   0.00343349
178.00   3.69118411   0.00355186
180.00   3.68646665   0.00367291
182.00   3.68169655   0.00379668
184.00   3.67687380   0.00392320
186.00   3.67199841   0.00405250
188.00   3.66707038   0.00418461
190.00   3.66208971   0.00431955
192.00   3.65705640   0.00445737
194.00   3.65197046   0.00459809
196.00   3.64683189   0.00474173
198.00   3.64164070   0.00488834
200.00   3.63639687   0.00503793
202.00   3.63110042   0.00519055
204.00   3.62575135   0.00534622
206.00   3.62034966   0.00550496
208.00   3.61489535   0.00566682
210.00   3.60938843   0.00583182
212.00   3.60382889   0.00599999
214.00   3.59821674   0.00617136
216.00   3.59255199   0.00634596
218.00   3.58683463   0.00652382
220.00   3.58106467   0.00670498
222.00   3.57524211   0.00688945
224.00   3.56936695   0.00707728
226.00   3.56343919   0.00726849
228.00   3.55745884   0.00746310
230.00   3.55142591   0.00766117
232.00   3.54534038   0.00786270
234.00   3.53920227   0.00806773
236.00   3.53301158   0.00827630
238.00   3.52676831   0.00848843
240.00   3.52047247   0.00870415
242.00   3.51412405   0.00892350
244.00   3.50772306   0.00914649
246.00   3.50126950   0.00937317
248.00   3.49476337   0.00960356
250.00   3.48820469   0.00983769
252.00   3.48159344   0.01007560
254.00   3.47492964   0.01031731
256.00   3.46821328   0.01056285
258.00   3.46144437   0.01081226
260.00   3.45462292   0.01106555
262.00   3.44774892   0.01132277
264.00   3.44082238   0.01158395
266.00   3.43384330   0.01184910
268.00   3.42681168   0.01211827
270.00   3.41972753   0.01239149
272.00   3.41259085   0.01266877
274.00   3.40540165   0.01295016
276.00   3.39815992   0.01323568
278.00   3.39086567   0.01352537
280.00   3.38351891   0.01381925
282.00   3.37611963   0.01411735
284.00   3.36866784   0.01441971
286.00   3.36116354   0.01472634
288.00   3.35360674   0.01503730
290.00   3.34599744   0.01535259
292.00   3.33833564   0.01567226
294.00   3.33062135   0.01599633
296.00   3.32285456   0.01632484
298.00   3.31503529   0.01665781
300.00   3.30716354   0.01699527
302.00   3.29923930   0.01733726
304.00   3.29126259   0.01768380
306.00   3.28323340   0.01803492
308.00   3.27515175   0.01839066
310.00   3.26701763   0.01875103
312.00   3.25883104   0.01911609
314.00   3.25059200   0.01948584
316.00   3.24230050   0.01986033
318.00   3.23395655   0.02023959
320.00   3.22556015   0.02062363
322.00   3.21711131   0.02101250
324.00   3.20861002   0.02140622
326.00   3.20005630   0.02180483
328.00   3.19145014   0.02220834
330.00   3.18279156   0.02261681
332.00   3.17408055   0.02303024
334.00   3.16531711   0.02344868
336.00   3.15650126   0.02387215
338.00   3.14763299   0.02430068
340.00   3.13871232   0.02473430
342.00   3.12973923   0.02517305
344.00   3.12071374   0.02561695
346.00   3.11163586   0.02606603
348.00   3.10250558   0.02652032
350.00   3.09332291   0.02697986
352.00   3.08408785   0.02744467
354.00   3.07480041   0.02791478
356.00   3.06546059   0.02839022
358.00   3.05606839   0.02887103
360.00   3.04662383   0.02935722
362.00   3.03712690   0.02984884
364.00   3.02757760   0.03034591
366.00   3.01797595   0.03084846
368.00   3.00832194   0.03135652
370.00   2.99861559   0.03187012
372.00   2.98885688   0.03238929
374.00   2.97904584   0.03291407
376.00   2.96918246   0.03344447
378.00   2.95926675   0.03398054
380.00   2.94929871   0.03452229
382.00   2.93927834   0.03506977
384.00   2.92920566   0.03562299
386.00   2.91908066   0.03618200
388.00   2.90890335   0.03674681
390.00   2.89867373   0.03731747
392.00   2.88839181   0.03789399
394.00   2.87805760   0.03847641
396.00   2.86767109   0.03906476
398.00   2.85723229   0.03965908
400.00   2.84674121   0.04025937
402.00   2.83619785   0.04086569
404.00   2.82560221   0.04147806
406.00   2.81495431   0.04209650
408.00   2.80425414   0.04272105
410.00   2.79350170   0.04335174
412.00   2.78269702   0.04398860
414.00   2.77184008   0.04463165
416.00   2.76093089   0.04528093
418.00   2.74996947   0.04593647
420.00   2.73895580   0.04659829
422.00   2.72788991   0.04726643
424.00   2.71677178   0.04794091
426.00   2.70560144   0.04862177
428.00   2.69437887   0.04930904
430.00   2.68310410   0.05000274
432.00   2.67177711   0.05070291
434.00   2.66039792   0.05140957
436.00   2.64896654   0.05212275
438.00   2.63748296   0.05284249
440.00   2.62594719   0.05356881
442.00   2.61435925   0.05430175
444.00   2.60271912   0.05504133
446.00   2.59102682   0.05578758
448.00   2.57928235   0.05654054
450.00   2.56748572   0.05730022
452.00   2.55563693   0.05806667
454.00   2.54373599   0.05883991
456.00   2.53178291   0.05961997
458.00   2.51977768   0.06040689
460.00   2.50772031   0.06120068
462.00   2.49561082   0.06200138
464.00   2.48344919   0.06280903
466.00   2.47123545   0.06362364
468.00   2.45896959   0.06444525
470.00   2.44665162   0.06527389
472.00   2.43428155   0.06610959
474.00   2.42185937   0.06695238
476.00   2.40938511   0.06780229
478.00   2.39685875   0.06865934
480.00   2.38428031   0.06952357
482.00   2.37164980   0.07039501
484.00   2.35896721   0.07127368
486.00   2.34623255   0.07215962
488.00   2.33344584   0.07305285
490.00   2.32060706   0.07395341
492.00   2.30771624   0.07486132
494.00   2.29477338   0.07577662
496.00   2.28177847   0.07669933
498.00   2.26873153   0.07762949
500.00   2.25563257   0.07856711
502.00   2.24248158   0.07951224
504.00   2.22927858   0.08046491
506.00   2.21602357   0.08142513
508.00   2.20271655   0.08239294
510.00   2.18935753   0.08336838
512.00   2.17594653   0.08435146
514.00   2.16248353   0.08534223
516.00   2.14896856   0.08634070
518.00   2.13540160   0.08734692
520.00   2.12178268   0.08836090
522.00   2.10811180   0.08938267
524.00   2.09438896   0.09041228
526.00   2.08061417   0.09144974
528.00   2.06678743   0.09249509
530.00   2.05290875   0.09354835
532.00   2.03897814   0.09460956
534.00   2.02499560   0.09567875
536.00   2.01096114   0.09675594
538.00   1.99687477   0.09784116
540.00   1.98273648   0.09893444
542.00   1.96854630   0.10003582
544.00   1.95430421   0.10114532
546.00   1.94001024   0.10226296
548.00   1.92566438   0.10338879
550.00   1.91126665   0.10452284
552.00   1.89681704   0.10566511
554.00   1.88231557   0.10681566
556.00   1.86776223   0.10797451
558.00   1.85315705   0.10914169
560.00   1.83850002   0.11031722
562.00   1.82379114   0.11150114
564.00   1.80903044   0.11269347
566.00   1.79421790   0.11389425
568.00   1.77935355   0.11510350
570.00   1.76443738   0.11632126
572.00   1.74946940   0.11754755
574.00   1.73444963   0.11878241
576.00   1.71937805   0.12002585
578.00   1.70425469   0.12127792
580.00   1.68907955   0.12253864
582.00   1.67385263   0.12380803
584.00   1.65857394   0.12508614
586.00   1.64324349   0.12637299
588.00   1.62786129   0.12766860
590.00   1.61242734   0.12897301
592.00   1.59694164   0.13028625
594.00   1.58140421   0.13160834
596.00   1.56581505   0.13293932
598.00   1.55017417   0.13427921
600.00   1.53448158   0.13562805
602.00   1.51873727   0.13698586
604.00   1.50294127   0.13835267
606.00   1.48709357   0.13972851
608.00   1.47119418   0.14111342
610.00   1.45524311   0.14250741
612.00   1.43924037   0.14391052
614.00   1.42318596   0.14532278
616.00   1.40707990   0.14674422
618.00   1.39092218   0.14817487
620.00   1.37471281   0.14961475
622.00   1.35845180   0.15106389
624.00   1.34213917   0.15252233
626.00   1.32577490   0.15399010
628.00   1.30935902   0.15546721
630.00   1.29289153   0.15695371
632.00   1.27637244   0.15844962
634.00   1.25980175   0.15995497
636.00   1.24317947   0.16146979
638.00   1.22650561   0.16299410
640.00   1.20978018   0.16452795
642.00   1.19300318   0.16607135
644.00   1.17617461   0.16762433
646.00   1.15929450   0.16918694
648.00   1.14236284   0.17075918
650.00   1.12537964   0.17234110
652.00   1.10834491   0.17393272
654.00   1.09125866   0.17553407
656.00   1.07412089   0.17714518
658.00   1.05693161   0.17876609
660.00   1.03969084   0.18039681
662.00   1.02239856   0.18203738
664.00   1.00505481   0.18368782
666.00   0.98765957   0.18534817
668.00   0.97021286   0.18701845
670.00   0.95271469   0.18869870
672.00   0.93516506   0.19038894
674.00   0.91756399   0.19208921
676.00   0.89991147   0.19379952
678.00   0.88220752   0.19551991
680.00   0.86445215   0.19725042
682.00   0.84664536   0.19899106
684.00   0.82878716   0.20074186
686.00   0.81087755   0.20250287
688.00   0.79291655   0.20427409
690.00   0.77490417   0.20605557
692.00   0.75684040   0.20784734
694.00   0.73872527   0.20964941
696.00   0.72055877   0.21146182
698.00   0.70234091   0.21328461
700.00   0.68407171   0.21511779
702.00   0.66575117   0.21696140
704.00   0.64737929   0.21881547
706.00   0.62895610   0.22068002
708.00   0.61048158   0.22255508
710.00   0.59195576   0.22444069
712.00   0.57337864   0.22633687
714.00   0.55475023   0.22824365
716.00   0.53607053   0.23016105
718.00   0.51733956   0.23208912
720.00   0.49855732   0.23402787
722.00   0.47972382   0.23597734
724.00   0.46083907   0.23793756
726.00   0.44190307   0.23990854
728.00   0.42291584   0.24189033
730.00   0.40387739   0.24388296
732.00   0.38478771   0.24588644
734.00   0.36564683   0.24790081
736.00   0.34645474   0.24992609
738.00   0.32721146   0.25196233
740.00   0.30791699   0.25400953
742.00   0.28857135   0.25606775
744.00   0.26917454   0.25813699
746.00   0.24972656   0.26021730
748.00   0.23022744   0.26230869
750.00   0.21067717   0.26441121
752.00   0.19107577   0.26652487
754.00   0.17142324   0.26864971
756.00   0.15171959   0.27078575
758.00   0.13196483   0.27293302
760.00   0.11215897   0.27509156
762.00   0.09230202   0.27726139
764.00   0.07239398   0.27944254
766.00   0.05243487   0.28163504
768.00   0.03242469   0.28383891
770.00   0.01236346   0.28605419
772.00  -0.00774883   0.28828090
774.00  -0.02791216   0.29051908
776.00  -0.04812652   0.29276875
778.00  -0.06839190   0.29502994
780.00  -0.08870830   0.29730267
782.00  -0.10907570   0.29958699
784.00  -0.12949410   0.30188291
786.00  -0.14996349   0.30419046
788.00  -0.17048386   0.30650968
790.00  -0.19105520   0.30884058
792.00  -0.21167750   0.31118321
794.00  -0.23235076   0.31353759
796.00  -0.25307496   0.31590374
798.00  -0.27385009   0.31828170
800.00  -0.29467615   0.32067150
802.00  -0.31555313   0.32307315
804.00  -0.33648102   0.32548670
806.00  -0.35745980   0.32791217
808.00  -0.37848948   0.33034958
810.00  -0.39957003   0.33279898
812.00  -0.42070146   0.33526037
814.00  -0.44188376   0.33773380
816.00  -0.46311690   0.34021930
818.00  -0.48440089   0.34271688
820.00  -0.50573572   0.34522658
822.00  -0.52712137   0.34774843
824.00  -0.54855784   0.35028246
826.00  -0.57004512   0.35282869
828.00  -0.59158319   0.35538715
830.00  -0.61317206   0.35795787
832.00  -0.63481171   0.36054088
834.00  -0.65650212   0.36313621
836.00  -0.67824330   0.36574389
838.00  -0.70003523   0.36836394
840.00  -0.72187791   0.37099639
842.00  -0.74377131   0.37364128
844.00  -0.76571545   0.37629862
846.00  -0.78771029   0.37896845
848.00  -0.80975584   0.38165080
850.00  -0.83185209   0.38434569
852.00  -0.85399902   0.38705316
854.00  -0.87619663   0.38977322
856.00  -0.89844491   0.39250592
858.00  -0.92074384   0.39525127
860.00  -0.94309342   0.39800931
862.00  -0.96549364   0.40078006
864.00  -0.98794449   0.40356356
866.00  -1.01044596   0.40635982
868.00  -1.03299804   0.40916889
870.00  -1.05560072   0.41199078
872.00  -1.07825398   0.41482552
874.00  -1.10095783   0.41767315
876.00  -1.12371225   0.42053369
878.00  -1.14651723   0.42340717
880.00  -1.16937276   0.42629362
882.00  -1.19227883   0.42919306
884.00  -1.21523544   0.43210553
886.00  -1.23824256   0.43503105
888.00  -1.26130020   0.43796965
890.00  -1.28440834   0.44092136
892.00  -1.30756697   0.44388621
894.00  -1.33077608   0.44686422
896.00  -1.35403566   0.44985542
898.00  -1.37734571   0.45285985
900.00  -1.40070621   0.45587752
902.00  -1.42411715   0.45890847
904.00  -1.44757852   0.46195273
906.00  -1.47109031   0.46501031
908.00  -1.49465252   0.46808126
910.00  -1.51826512   0.47116560
912.00  -1.54192812   0.47426336
914.00  -1.56564150   0.47737456
916.00  -1.58940526   0.48049924
918.00  -1.61321937   0.48363741
920.00  -1.63708383   0.48678912
922.00  -1.66099864   0.48995438
924.00  -1.68496377   0.49313323
926.00  -1.70897923   0.49632569
928.00  -1.73304499   0.49953179
930.00  -1.75716106   0.50275156
932.00  -1.78132741   0.50598503
934.00  -1.80554405   0.50923222
936.00  -1.82981095   0.51249316
938.00  -1.85412811   0.51576789
940.00  -1.87849552   0.51905642
942.00  -1.90291316   0.52235879
944.00  -1.92738104   0.52567503
946.00  -1.95189912   0.52900515
948.00  -1.97646742   0.53234920
950.00  -2.00108591   0.53570719
952.00  -2.02575458   0.53907916
954.00  -2.05047343   0.54246513
956.00  -2.07524245   0.54586514
958.00  -2.10006161   0.54927920
960.00  -2.12493092   0.55270735
962.00  -2.14985037   0.55614961
964.00  -2.17481993   0.55960602
966.00  -2.19983960   0.56307659
968.00  -2.22490937   0.56656137
970.00  -2.25002924   0.57006037
972.00  -2.27519918   0.57357362
974.00  -2.30041919   0.57710115
976.00  -2.32568925   0.58064300
978.00  -2.35100937   0.58419917
980.00  -2.37637951   0.58776972
982.00  -2.40179969   0.59135465
984.00  -2.42726987   0.59495400
986.00  -2.45279006   0.59856780
988.00  -2.47836024   0.60219608
990.00  -2.50398040   0.60583885
992.00  -2.52965054   0.60949616
994.00  -2.55537063   0.61316803
996.00  -2.58114067   0.61685448
998.00  -2.60696064   0.62055554
1000.00  -2.63283055   0.62427124
1002.00  -2.65875036   0.62800161
1004.00  -2.68472009   0.63174667
1006.00  -2.71073970   0.63550646
1008.00  -2.73680920   0.63928100
1010.00  -2.76292857   0.64307032
1012.00  -2.78909779   0.64687444
1014.00  -2.81531687   0.65069340
1016.00  -2.84158578   0.65452721
1018.00  -2.86790452   0.65837592
1020.00  -2.89427308   0.66223953
1022.00  -2.92069144   0.66611810
1024.00  -2.94715959   0.67001163
1026.00  -2.97367752   0.67392016
1028.00  -3.00024522   0.67784371
1030.00  -3.02686268   0.68178232
1032.00  -3.05352989   0.68573601
1034.00  -3.08024683   0.68970481
1036.00  -3.10701350   0.69368874
1038.00  -3.13382988   0.69768783
1040.00  -3.16069597   0.70170211
1042.00  -3.18761174   0.70573161
1044.00  -3.21457719   0.70977636
1046.00  -3.24159231   0.71383637
1048.00  -3.26865709   0.71791169
1050.00  -3.29577151   0.72200233
1052.00  -3.32293556   0.72610832
1054.00  -3.35014923   0.73022970
1056.00  -3.37741252   0.73436648
1058.00  -3.40472540   0.73851870
1060.00  -3.43208787   0.74268638
1062.00  -3.45949991   0.74686955
1064.00  -3.48696152   0.75106824
1066.00  -3.51447267   0.75528247
1068.00  -3.54203337   0.75951228
1070.00  -3.56964360   0.76375768
1072.00  -3.59730334   0.76801871
1074.00  -3.62501259   0.77229540
1076.00  -3.65277133   0.77658776
1078.00  -3.68057955   0.78089583
1080.00  -3.70843724   0.78521964
1082.00  -3.73634438   0.78955920
1084.00  -3.76430098   0.79391456
1086.00  -3.79230700   0.79828573
1088.00  -3.82036245   0.80267275
1090.00  -3.84846731   0.80707564
1092.00  -3.87662157   0.81149442
1094.00  -3.90482521   0.81592913
1096.00  -3.93307823   0.82037979
1098.00  -3.96138061   0.82484643
1100.00  -3.98973234   0.82932907
1102.00  -4.01813340   0.83382775
1104.00  -4.04658380   0.83834248
1106.00  -4.07508351   0.84287331
1108.00  -4.10363252   0.84742024
1110.00  -4.13223081   0.85198332
1112.00  -4.16087839   0.85656257
1114.00  -4.18957523   0.86115801
1116.00  -4.21832133   0.86576967
1118.00  -4.24711667   0.87039758
1120.00  -4.27596123   0.87504176
1122.00  -4.30485502   0.87970225
1124.00  -4.33379800   0.88437907
1126.00  -4.36279018   0.88907224
1128.00  -4.39183154   0.89378179
1130.00  -4.42092207   0.89850776
1132.00  -4.45006175   0.90325016
1134.00  -4.47925058   0.90800903
1136.00  -4.50848854   0.91278438
1138.00  -4.53777561   0.91757626
1140.00  -4.56711180   0.92238468
1142.00  -4.59649707   0.92720966
1144.00  -4.62593143   0.93205125
1146.00  -4.65541485   0.93690946
1148.00  -4.68494733   0.94178432
1150.00  -4.71452886   0.94667586
1152.00  -4.74415941   0.95158411
1154.00  -4.77383899   0.95650908
1156.00  -4.80356757   0.96145082
1158.00  -4.83334514   0.96640934
1160.00  -4.86317170   0.97138467
1162.00  -4.89304722   0.97637684
1164.00  -4.92297170   0.98138587
1166.00  -4.95294513   0.98641179
1168.00  -4.98296748   0.99145464
1170.00  -5.01303875   0.99651443
1172.00  -5.04315893   1.00159119
1174.00  -5.07332800   1.00668494
1176.00  -5.10354594   1.01179573
1178.00  -5.13381276   1.01692356
1180.00  -5.16412843   1.02206847
1182.00  -5.19449294   1.02723049
1184.00  -5.22490628   1.03240963
1186.00  -5.25536843   1.03760594
1188.00  -5.28587939   1.04281943
1190.00  -5.31643914   1.04805013
1192.00  -5.34704767   1.05329806
1194.00  -5.37770495   1.05856326
1196.00  -5.40841100   1.06384575
1198.00  -5.43916577   1.06914556
1200.00  -5.46996928   1.07446271
1202.00  -5.50082150   1.07979723
1204.00  -5.53172241   1.08514914
1206.00  -5.56267201   1.09051848
1208.00  -5.59367029   1.09590526
1210.00  -5.62471723   1.10130952
1212.00  -5.65581281   1.10673129
1214.00  -5.68695703   1.11217058
1216.00  -5.71814986   1.11762742
1218.00  -5.74939131   1.12310185
1220.00  -5.78068135   1.12859388
1222.00  -5.81201997   1.13410354
1224.00  -5.84340716   1.13963087
1226.00  -5.87484291   1.14517588
1228.00  -5.90632720   1.15073860
1230.00  -5.93786002   1.15631906
1232.00  -5.96944135   1.16191728
1234.00  -6.00107118   1.16753330
1236.00  -6.03274950   1.17316713
1238.00  -6.06447630   1.17881881
1240.00  -6.09625156   1.18448836
1242.00  -6.12807527   1.19017580
1244.00  -6.15994742   1.19588116
1246.00  -6.19186798   1.20160447
1248.00  -6.22383696   1.20734576
1250.00  -6.25585433   1.21310505
1252.00  -6.28792008   1.21888236
1254.00  -6.32003420   1.22467773
1256.00  -6.35219668   1.23049117
1258.00  -6.38440750   1.23632272
1260.00  -6.41666664   1.24217240
1262.00  -6.44897410   1.24804024
1264.00  -6.48132986   1.25392626
1266.00  -6.51373391   1.25983049
1268.00  -6.54618623   1.26575296
1270.00  -6.57868681   1.27169369
1272.00  -6.61123564   1.27765270
1274.00  -6.64383270   1.28363003
1276.00  -6.67647797   1.28962569
1278.00  -6.70917146   1.29563973
1280.00  -6.74191313   1.30167215
1282.00  -6.77470299   1.30772299
1284.00  -6.80754100   1.31379227
1286.00  -6.84042717   1.31988003
1288.00  -6.87336147   1.32598627
1290.00  -6.90634390   1.33211104
1292.00  -6.93937444   1.33825436
1294.00  -6.97245307   1.34441625
1296.00  -7.00557978   1.35059673
1298.00  -7.03875456   1.35679584
1300.00  -7.07197739   1.36301360
1302.00  -7.10524826   1.36925004
1304.00  -7.13856716   1.37550518
1306.00  -7.17193407   1.38177904
1308.00  -7.20534898   1.38807166
1310.00  -7.23881187   1.39438306
1312.00  -7.27232273   1.40071326
1314.00  -7.30588155   1.40706230
1316.00  -7.33948831   1.41343019
1318.00  -7.37314300   1.41981696
1320.00  -7.40684560   1.42622264
1322.00  -7.44059610   1.43264725
1324.00  -7.47439448   1.43909083
1326.00  -7.50824074   1.44555338
1328.00  -7.54213485   1.45203495
1330.00  -7.57607681   1.45853556
1332.00  -7.61006659   1.46505522
1334.00  -7.64410419   1.47159398
1336.00  -7.67818959   1.47815184
1338.00  -7.71232278   1.48472885
1340.00  -7.74650374   1.49132502
1342.00  -7.78073246   1.49794037
1344.00  -7.81500892   1.50457495
1346.00  -7.84933311   1.51122876
1348.00  -7.88370501   1.51790184
1350.00  -7.91812461   1.52459421
1352.00  -7.95259191   1.53130590
1354.00  -7.98710687   1.53803694
1356.00  -8.02166949   1.54478734
1358.00  -8.05627975   1.55155713
1360.00  -8.09093764   1.55834634
1362.00  -8.12564315   1.56515500
1364.00  -8.16039625   1.57198313
1366.00  -8.19519694   1.57883075
1368.00  -8.23004520   1.58569790
1370.00  -8.26494102   1.59258459
1372.00  -8.29988438   1.59949085
1374.00  -8.33487526   1.60641671
1376.00  -8.36991366   1.61336219
1378.00  -8.40499955   1.62032732
1380.00  -8.44013293   1.62731212
1382.00  -8.47531378   1.63431662
1384.00  -8.51054208   1.64134084
1386.00  -8.54581782   1.64838481
1388.00  -8.58114099   1.65544855
1390.00  -8.61651156   1.66253210
1392.00  -8.65192953   1.66963547
1394.00  -8.68739489   1.67675868
1396.00  -8.72290760   1.68390178
1398.00  -8.75846767   1.69106477
1400.00  -8.79407508   1.69824769
1402.00  -8.82972980   1.70545056
1404.00  -8.86543183   1.71267340
1406.00  -8.90118116   1.71991624
1408.00  -8.93697776   1.72717911
1410.00  -8.97282162   1.73446203
1412.00  -9.00871274   1.74176503
1414.00  -9.04465108   1.74908813
1416.00  -9.08063664   1.75643135
1418.00  -9.11666940   1.76379473
1420.00  -9.15274935   1.77117828
1422.00  -9.18887648   1.77858203
1424.00  -9.22505076   1.78600600
1426.00  -9.26127218   1.79345023
1428.00  -9.29754073   1.80091474
1430.00  -9.33385640   1.80839954
1432.00  -9.37021916   1.81590468
1434.00  -9.40662900   1.82343016
1436.00  -9.44308591   1.83097602
1438.00  -9.47958988   1.83854228
1440.00  -9.51614088   1.84612896
1442.00  -9.55273890   1.85373610
1444.00  -9.58938393   1.86136371
1446.00  -9.62607595   1.86901182
1448.00  -9.66281495   1.87668046
1450.00  -9.69960091   1.88436965
1452.00  -9.73643381   1.89207941
1454.00  -9.77331364   1.89980977
1456.00  -9.81024040   1.90756075
1458.00  -9.84721405   1.91533239
1460.00  -9.88423458   1.92312470
1462.00  -9.92130199   1.93093770
1464.00  -9.95841625   1.93877143
1466.00  -9.99557735   1.94662591
1468.00 -10.03278527   1.95450116
1470.00 -10.07004000   1.96239721
1472.00 -10.10734152   1.97031408
1474.00 -10.14468982   1.97825180
1476.00 -10.18208489   1.98621039
1478.00 -10.21952670   1.99418987
1480.00 -10.25701524   2.00219028
1482.00 -10.29455049   2.01021163
1484.00 -10.33213245   2.01825395
1486.00 -10.36976109   2.02631727
1488.00 -10.40743640   2.03440160
1490.00 -10.44515836   2.04250698
1492.00 -10.48292696   2.05063343
1494.00 -10.52074219   2.05878096
1496.00 -10.55860402   2.06694962
1498.00 -10.59651244   2.07513942
1500.00 -10.63446744   2.08335038
1502.00 -10.67246899   2.09158253
1504.00 -10.71051710   2.09983590
1506.00 -10.74861173   2.10811051
1508.00 -10.78675287   2.11640638
1510.00 -10.82494051   2.12472354
1512.00 -10.86317463   2.13306201
1514.00 -10.90145522   2.14142182
1516.00 -10.93978225   2.14980300
1518.00 -10.97815572   2.15820555
1520.00 -11.01657561   2.16662952
1522.00 -11.05504191   2.17507492
1524.00 -11.09355458   2.18354178
1526.00 -11.13211363   2.19203012
1528.00 -11.17071904   2.20053997
1530.00 -11.20937078   2.20907135
1532.00 -11.24806885   2.21762429
1534.00 -11.28681322   2.22619880
1536.00 -11.32560389   2.23479492
1538.00 -11.36444083   2.24341267
1540.00 -11.40332403   2.25205207
1542.00 -11.44225347   2.26071315
1544.00 -11.48122914   2.26939593
1546.00 -11.52025102   2.27810044
1548.00 -11.55931910   2.28682669
1550.00 -11.59843336   2.29557471
1552.00 -11.63759378   2.30434454
1554.00 -11.67680035   2.31313618
1556.00 -11.71605305   2.32194967
1558.00 -11.75535186   2.33078503
1560.00 -11.79469678   2.33964228
1562.00 -11.83408777   2.34852145
1564.00 -11.87352483   2.35742257
1566.00 -11.91300795   2.36634564
1568.00 -11.95253710   2.37529071
1570.00 -11.99211226   2.38425779
1572.00 -12.03173343   2.39324691
1574.00 -12.07140058   2.40225809
1576.00 -12.11111371   2.41129135
1578.00 -12.15087278   2.42034673
1580.00 -12.19067779   2.42942423
1582.00 -12.23052873   2.43852390
1584.00 -12.27042557   2.44764574
1586.00 -12.31036829   2.45678979
1588.00 -12.35035689   2.46595607
1590.00 -12.39039134   2.47514460
1592.00 -12.43047163   2.48435540
1594.00 -12.47059775   2.49358851
1596.00 -12.51076967   2.50284394
1598.00 -12.55098737   2.51212172
1600.00 -12.59125086   2.52142186
1602.00 -12.63156010   2.53074441
1604.00 -12.67191508   2.54008937
1606.00 -12.71231578   2.54945677
1608.00 -12.75276219   2.55884664
1610.00 -12.79325429   2.56825900
1612.00 -12.83379207   2.57769387
1614.00 -12.87437550   2.58715128
1616.00 -12.91500457   2.59663125
1618.00 -12.95567927   2.60613381
1620.00 -12.99639958   2.61565897
1622.00 -13.03716547   2.62520676
1624.00 -13.07797695   2.63477721
1626.00 -13.11883398   2.64437034
1628.00 -13.15973655   2.65398616
1630.00 -13.20068464   2.66362472
1632.00 -13.24167825   2.67328602
1634.00 -13.28271734   2.68297010
1636.00 -13.32380191   2.69267697
1638.00 -13.36493194   2.70240666
1640.00 -13.40610741   2.71215919
1642.00 -13.44732830   2.72193459
1644.00 -13.48859460   2.73173288
1646.00 -13.52990629   2.74155408
1648.00 -13.57126336   2.75139822
1650.00 -13.61266578   2.76126531
1652.00 -13.65411354   2.77115539
1654.00 -13.69560662   2.78106848
1656.00 -13.73714501   2.79100460
1658.00 -13.77872869   2.80096377
1660.00 -13.82035765   2.81094601
1662.00 -13.86203186   2.82095136
1664.00 -13.90375130   2.83097983
1666.00 -13.94551597   2.84103144
1668.00 -13.98732585   2.85110623
1670.00 -14.02918091   2.86120420
1672.00 -14.07108114   2.87132540
1674.00 -14.11302653   2.88146983
1676.00 -14.15501705   2.89163752
1678.00 -14.19705270   2.90182850
1680.00 -14.23913344   2.91204278
1682.00 -14.28125927   2.92228040
1684.00 -14.32343017   2.93254137
1686.00 -14.36564612   2.94282572
1688.00 -14.40790711   2.95313347
1690.00 -14.45021311   2.96346465
1692.00 -14.49256411   2.97381927
1694.00 -14.53496010   2.98419736
1696.00 -14.57740105   2.99459894
1698.00 -14.61988695   3.00502404
1700.00 -14.66241778   3.01547268
1702.00 -14.70499352   3.02594488
1704.00 -14.74761416   3.03644066
1706.00 -14.79027968   3.04696006
1708.00 -14.83299006   3.05750308
1710.00 -14.87574529   3.06806975
1712.00 -14.91854534   3.07866011
1714.00 -14.96139021   3.08927416
1716.00 -15.00427987   3.09991193
1718.00 -15.04721430   3.11057345
1720.00 -15.09019349   3.12125873
1722.00 -15.13321742   3.13196781
1724.00 -15.17628608   3.14270070
1726.00 -15.21939944   3.15345742
1728.00 -15.26255749   3.16423801
1730.00 -15.30576021   3.17504247
1732.00 -15.34900759   3.18587084
1734.00 -15.39229960   3.19672314
1736.00 -15.43563623   3.20759938
1738.00 -15.47901746   3.21849960
1740.00 -15.52244327   3.22942382
1742.00 -15.56591366   3.24037205
1744.00 -15.60942858   3.25134432
1746.00 -15.65298805   3.26234065
1748.00 -15.69659202   3.27336107
1750.00 -15.74024049   3.28440560
1752.00 -15.78393344   3.29547426
1754.00 -15.82767085   3.30656707
1756.00 -15.87145270   3.31768405
1758.00 -15.91527898   3.32882524
1760.00 -15.95914966   3.33999065
1762.00 -16.00306474   3.35118029
1764.00 -16.04702419   3.36239421
1766.00 -16.09102799   3.37363241
1768.00 -16.13507613   3.38489492
1770.00 -16.17916859   3.39618177
1772.00 -16.22330535   3.40749297
1774.00 -16.26748639   3.41882855
1776.00 -16.31171171   3.43018853
1778.00 -16.35598126   3.44157293
1780.00 -16.40029505   3.45298178
1782.00 -16.44465305   3.46441509
1784.00 -16.48905525   3.47587289
1786.00 -16.53350162   3.48735521
1788.00 -16.57799216   3.49886206
1790.00 -16.62252683   3.51039346
1792.00 -16.66710563   3.52194944
1794.00 -16.71172853   3.53353003
1796.00 -16.75639552   3.54513524
1798.00 -16.80110658   3.55676509
1800.00 -16.84586169   3.56841961
1802.00 -16.89066083   3.58009882
1804.00 -16.93550399   3.59180274
1806.00 -16.98039115   3.60353139
1808.00 -17.02532229   3.61528480
1810.00 -17.07029739   3.62706299
1812.00 -17.11531643   3.63886598
1814.00 -17.16037940   3.65069379
1816.00 -17.20548628   3.66254645
1818.00 -17.25063704   3.67442397
1820.00 -17.29583168   3.68632638
1822.00 -17.34107017   3.69825370
1824.00 -17.38635249   3.71020595
1826.00 -17.43167863   3.72218315
1828.00 -17.47704858   3.73418534
1830.00 -17.52246230   3.74621252
1832.00 -17.56791978   3.75826472
1834.00 -17.61342101   3.77034196
1836.00 -17.65896596   3.78244427
1838.00 -17.70455463   3.79457166
1840.00 -17.75018698   3.80672416
1842.00 -17.79586300   3.81890179
1844.00 -17.84158268   3.83110457
1846.00 -17.88734599   3.84333252
1848.00 -17.93315292   3.85558567
1850.00 -17.97900345   3.86786403
1852.00 -18.02489756   3.88016764
1854.00 -18.07083523   3.89249650
1856.00 -18.11681644   3.90485064
1858.00 -18.16284118   3.91723009
1860.00 -18.20890942   3.92963487
1862.00 -18.25502115   3.94206499
1864.00 -18.30117635   3.95452047
1866.00 -18.34737501   3.96700135
1868.00 -18.39361710   3.97950764
1870.00 -18.43990260   3.99203937
1872.00 -18.48623150   4.00459655
1874.00 -18.53260377   4.01717920
1876.00 -18.57901941   4.02978736
1878.00 -18.62547838   4.04242103
1880.00 -18.67198068   4.05508025
1882.00 -18.71852628   4.06776502
1884.00 -18.76511517   4.08047539
1886.00 -18.81174732   4.09321135
1888.00 -18.85842273   4.10597295
1890.00 -18.90514136   4.11876019
1892.00 -18.95190320   4.13157310
1894.00 -18.99870824   4.14441171
1896.00 -19.04555645   4.15727603
1898.00 -19.09244781   4.17016608
1900.00 -19.13938231   4.18308189
1902.00 -19.18635993   4.19602347
1904.00 -19.23338065   4.20899085
1906.00 -19.28044445   4.22198405
1908.00 -19.32755131   4.23500310
1910.00 -19.37470121   4.24804800
1912.00 -19.42189414   4.26111879
1914.00 -19.46913008   4.27421548
1916.00 -19.51640900   4.28733810
1918.00 -19.56373089   4.30048667
1920.00 -19.61109573   4.31366120
1922.00 -19.65850350   4.32686173
1924.00 -19.70595418   4.34008826
1926.00 -19.75344776   4.35334083
1928.00 -19.80098421   4.36661944
1930.00 -19.84856351   4.37992414
1932.00 -19.89618565   4.39325492
1934.00 -19.94385061   4.40661183
1936.00 -19.99155837   4.41999487
1938.00 -20.03930891   4.43340407
1940.00 -20.08710221   4.44683945
1942.00 -20.13493825   4.46030102
1944.00 -20.18281702   4.47378882
1946.00 -20.23073849   4.48730287
1948.00 -20.27870264   4.50084317
1950.00 -20.32670947   4.51440976
1952.00 -20.37475894   4.52800266
1954.00 -20.42285103   4.54162188
1956.00 -20.47098574   4.55526744
1958.00 -20.51916304   4.56893938
1960.00 -20.56738291   4.58263770
1962.00 -20.61564533   4.59636244
1964.00 -20.66395029   4.61011360
1966.00 -20.71229776   4.62389121
1968.00 -20.76068772   4.63769530
1970.00 -20.80912016   4.65152588
1972.00 -20.85759506   4.66538297
1974.00 -20.90611240   4.67926660
1976.00 -20.95467215   4.69317678
1978.00 -21.00327431   4.70711353
1980.00 -21.05191884   4.72107689
1982.00 -21.10060574   4.73506686
1984.00 -21.14933498   4.74908346
1986.00 -21.19810654   4.76312673
1988.00 -21.24692041   4.77719667
1990.00 -21.29577656   4.79129332
1992.00 -21.34467497   4.80541668
1994.00 -21.39361563   4.81956678
1996.00 -21.44259852   4.83374365
1998.00 -21.49162362   4.84794729
2000.00 -21.54069090   4.86217774
2002.00 -21.58980036   4.87643501
2004.00 -21.63895196   4.89071913
2006.00 -21.68814570   4.90503011
2008.00 -21.73738154   4.91936797
2010.00 -21.78665948   4.93373274
2012.00 -21.83597949   4.94812443
2014.00 -21.88534155   4.96254306
2016.00 -21.93474565   4.97698867
2018.00 -21.98419176   4.99146125
2020.00 -22.03367986   5.00596085
2022.00 -22.08320995   5.02048747
2024.00 -22.13278198   5.03504114
2026.00 -22.18239596   5.04962187
2028.00 -22.23205185   5.06422970
2030.00 -22.28174964   5.07886463
2032.00 -22.33148930   5.09352669
2034.00 -22.38127083   5.10821589
2036.00 -22.43109419   5.12293227
2038.00 -22.48095938   5.13767583
2040.00 -22.53086636   5.15244661
2042.00 -22.58081513   5.16724461
2044.00 -22.63080566   5.18206986
2046.00 -22.68083793   5.19692238
2048.00 -22.73091192   5.21180219
2050.00 -22.78102761   5.22670931
2052.00 -22.83118499   5.24164376
2054.00 -22.88138403   5.25660556
2056.00 -22.93162471   5.27159473
2058.00 -22.98190702   5.28661129
2060.00 -23.03223093   5.30165525
2062.00 -23.08259642   5.31672665
2064.00 -23.13300348   5.33182550
2066.00 -23.18345209   5.34695181
2068.00 -23.23394222   5.36210562
2070.00 -23.28447386   5.37728693
2072.00 -23.33504699   5.39249578
2074.00 -23.38566158   5.40773217
2076.00 -23.43631761   5.42299613
2078.00 -23.48701508   5.43828768
2080.00 -23.53775395   5.45360684
2082.00 -23.58853421   5.46895363
2084.00 -23.63935584   5.48432807
2086.00 -23.69021881   5.49973017
2088.00 -23.74112312   5.51515997
2090.00 -23.79206873   5.53061747
2092.00 -23.84305563   5.54610269
2094.00 -23.89408380   5.56161567
2096.00 -23.94515322   5.57715641
2098.00 -23.99626387   5.59272493
2100.00 -24.04741572   5.60832127
2102.00 -24.09860877   5.62394542
2104.00 -24.14984298   5.63959743
2106.00 -24.20111835   5.65527730
2108.00 -24.25243484   5.67098505
2110.00 -24.30379244   5.68672071
2112.00 -24.35519114   5.70248429
2114.00 -24.40663090   5.71827581
2116.00 -24.45811171   5.73409529
2118.00 -24.50963355   5.74994276
2120.00 -24.56119640   5.76581823
2122.00 -24.61280024   5.78172172
2124.00 -24.66444506   5.79765325
2126.00 -24.71613082   5.81361284
2128.00 -24.76785751   5.82960051
2130.00 -24.81962511   5.84561628
2132.00 -24.87143360   5.86166017
2134.00 -24.92328296   5.87773219
2136.00 -24.97517316   5.89383237
2138.00 -25.02710420   5.90996072
2140.00 -25.07907605   5.92611728
2142.00 -25.13108868   5.94230204
2144.00 -25.18314209   5.95851504
2146.00 -25.23523624   5.97475629
2148.00 -25.28737113   5.99102582
2150.00 -25.33954672   6.00732363
2152.00 -25.39176300   6.02364976
2154.00 -25.44401994   6.04000422
2156.00 -25.49631754   6.05638702
2158.00 -25.54865576   6.07279820
2160.00 -25.60103459   6.08923776
2162.00 -25.65345401   6.10570573
2164.00 -25.70591400   6.12220212
2166.00 -25.75841453   6.13872696
2168.00 -25.81095559   6.15528026
2170.00 -25.86353715   6.17186204
2172.00 -25.91615920   6.18847233
2174.00 -25.96882172   6.20511114
2176.00 -26.02152468   6.22177848
2178.00 -26.07426807   6.23847439
2180.00 -26.12705186   6.25519887
2182.00 -26.17987604   6.27195195
2184.00 -26.23274058   6.28873364
2186.00 -26.28564547   6.30554397
2188.00 -26.33859068   6.32238295
2190.00 -26.39157619   6.33925060
2192.00 -26.44460198   6.35614695
2194.00 -26.49766804   6.37307200
2196.00 -26.55077434   6.39002578
2198.00 -26.60392086   6.40700831
2200.00 -26.65710758   6.42401961
2202.00 -26.71033448   6.44105969
2204.00 -26.76360155   6.45812857
2206.00 -26.81690875   6.47522628
2208.00 -26.87025607   6.49235282
2210.00 -26.92364349   6.50950823
2212.00 -26.97707099   6.52669251
2214.00 -27.03053854   6.54390570
2216.00 -27.08404614   6.56114779
2218.00 -27.13759375   6.57841882
2220.00 -27.19118135   6.59571881
2222.00 -27.24480893   6.61304776
2224.00 -27.29847647   6.63040571
2226.00 -27.35218394   6.64779266
2228.00 -27.40593133   6.66520864
2230.00 -27.45971861   6.68265366
2232.00 -27.51354576   6.70012775
2234.00 -27.56741276   6.71763092
2236.00 -27.62131960   6.73516320
2238.00 -27.67526625   6.75272459
2240.00 -27.72925268   6.77031512
2242.00 -27.78327889   6.78793480
2244.00 -27.83734484   6.80558366
2246.00 -27.89145053   6.82326171
2248.00 -27.94559592   6.84096898
2250.00 -27.99978100   6.85870547
2252.00 -28.05400574   6.87647121
2254.00 -28.10827013   6.89426621
2256.00 -28.16257415   6.91209050
2258.00 -28.21691777   6.92994410
2260.00 -28.27130097   6.94782701
2262.00 -28.32572373   6.96573926
2264.00 -28.38018604   6.98368087
2266.00 -28.43468787   7.00165185
2268.00 -28.48922920   7.01965223
2270.00 -28.54381001   7.03768202
2272.00 -28.59843027   7.05574124
2274.00 -28.65308998   7.07382991
2276.00 -28.70778910   7.09194804
2278.00 -28.76252762   7.11009566
2280.00 -28.81730551   7.12827277
2282.00 -28.87212276   7.14647941
2284.00 -28.92697934   7.16471559
2286.00 -28.98187524   7.18298132
2288.00 -29.03681043   7.20127663
2290.00 -29.09178489   7.21960153
2292.00 -29.14679859   7.23795603
2294.00 -29.20185153   7.25634017
2296.00 -29.25694368   7.27475395
2298.00 -29.31207501   7.29319740
2300.00 -29.36724551   7.31167052
2302.00 -29.42245516   7.33017335
2304.00 -29.47770393   7.34870589
2306.00 -29.53299180   7.36726817
2308.00 -29.58831876   7.38586020
2310.00 -29.64368478   7.40448200
2312.00 -29.69908984   7.42313359
2314.00 -29.75453392   7.44181499
2316.00 -29.81001700   7.46052621
2318.00 -29.86553905   7.47926727
2320.00 -29.92110007   7.49803819
2322.00 -29.97670001   7.51683899
2324.00 -30.03233888   7.53566968
2326.00 -30.08801663   7.55453028
2328.00 -30.14373326   7.57342081
2330.00 -30.19948874   7.59234129
2332.00 -30.25528305   7.61129174
2334.00 -30.31111617   7.63027217
2336.00 -30.36698808   7.64928259
2338.00 -30.42289876   7.66832304
2340.00 -30.47884818   7.68739352
2342.00 -30.53483632   7.70649405
2344.00 -30.59086317   7.72562465
2346.00 -30.64692870   7.74478534
2348.00 -30.70303289   7.76397614
2350.00 -30.75917573   7.78319706
2352.00 -30.81535718   7.80244811
2354.00 -30.87157723   7.82172933
2356.00 -30.92783585   7.84104071
2358.00 -30.98413304   7.86038229
2360.00 -31.04046875   7.87975408
2362.00 -31.09684298   7.89915610
2364.00 -31.15325570   7.91858835
2366.00 -31.20970689   7.93805087
2368.00 -31.26619653   7.95754367
2370.00 -31.32272460   7.97706676
2372.00 -31.37929107   7.99662017
2374.00 -31.43589593   8.01620390
2376.00 -31.49253915   8.03581799
2378.00 -31.54922072   8.05546243
2380.00 -31.60594061   8.07513726
2382.00 -31.66269879   8.09484249
2384.00 -31.71949526   8.11457813
2386.00 -31.77632999   8.13434420
2388.00 -31.83320295   8.15414072
2390.00 -31.89011412   8.17396771
2392.00 -31.94706349   8.19382519
2394.00 -32.00405103   8.21371316
2396.00 -32.06107672   8.23363165
2398.00 -32.11814054   8.25358068
2400.00 -32.17524247   8.27356026
2402.00 -32.23238248   8.29357040
2404.00 -32.28956056   8.31361114
2406.00 -32.34677669   8.33368247
2408.00 -32.40403083   8.35378442
2410.00 -32.46132298   8.37391701
2412.00 -32.51865310   8.39408026
2414.00 -32.57602119   8.41427417
2416.00 -32.63342721   8.43449877
2418.00 -32.69087114   8.45475407
2420.00 -32.74835297   8.47504009
2422.00 -32.80587267   8.49535685
2424.00 -32.86343022   8.51570437
2426.00 -32.92102560   8.53608265
2428.00 -32.97865879   8.55649172
2430.00 -33.03632976   8.57693159
2432.00 -33.09403850   8.59740229
2434.00 -33.15178498   8.61790382
2436.00 -33.20956918   8.63843620
2438.00 -33.26739108   8.65899946
2440.00 -33.32525066   8.67959360
2442.00 -33.38314790   8.70021865
2444.00 -33.44108277   8.72087461
2446.00 -33.49905525   8.74156151
2448.00 -33.55706533   8.76227937
2450.00 -33.61511298   8.78302819
2452.00 -33.67319817   8.80380800
2454.00 -33.73132089   8.82461882
2456.00 -33.78948112   8.84546065
2458.00 -33.84767883   8.86633352
2460.00 -33.90591400   8.88723743
2462.00 -33.96418662   8.90817242
2464.00 -34.02249665   8.92913849
2466.00 -34.08084408   8.95013566
2468.00 -34.13922888   8.97116395
2470.00 -34.19765104   8.99222337
2472.00 -34.25611053   9.01331395
2474.00 -34.31460733   9.03443568
2476.00 -34.37314142   9.05558860
2478.00 -34.43171278   9.07677272
2480.00 -34.49032138   9.09798806
2482.00 -34.54896720   9.11923462
2484.00 -34.60765023   9.14051243
2486.00 -34.66637043   9.16182151
2488.00 -34.72512780   9.18316186
2490.00 -34.78392230   9.20453351
2492.00 -34.84275391   9.22593647
2494.00 -34.90162262   9.24737076
2496.00 -34.96052840   9.26883639
2498.00 -35.01947122   9.29033338
2500.00 -35.07845108   9.31186175
2502.00 -35.13746794   9.33342151
2504.00 -35.19652178   9.35501268
2506.00 -35.25561259   9.37663527
2508.00 -35.31474034   9.39828930
2510.00 -35.37390500   9.41997479
2512.00 -35.43310656   9.44169175
2514.00 -35.49234499   9.46344020
2516.00 -35.55162028   9.48522015
2518.00 -35.61093240   9.50703161
2520.00 -35.67028133   9.52887462
2522.00 -35.72966704   9.55074917
2524.00 -35.78908952   9.57265530
2526.00 -35.84854874   9.59459300
2528.00 -35.90804468   9.61656230
2530.00 -35.96757733   9.63856322
2532.00 -36.02714665   9.66059577
2534.00 -36.08675262   9.68265996
2536.00 -36.14639523   9.70475581
2538.00 -36.20607445   9.72688334
2540.00 -36.26579026   9.74904256
2542.00 -36.32554264   9.77123350
2544.00 -36.38533156   9.79345615
2546.00 -36.44515700   9.81571054
2548.00 -36.50501895   9.83799669
2550.00 -36.56491738   9.86031461
2552.00 -36.62485226   9.88266432
2554.00 -36.68482358   9.90504583
2556.00 -36.74483132   9.92745915
2558.00 -36.80487544   9.94990431
2560.00 -36.86495594   9.97238132
2562.00 -36.92507278   9.99489019
2564.00 -36.98522595  10.01743093
2566.00 -37.04541542  10.04000358
2568.00 -37.10564117  10.06260813
2570.00 -37.16590318  10.08524461
2572.00 -37.22620143  10.10791303
2574.00 -37.28653590  10.13061340
2576.00 -37.34690655  10.15334575
2578.00 -37.40731338  10.17611008
2580.00 -37.46775636  10.19890641
2582.00 -37.52823546  10.22173477
2584.00 -37.58875067  10.24459515
2586.00 -37.64930195  10.26748758
2588.00 -37.70988930  10.29041208
2590.00 -37.77051269  10.31336865
2592.00 -37.83117210  10.33635731
2594.00 -37.89186749  10.35937809
2596.00 -37.95259886  10.38243098
2598.00 -38.01336618  10.40551602
2600.00 -38.07416943  10.42863321
2602.00 -38.13500858  10.45178257
2604.00 -38.19588361  10.47496411
2606.00 -38.25679451  10.49817785
2608.00 -38.31774124  10.52142381
2610.00 -38.37872379  10.54470199
2612.00 -38.43974213  10.56801242
2614.00 -38.50079624  10.59135511
2616.00 -38.56188611  10.61473007
2618.00 -38.62301170  10.63813732
2620.00 -38.68417300  10.66157687
2622.00 -38.74536998  10.68504874
2624.00 -38.80660262  10.70855295
2626.00 -38.86787089  10.73208950
2628.00 -38.92917479  10.75565842
2630.00 -38.99051428  10.77925972
2632.00 -39.05188934  10.80289340
2634.00 -39.11329995  10.82655950
2636.00 -39.17474608  10.85025802
2638.00 -39.23622772  10.87398897
2640.00 -39.29774484  10.89775238
2642.00 -39.35929743  10.92154825
2644.00 -39.42088545  10.94537661
2646.00 -39.48250888  10.96923746
2648.00 -39.54416771  10.99313082
2650.00 -39.60586191  11.01705670
2652.00 -39.66759145  11.04101513
2654.00 -39.72935633  11.06500611
2656.00 -39.79115650  11.08902966
2658.00 -39.85299196  11.11308579
2660.00 -39.91486268  11.13717452
2662.00 -39.97676863  11.16129587
2664.00 -40.03870979  11.18544984
2666.00 -40.10068615  11.20963645
2668.00 -40.16269768  11.23385572
2670.00 -40.22474435  11.25810766
2672.00 -40.28682615  11.28239228
2674.00 -40.34894305  11.30670961
2676.00 -40.41109503  11.33105964
2678.00 -40.47328207  11.35544241
2680.00 -40.53550414  11.37985791
2682.00 -40.59776122  11.40430618
2684.00 -40.66005330  11.42878721
2686.00 -40.72238034  11.45330103
2688.00 -40.78474232  11.47784765
2690.00 -40.84713923  11.50242709
2692.00 -40.90957104  11.52703935
2694.00 -40.97203772  11.55168446
2696.00 -41.03453926  11.57636242
2698.00 -41.09707563  11.60107325
2700.00 -41.15964681  11.62581697
2702.00 -41.22225278  11.65059358
2704.00 -41.28489352  11.67540311
2706.00 -41.34756899  11.70024557
2708.00 -41.41027919  11.72512097
2710.00 -41.47302408  11.75002932
2712.00 -41.53580365  11.77497065
2714.00 -41.59861787  11.79994495
2716.00 -41.66146672  11.82495226
2718.00 -41.72435018  11.84999257
2720.00 -41.78726822  11.87506591
2722.00 -41.85022082  11.90017230
2724.00 -41.91320797  11.92531173
2726.00 -41.97622963  11.95048423
2728.00 -42.03928578  11.97568982
2730.00 -42.10237641  12.00092849
2732.00 -42.16550148  12.02620028
2734.00 -42.22866098  12.05150519
2736.00 -42.29185489  12.07684324
2738.00 -42.35508318  12.10221444
2740.00 -42.41834582  12.12761880
2742.00 -42.48164280  12.15305634
2744.00 -42.54497410  12.17852707
2746.00 -42.60833968  12.20403101
2748.00 -42.67173953  12.22956817
2750.00 -42.73517363  12.25513856
2752.00 -42.79864195  12.28074219
2754.00 -42.86214448  12.30637909
2756.00 -42.92568117  12.33204926
2758.00 -42.98925203  12.35775272
2760.00 -43.05285701  12.38348948
2762.00 -43.11649611  12.40925955
2764.00 -43.18016929  12.43506296
2766.00 -43.24387654  12.46089970
2768.00 -43.30761782  12.48676980
2770.00 -43.37139313  12.51267327
2772.00 -43.43520243  12.53861012
2774.00 -43.49904571  12.56458037
2776.00 -43.56292293  12.59058403
2778.00 -43.62683409  12.61662110
2780.00 -43.69077915  12.64269162
2782.00 -43.75475809  12.66879559
2784.00 -43.81877089  12.69493301
2786.00 -43.88281753  12.72110392
2788.00 -43.94689798  12.74730831
2790.00 -44.01101222  12.77354621
2792.00 -44.07516024  12.79981762
2794.00 -44.13934199  12.82612257
2796.00 -44.20355747  12.85246105
2798.00 -44.26780666  12.87883309
2800.00 -44.33208951  12.90523871
2802.00 -44.39640603  12.93167790
2804.00 -44.46075617  12.95815069
2806.00 -44.52513993  12.98465709
2808.00 -44.58955727  13.01119711
2810.00 -44.65400817  13.03777076
2812.00 -44.71849262  13.06437807
2814.00 -44.78301058  13.09101903
2816.00 -44.84756204  13.11769367
2818.00 -44.91214697  13.14440200
2820.00 -44.97676535  13.17114403
2822.00 -45.04141716  13.19791977
2824.00 -45.10610237  13.22472924
2826.00 -45.17082096  13.25157245
2828.00 -45.23557291  13.27844941
2830.00 -45.30035820  13.30536013
2832.00 -45.36517679  13.33230464
2834.00 -45.43002868  13.35928293
2836.00 -45.49491384  13.38629503
2838.00 -45.55983223  13.41334095
2840.00 -45.62478385  13.44042069
2842.00 -45.68976867  13.46753428
2844.00 -45.75478666  13.49468173
2846.00 -45.81983780  13.52186304
2848.00 -45.88492208  13.54907824
2850.00 -45.95003946  13.57632732
2852.00 -46.01518992  13.60361032
2854.00 -46.08037344  13.63092723
2856.00 -46.14559001  13.65827808
2858.00 -46.21083958  13.68566287
2860.00 -46.27612215  13.71308162
2862.00 -46.34143769  13.74053434
2864.00 -46.40678617  13.76802104
2866.00 -46.47216758  13.79554173
2868.00 -46.53758188  13.82309644
2870.00 -46.60302907  13.85068516
2872.00 -46.66850911  13.87830792
2874.00 -46.73402198  13.90596472
2876.00 -46.79956765  13.93365559
2878.00 -46.86514612  13.96138052
2880.00 -46.93075734  13.98913953
2882.00 -46.99640131  14.01693264
2884.00 -47.06207799  14.04475986
2886.00 -47.12778736  14.07262120
2888.00 -47.19352941  14.10051667
2890.00 -47.25930410  14.12844629
2892.00 -47.32511142  14.15641006
2894.00 -47.39095134  14.18440801
2896.00 -47.45682384  14.21244013
2898.00 -47.52272889  14.24050645
2900.00 -47.58866648  14.26860698
2902.00 -47.65463657  14.29674173
2904.00 -47.72063915  14.32491070
2906.00 -47.78667420  14.35311392
2908.00 -47.85274168  14.38135140
2910.00 -47.91884159  14.40962315
2912.00 -47.98497388  14.43792917
2914.00 -48.05113855  14.46626949
2916.00 -48.11733557  14.49464411
2918.00 -48.18356491  14.52305305
2920.00 -48.24982655  14.55149631
2922.00 -48.31612048  14.57997392
2924.00 -48.38244666  14.60848588
2926.00 -48.44880507  14.63703220
2928.00 -48.51519569  14.66561291
2930.00 -48.58161850  14.69422800
2932.00 -48.64807347  14.72287749
2934.00 -48.71456058  14.75156139
2936.00 -48.78107982  14.78027972
2938.00 -48.84763114  14.80903249
2940.00 -48.91421454  14.83781970
2942.00 -48.98082998  14.86664137
2944.00 -49.04747745  14.89549752
2946.00 -49.11415693  14.92438815
2948.00 -49.18086838  14.95331328
2950.00 -49.24761178  14.98227291
2952.00 -49.31438713  15.01126707
2954.00 -49.38119437  15.04029576
2956.00 -49.44803351  15.06935899
2958.00 -49.51490451  15.09845677
2960.00 -49.58180735  15.12758912
2962.00 -49.64874201  15.15675605
2964.00 -49.71570846  15.18595757
2966.00 -49.78270668  15.21519369
2968.00 -49.84973665  15.24446443
2970.00 -49.91679835  15.27376979
2972.00 -49.98389174  15.30310978
2974.00 -50.05101682  15.33248443
2976.00 -50.11817355  15.36189373
2978.00 -50.18536191  15.39133771
2980.00 -50.25258188  15.42081637
2982.00 -50.31983343  15.45032972
2984.00 -50.38711655  15.47987778
2986.00 -50.45443121  15.50946056
2988.00 -50.52177738  15.53907806
2990.00 -50.58915505  15.56873031
2992.00 -50.65656419  15.59841731
2994.00 -50.72400477  15.62813907
2996.00 -50.79147678  15.65789560
2998.00 -50.85898018  15.68768693
3000.00 -50.92651496  15.71751304
3002.00 -50.99408110  15.74737397
3004.00 -51.06167857  15.77726972
3006.00 -51.12930734  15.80720030
3008.00 -51.19696740  15.83716572
3010.00 -51.26465872  15.86716600
3012.00 -51.33238128  15.89720114
3014.00 -51.40013505  15.92727115
3016.00 -51.46792002  15.95737606
3018.00 -51.53573615  15.98751586
3020.00 -51.60358343  16.01769057
3022.00 -51.67146182  16.04790021
3024.00 -51.73937132  16.07814477
3026.00 -51.80731189  16.10842428
3028.00 -51.87528351  16.13873874
3030.00 -51.94328617  16.16908817
3032.00 -52.01131982  16.19947258
3034.00 -52.07938446  16.22989197
3036.00 -52.14748006  16.26034636
3038.00 -52.21560659  16.29083576
3040.00 -52.28376404  16.32136018
3042.00 -52.35195237  16.35191963
3044.00 -52.42017157  16.38251413
3046.00 -52.48842162  16.41314367
3048.00 -52.55670248  16.44380828
3050.00 -52.62501414  16.47450797
3052.00 -52.69335657  16.50524274
3054.00 -52.76172975  16.53601261
3056.00 -52.83013365  16.56681759
3058.00 -52.89856826  16.59765769
3060.00 -52.96703355  16.62853291
3062.00 -53.03552950  16.65944328
3064.00 -53.10405608  16.69038879
3066.00 -53.17261326  16.72136947
3068.00 -53.24120104  16.75238532
3070.00 -53.30981937  16.78343635
3072.00 -53.37846825  16.81452258
3074.00 -53.44714764  16.84564401
3076.00 -53.51585753  16.87680065
3078.00 -53.58459788  16.90799252
3080.00 -53.65336869  16.93921963
3082.00 -53.72216991  16.97048198
3084.00 -53.79100154  17.00177959
3086.00 -53.85986354  17.03311247
3088.00 -53.92875589  17.06448063
3090.00 -53.99767858  17.09588407
3092.00 -54.06663157  17.12732282
3094.00 -54.13561484  17.15879687
3096.00 -54.20462838  17.19030625
3098.00 -54.27367215  17.22185095
3100.00 -54.34274613  17.25343100
3102.00 -54.41185031  17.28504640
3104.00 -54.48098465  17.31669716
3106.00 -54.55014913  17.34838329
3108.00 -54.61934373  17.38010481
3110.00 -54.68856843  17.41186171
3112.00 -54.75782320  17.44365403
3114.00 -54.82710802  17.47548175
3116.00 -54.89642287  17.50734490
3118.00 -54.96576772  17.53924348
3120.00 -55.03514255  17.57117751
3122.00 -55.10454734  17.60314699
3124.00 -55.17398206  17.63515194
3126.00 -55.24344669  17.66719236
3128.00 -55.31294120  17.69926827
3130.00 -55.38246558  17.73137967
3132.00 -55.45201980  17.76352658
3134.00 -55.52160383  17.79570900
3136.00 -55.59121766  17.82792695
3138.00 -55.66086125  17.86018044
3140.00 -55.73053459  17.89246947
3142.00 -55.80023765  17.92479405
3144.00 -55.86997042  17.95715420
3146.00 -55.93973285  17.98954993
3148.00 -56.00952494  18.02198124
3150.00 -56.07934666  18.05444815
3152.00 -56.14919798  18.08695067
3154.00 -56.21907889  18.11948880
3156.00 -56.28898935  18.15206255
3158.00 -56.35892935  18.18467194
3160.00 -56.42889886  18.21731698
3162.00 -56.49889786  18.24999767
3164.00 -56.56892633  18.28271402
3166.00 -56.63898423  18.31546605
3168.00 -56.70907156  18.34825377
3170.00 -56.77918828  18.38107718
3172.00 -56.84933437  18.41393629
3174.00 -56.91950980  18.44683111
3176.00 -56.98971456  18.47976166
3178.00 -57.05994863  18.51272795
3180.00 -57.13021197  18.54572997
3182.00 -57.20050456  18.57876775
3184.00 -57.27082639  18.61184129
3186.00 -57.34117742  18.64495060
3188.00 -57.41155764  18.67809570
3190.00 -57.48196701  18.71127658
3192.00 -57.55240553  18.74449327
3194.00 -57.62287315  18.77774576
3196.00 -57.69336987  18.81103408
3198.00 -57.76389565  18.84435822
3200.00 -57.83445048  18.87771820
3202.00 -57.90503433  18.91111403
3204.00 -57.97564717  18.94454572
3206.00 -58.04628898  18.97801327
3208.00 -58.11695975  19.01151670
3210.00 -58.18765944  19.04505602
3212.00 -58.25838803  19.07863123
3214.00 -58.32914550  19.11224235
3216.00 -58.39993183  19.14588938
3218.00 -58.47074699  19.17957233
3220.00 -58.54159096  19.21329122
3222.00 -58.61246371  19.24704605
3224.00 -58.68336523  19.28083683
3226.00 -58.75429548  19.31466357
3228.00 -58.82525445  19.34852628
3230.00 -58.89624211  19.38242496
3232.00 -58.96725843  19.41635964
3234.00 -59.03830340  19.45033031
3236.00 -59.10937700  19.48433699
3238.00 -59.18047919  19.51837969
3240.00 -59.25160995  19.55245841
3242.00 -59.32276926  19.58657316
3244.00 -59.39395710  19.62072396
3246.00 -59.46517345  19.65491080
3248.00 -59.53641827  19.68913371
3250.00 -59.60769155  19.72339269
3252.00 -59.67899326  19.75768775
3254.00 -59.75032339  19.79201890
3256.00 -59.82168190  19.82638614
3258.00 -59.89306877  19.86078949
3260.00 -59.96448398  19.89522895
3262.00 -60.03592751  19.92970454
3264.00 -60.10739932  19.96421626
3266.00 -60.17889941  19.99876412
3268.00 -60.25042774  20.03334814
3270.00 -60.32198430  20.06796831
3272.00 -60.39356905  20.10262465
3274.00 -60.46518197  20.13731717
3276.00 -60.53682305  20.17204587
3278.00 -60.60849226  20.20681077
3280.00 -60.68018957  20.24161187
3282.00 -60.75191496  20.27644918
3284.00 -60.82366840  20.31132272
3286.00 -60.89544988  20.34623248
3288.00 -60.96725937  20.38117848
3290.00 -61.03909685  20.41616073
3292.00 -61.11096229  20.45117923
3294.00 -61.18285567  20.48623400
3296.00 -61.25477697  20.52132504
3298.00 -61.32672616  20.55645237
3300.00 -61.39870321  20.59161598
3302.00 -61.47070812  20.62681589
3304.00 -61.54274084  20.66205211
3306.00 -61.61480137  20.69732464
3308.00 -61.68688967  20.73263350
3310.00 -61.75900572  20.76797869
3312.00 -61.83114950  20.80336022
3314.00 -61.90332098  20.83877810
3316.00 -61.97552014  20.87423234
3318.00 -62.04774697  20.90972295
3320.00 -62.12000142  20.94524993
3322.00 -62.19228349  20.98081329
3324.00 -62.26459314  21.01641304
3326.00 -62.33693036  21.05204920
3328.00 -62.40929511  21.08772176
3330.00 -62.48168739  21.12343074
3332.00 -62.55410715  21.15917614
3334.00 -62.62655439  21.19495798
3336.00 -62.69902907  21.23077626
3338.00 -62.77153117  21.26663099
3340.00 -62.84406067  21.30252217
3342.00 -62.91661755  21.33844982
3344.00 -62.98920178  21.37441395
3346.00 -63.06181333  21.41041456
3348.00 -63.13445220  21.44645165
3350.00 -63.20711834  21.48252525
3352.00 -63.27981174  21.51863535
3354.00 -63.35253237  21.55478197
3356.00 -63.42528022  21.59096511
3358.00 -63.49805525  21.62718479
3360.00 -63.57085745  21.66344100
3362.00 -63.64368678  21.69973375
3364.00 -63.71654324  21.73606307
3366.00 -63.78942678  21.77242894
3368.00 -63.86233740  21.80883139
3370.00 -63.93527506  21.84527041
3372.00 -64.00823974  21.88174602
3374.00 -64.08123142  21.91825823
3376.00 -64.15425008  21.95480704
3378.00 -64.22729569  21.99139246
3380.00 -64.30036823  22.02801450
3382.00 -64.37346767  22.06467316
3384.00 -64.44659399  22.10136846
3386.00 -64.51974718  22.13810040
3388.00 -64.59292719  22.17486898
3390.00 -64.66613402  22.21167423
3392.00 -64.73936763  22.24851614
3394.00 -64.81262801  22.28539473
3396.00 -64.88591512  22.32230999
3398.00 -64.95922896  22.35926194
3400.00 -65.03256948  22.39625059
3402.00 -65.10593668  22.43327594
3404.00 -65.17933052  22.47033800
3406.00 -65.25275099  22.50743678
3408.00 -65.32619805  22.54457229
3410.00 -65.39967169  22.58174453
3412.00 -65.47317188  22.61895352
3414.00 -65.54669860  22.65619925
3416.00 -65.62025182  22.69348174
3418.00 -65.69383153  22.73080099
3420.00 -65.76743769  22.76815701
3422.00 -65.84107029  22.80554982
3424.00 -65.91472929  22.84297941
3426.00 -65.98841469  22.88044579
3428.00 -66.06212645  22.91794897
3430.00 -66.13586454  22.95548897
3432.00 -66.20962896  22.99306578
3434.00 -66.28341967  23.03067941
3436.00 -66.35723665  23.06832987
3438.00 -66.43107987  23.10601717
3440.00 -66.50494931  23.14374132
3442.00 -66.57884496  23.18150232
3444.00 -66.65276678  23.21930018
3446.00 -66.72671475  23.25713491
3448.00 -66.80068885  23.29500651
3450.00 -66.87468906  23.33291500
3452.00 -66.94871534  23.37086037
3454.00 -67.02276769  23.40884264
3456.00 -67.09684607  23.44686181
3458.00 -67.17095046  23.48491790
3460.00 -67.24508083  23.52301090
3462.00 -67.31923717  23.56114082
3464.00 -67.39341945  23.59930768
3466.00 -67.46762765  23.63751148
3468.00 -67.54186174  23.67575222
3470.00 -67.61612170  23.71402991
3472.00 -67.69040751  23.75234457
3474.00 -67.76471914  23.79069619
3476.00 -67.83905656  23.82908479
3478.00 -67.91341977  23.86751037
3480.00 -67.98780872  23.90597293
3482.00 -68.06222341  23.94447249
3484.00 -68.13666379  23.98300906
3486.00 -68.21112986  24.02158263
3488.00 -68.28562159  24.06019322
3490.00 -68.36013895  24.09884083
3492.00 -68.43468193  24.13752546
3494.00 -68.50925049  24.17624714
3496.00 -68.58384461  24.21500586
3498.00 -68.65846428  24.25380163
3500.00 -68.73310946  24.29263445
3502.00 -68.80778014  24.33150434
3504.00 -68.88247628  24.37041130
3506.00 -68.95719787  24.40935534
3508.00 -69.03194489  24.44833645
3510.00 -69.10671730  24.48735466
3512.00 -69.18151509  24.52640997
3514.00 -69.25633823  24.56550238
3516.00 -69.33118671  24.60463190
3518.00 -69.40606048  24.64379854
3520.00 -69.48095954  24.68300230
3522.00 -69.55588386  24.72224319
3524.00 -69.63083341  24.76152122
3526.00 -69.70580817  24.80083639
3528.00 -69.78080812  24.84018871
3530.00 -69.85583324  24.87957818
3532.00 -69.93088349  24.91900482
3534.00 -70.00595886  24.95846863
3536.00 -70.08105933  24.99796961
3538.00 -70.15618487  25.03750778
3540.00 -70.23133545  25.07708313
3542.00 -70.30651106  25.11669568
3544.00 -70.38171167  25.15634543
3546.00 -70.45693725  25.19603239
3548.00 -70.53218779  25.23575657
3550.00 -70.60746325  25.27551796
3552.00 -70.68276362  25.31531658
3554.00 -70.75808888  25.35515243
3556.00 -70.83343899  25.39502552
3558.00 -70.90881394  25.43493586
3560.00 -70.98421370  25.47488345
3562.00 -71.05963825  25.51486830
3564.00 -71.13508756  25.55489041
3566.00 -71.21056162  25.59494979
3568.00 -71.28606039  25.63504645
3570.00 -71.36158386  25.67518039
3572.00 -71.43713200  25.71535162
3574.00 -71.51270479  25.75556015
3576.00 -71.58830220  25.79580598
3578.00 -71.66392421  25.83608911
3580.00 -71.73957080  25.87640956
3582.00 -71.81524194  25.91676733
3584.00 -71.89093762  25.95716242
3586.00 -71.96665780  25.99759484
3588.00 -72.04240246  26.03806461
3590.00 -72.11817158  26.07857171
3592.00 -72.19396514  26.11911617
3594.00 -72.26978312  26.15969798
3596.00 -72.34562548  26.20031715
3598.00 -72.42149221  26.24097369
3600.00 -72.49738328  26.28166760
3602.00 -72.57329867  26.32239889
3604.00 -72.64923836  26.36316757
3606.00 -72.72520232  26.40397363
3608.00 -72.80119052  26.44481710
3610.00 -72.87720295  26.48569796
3612.00 -72.95323959  26.52661624
3614.00 -73.02930040  26.56757193
3616.00 -73.10538537  26.60856503
3618.00 -73.18149447  26.64959557
3620.00 -73.25762768  26.69066353
3622.00 -73.33378497  26.73176893
3624.00 -73.40996632  26.77291178
3626.00 -73.48617172  26.81409207
3628.00 -73.56240112  26.85530982
3630.00 -73.63865452  26.89656502
3632.00 -73.71493188  26.93785770
3634.00 -73.79123319  26.97918784
3636.00 -73.86755842  27.02055546
3638.00 -73.94390755  27.06196056
3640.00 -74.02028055  27.10340315
3642.00 -74.09667740  27.14488323
3644.00 -74.17309808  27.18640081
3646.00 -74.24954256  27.22795589
3648.00 -74.32601082  27.26954849
3650.00 -74.40250284  27.31117860
3652.00 -74.47901859  27.35284623
3654.00 -74.55555805  27.39455138
3656.00 -74.63212120  27.43629407
3658.00 -74.70870801  27.47807429
3660.00 -74.78531847  27.51989206
3662.00 -74.86195253  27.56174737
3664.00 -74.93861019  27.60364024
3666.00 -75.01529142  27.64557066
3668.00 -75.09199620  27.68753865
3670.00 -75.16872450  27.72954421
3672.00 -75.24547630  27.77158734
3674.00 -75.32225157  27.81366805
3676.00 -75.39905030  27.85578634
3678.00 -75.47587246  27.89794223
3680.00 -75.55271802  27.94013571
3682.00 -75.62958696  27.98236679
3684.00 -75.70647927  28.02463547
3686.00 -75.78339490  28.06694177
3688.00 -75.86033386  28.10928568
3690.00 -75.93729610  28.15166721
3692.00 -76.01428160  28.19408637
3694.00 -76.09129035  28.23654316
3696.00 -76.16832232  28.27903759
3698.00 -76.24537748  28.32156965
3700.00 -76.32245581  28.36413937
3702.00 -76.39955730  28.40674673
3704.00 -76.47668190  28.44939175
3706.00 -76.55382961  28.49207443
3708.00 -76.63100040  28.53479478
3710.00 -76.70819425  28.57755280
3712.00 -76.78541112  28.62034849
3714.00 -76.86265101  28.66318187
3716.00 -76.93991388  28.70605293
3718.00 -77.01719971  28.74896168
3720.00 -77.09450848  28.79190813
3722.00 -77.17184017  28.83489228
3724.00 -77.24919474  28.87791413
3726.00 -77.32657219  28.92097370
3728.00 -77.40397248  28.96407098
3730.00 -77.48139559  29.00720598
3732.00 -77.55884151  29.05037870
3734.00 -77.63631019  29.09358915
3736.00 -77.71380163  29.13683734
3738.00 -77.79131580  29.18012327
3740.00 -77.86885267  29.22344693
3742.00 -77.94641223  29.26680835
3744.00 -78.02399444  29.31020752
3746.00 -78.10159929  29.35364445
3748.00 -78.17922675  29.39711914
3750.00 -78.25687680  29.44063159
3752.00 -78.33454942  29.48418182
3754.00 -78.41224457  29.52776982
3756.00 -78.48996225  29.57139560
3758.00 -78.56770242  29.61505917
3760.00 -78.64546506  29.65876053
3762.00 -78.72325016  29.70249968
3764.00 -78.80105768  29.74627663
3766.00 -78.87888760  29.79009138
3768.00 -78.95673990  29.83394394
3770.00 -79.03461455  29.87783431
3772.00 -79.11251154  29.92176250
3774.00 -79.19043084  29.96572851
3776.00 -79.26837242  30.00973235
3778.00 -79.34633627  30.05377401
3780.00 -79.42432235  30.09785351
3782.00 -79.50233066  30.14197084
3784.00 -79.58036115  30.18612602
3786.00 -79.65841382  30.23031904
3788.00 -79.73648863  30.27454992
3790.00 -79.81458556  30.31881865
3792.00 -79.89270460  30.36312524
3794.00 -79.97084571  30.40746970
3796.00 -80.04900887  30.45185202
3798.00 -80.12719407  30.49627221
3800.00 -80.20540127  30.54073028
3802.00 -80.28363045  30.58522624
3804.00 -80.36188160  30.62976007
3806.00 -80.44015468  30.67433180
3808.00 -80.51844968  30.71894142
3810.00 -80.59676657  30.76358893
3812.00 -80.67510533  30.80827435
3814.00 -80.75346593  30.85299768
3816.00 -80.83184835  30.89775891
3818.00 -80.91025257  30.94255805
3820.00 -80.98867856  30.98739512
3822.00 -81.06712631  31.03227010
3824.00 -81.14559578  31.07718301
3826.00 -81.22408696  31.12213385
3828.00 -81.30259982  31.16712263
3830.00 -81.38113434  31.21214934
3832.00 -81.45969050  31.25721399
3834.00 -81.53826827  31.30231659
3836.00 -81.61686762  31.34745713
3838.00 -81.69548855  31.39263563
3840.00 -81.77413101  31.43785209
3842.00 -81.85279500  31.48310650
3844.00 -81.93148048  31.52839889
3846.00 -82.01018744  31.57372924
3848.00 -82.08891584  31.61909756
3850.00 -82.16766568  31.66450385
3852.00 -82.24643691  31.70994813
3854.00 -82.32522953  31.75543039
3856.00 -82.40404351  31.80095064
3858.00 -82.48287882  31.84650888
3860.00 -82.56173544  31.89210511
3862.00 -82.64061335  31.93773935
3864.00 -82.71951252  31.98341158
3866.00 -82.79843294  32.02912182
3868.00 -82.87737457  32.07487007
3870.00 -82.95633740  32.12065633
3872.00 -83.03532141  32.16648061
3874.00 -83.11432656  32.21234290
3876.00 -83.19335284  32.25824322
3878.00 -83.27240022  32.30418157
3880.00 -83.35146868  32.35015795
3882.00 -83.43055820  32.39617236
3884.00 -83.50966875  32.44222481
3886.00 -83.58880031  32.48831530
3888.00 -83.66795286  32.53444384
3890.00 -83.74712638  32.58061042
3892.00 -83.82632083  32.62681506
3894.00 -83.90553621  32.67305775
3896.00 -83.98477248  32.71933850
3898.00 -84.06402962  32.76565731
3900.00 -84.14330761  32.81201418
3902.00 -84.22260643  32.85840913
3904.00 -84.30192605  32.90484214
3906.00 -84.38126645  32.95131323
3908.00 -84.46062761  32.99782240
3910.00 -84.54000950  33.04436965
3912.00 -84.61941210  33.09095499
3914.00 -84.69883539  33.13757841
3916.00 -84.77827934  33.18423992
3918.00 -84.85774393  33.23093953
3920.00 -84.93722915  33.27767724
3922.00 -85.01673496  33.32445305
3924.00 -85.09626134  33.37126696
3926.00 -85.17580827  33.41811898
3928.00 -85.25537573  33.46500911
3930.00 -85.33496369  33.51193735
3932.00 -85.41457213  33.55890371
3934.00 -85.49420102  33.60590819
3936.00 -85.57385036  33.65295079
3938.00 -85.65352010  33.70003152
3940.00 -85.73321023  33.74715038
3942.00 -85.81292073  33.79430736
3944.00 -85.89265157  33.84150249
3946.00 -85.97240273  33.88873575
3948.00 -86.05217418  33.93600715
3950.00 -86.13196591  33.98331670
3952.00 -86.21177789  34.03066439
3954.00 -86.29161010  34.07805024
3956.00 -86.37146251  34.12547423
3958.00 -86.45133510  34.17293638
3960.00 -86.53122785  34.22043669
3962.00 -86.61114073  34.26797516
3964.00 -86.69107373  34.31555180
3966.00 -86.77102682  34.36316660
3968.00 -86.85099997  34.41081957
3970.00 -86.93099317  34.45851072
3972.00 -87.01100639  34.50624004
3974.00 -87.09103961  34.55400754
3976.00 -87.17109280  34.60181322
3978.00 -87.25116594  34.64965708
3980.00 -87.33125901  34.69753913
3982.00 -87.41137199  34.74545937
3984.00 -87.49150485  34.79341779
3986.00 -87.57165758  34.84141442
3988.00 -87.65183014  34.88944924
3990.00 -87.73202251  34.93752226
3992.00 -87.81223467  34.98563349
3994.00 -87.89246661  35.03378291
3996.00 -87.97271829  35.08197055
3998.00 -88.05298969  35.13019640
4000.00 -88.13328079  35.17846045
4002.00 -88.21359157  35.22676273
4004.00 -88.29392200  35.27510322
4006.00 -88.37427207  35.32348193
4008.00 -88.45464174  35.37189887
4010.00 -88.53503100  35.42035403
4012.00 -88.61543982  35.46884741
4014.00 -88.69586818  35.51737903
4016.00 -88.77631606  35.56594888
4018.00 -88.85678343  35.61455697
4020.00 -88.93727028  35.66320329
4022.00 -89.01777657  35.71188785
4024.00 -89.09830229  35.76061066
4026.00 -89.17884741  35.80937171
4028.00 -89.25941191  35.85817100
4030.00 -89.33999577  35.90700855
4032.00 -89.42059896  35.95588434
4034.00 -89.50122146  36.00479840
4036.00 -89.58186325  36.05375070
4038.00 -89.66252431  36.10274127
4040.00 -89.74320461  36.15177009
4042.00 -89.82390414  36.20083718
4044.00 -89.90462285  36.24994253
4046.00 -89.98536075  36.29908615
4048.00 -90.06611779  36.34826804
4050.00 -90.14689397  36.39748820
4052.00 -90.22768925  36.44674664
4054.00 -90.30850361  36.49604335
4056.00 -90.38933704  36.54537834
4058.00 -90.47018950  36.59475161
4060.00 -90.55106098  36.64416316
4062.00 -90.63195145  36.69361299
4064.00 -90.71286090  36.74310111
4066.00 -90.79378928  36.79262752
4068.00 -90.87473660  36.84219222
4070.00 -90.95570281  36.89179522
4072.00 -91.03668791  36.94143650
4074.00 -91.11769186  36.99111609
4076.00 -91.19871464  37.04083397
4078.00 -91.27975623  37.09059015
4080.00 -91.36081661  37.14038463
4082.00 -91.44189576  37.19021742
4084.00 -91.52299365  37.24008851
4086.00 -91.60411026  37.28999791
4088.00 -91.68524557  37.33994562
4090.00 -91.76639955  37.38993165
4092.00 -91.84757218  37.43995598
4094.00 -91.92876344  37.49001863
4096.00 -92.00997331  37.54011960
4098.00 -92.09120176  37.59025889
4100.00 -92.17244878  37.64043649
4102.00 -92.25371433  37.69065242
4104.00 -92.33499840  37.74090668
4106.00 -92.41630096  37.79119926
4108.00 -92.49762199  37.84153016
4110.00 -92.57896147  37.89189940
4112.00 -92.66031937  37.94230697
4114.00 -92.74169568  37.99275287
4116.00 -92.82309037  38.04323710
4118.00 -92.90450341  38.09375967
4120.00 -92.98593479  38.14432058
4122.00 -93.06738448  38.19491982
4124.00 -93.14885246  38.24555741
4126.00 -93.23033871  38.29623334
4128.00 -93.31184320  38.34694761
4130.00 -93.39336591  38.39770023
4132.00 -93.47490683  38.44849120
4134.00 -93.55646592  38.49932051
4136.00 -93.63804316  38.55018817
4138.00 -93.71963853  38.60109419
4140.00 -93.80125202  38.65203855
4142.00 -93.88288359  38.70302128
4144.00 -93.96453322  38.75404235
4146.00 -94.04620090  38.80510179
4148.00 -94.12788659  38.85619958
4150.00 -94.20959028  38.90733574
4152.00 -94.29131194  38.95851025
4154.00 -94.37305155  39.00972313
4156.00 -94.45480910  39.06097437
4158.00 -94.53658454  39.11226397
4160.00 -94.61837788  39.16359195
4162.00 -94.70018907  39.21495829
4164.00 -94.78201810  39.26636300
4166.00 -94.86386495  39.31780608
4168.00 -94.94572959  39.36928753
4170.00 -95.02761200  39.42080736
4172.00 -95.10951216  39.47236556
4174.00 -95.19143004  39.52396213
4176.00 -95.27336563  39.57559709
4178.00 -95.35531890  39.62727041
4180.00 -95.43728983  39.67898212
4182.00 -95.51927839  39.73073221
4184.00 -95.60128457  39.78252068
4186.00 -95.68330834  39.83434753
4188.00 -95.76534967  39.88621277
4190.00 -95.84740856  39.93811639
4192.00 -95.92948497  39.99005840
4194.00 -96.01157887  40.04203879
4196.00 -96.09369026  40.09405757
4198.00 -96.17581911  40.14611474
4200.00 -96.25796538  40.19821030
4202.00 -96.34012907  40.25034425
4204.00 -96.42231015  40.30251659
4206.00 -96.50450860  40.35472732
4208.00 -96.58672439  40.40697645
4210.00 -96.66895750  40.45926397
4212.00 -96.75120792  40.51158989
4214.00 -96.83347560  40.56395421
4216.00 -96.91576055  40.61635692
4218.00 -96.99806273  40.66879803
4220.00 -97.08038211  40.72127754
4222.00 -97.16271869  40.77379544
4224.00 -97.24507243  40.82635175
4226.00 -97.32744331  40.87894647
4228.00 -97.40983132  40.93157958
4230.00 -97.49223642  40.98425110
4232.00 -97.57465860  41.03696102
4234.00 -97.65709783  41.08970934
4236.00 -97.73955410  41.14249607
4238.00 -97.82202737  41.19532121
4240.00 -97.90451763  41.24818475
4242.00 -97.98702486  41.30108670
4244.00 -98.06954903  41.35402706
4246.00 -98.15209011  41.40700583
4248.00 -98.23464810  41.46002301
4250.00 -98.31722296  41.51307860
4252.00 -98.39981467  41.56617260
4254.00 -98.48242322  41.61930501
4256.00 -98.56504857  41.67247583
4258.00 -98.64769071  41.72568506
4260.00 -98.73034961  41.77893271
4262.00 -98.81302526  41.83221877
4264.00 -98.89571762  41.88554325
4266.00 -98.97842669  41.93890614
4268.00 -99.06115242  41.99230745
4270.00 -99.14389481  42.04574717
4272.00 -99.22665383  42.09922531
4274.00 -99.30942946  42.15274186
4276.00 -99.39222168  42.20629683
4278.00 -99.47503046  42.25989022
4280.00 -99.55785578  42.31352203
4282.00 -99.64069762  42.36719226
4284.00 -99.72355596  42.42090090
4286.00 -99.80643078  42.47464797
4288.00 -99.88932204  42.52843345
4290.00 -99.97222974  42.58225735
4292.00 -100.05515385  42.63611968
4294.00 -100.13809434  42.69002042
4296.00 -100.22105120  42.74395959
4298.00 -100.30402440  42.79793717
4300.00 -100.38701392  42.85195318
4302.00 -100.47001974  42.90600761
4304.00 -100.55304183  42.96010046
4306.00 -100.63608018  43.01423174
4308.00 -100.71913476  43.06840143
4310.00 -100.80220555  43.12260955
4312.00 -100.88529253  43.17685609
4314.00 -100.96839567  43.23114106
4316.00 -101.05151496  43.28546444
4318.00 -101.13465036  43.33982625
4320.00 -101.21780187  43.39422649
4322.00 -101.30096945  43.44866514
4324.00 -101.38415309  43.50314222
4326.00 -101.46735276  43.55765773
4328.00 -101.55056844  43.61221166
4330.00 -101.63380011  43.66680401
4332.00 -101.71704775  43.72143478
4334.00 -101.80031133  43.77610398
4336.00 -101.88359083  43.83081160
4338.00 -101.96688624  43.88555765
4340.00 -102.05019752  43.94034212
4342.00 -102.13352466  43.99516502
4344.00 -102.21686764  44.05002633
4346.00 -102.30022643  44.10492608
4348.00 -102.38360100  44.15986424
4350.00 -102.46699135  44.21484083
4352.00 -102.55039744  44.26985584
4354.00 -102.63381926  44.32490928
4356.00 -102.71725678  44.38000114
4358.00 -102.80070998  44.43513142
4360.00 -102.88417884  44.49030012
4362.00 -102.96766334  44.54550725
4364.00 -103.05116345  44.60075280
4366.00 -103.13467915  44.65603677
4368.00 -103.21821043  44.71135916
4370.00 -103.30175725  44.76671998
4372.00 -103.38531960  44.82211922
4374.00 -103.46889746  44.87755688
4376.00 -103.55249080  44.93303296
4378.00 -103.63609960  44.98854746
4380.00 -103.71972384  45.04410038
4382.00 -103.80336349  45.09969172
4384.00 -103.88701855  45.15532148
4386.00 -103.97068897  45.21098966
4388.00 -104.05437475  45.26669626
4390.00 -104.13807586  45.32244128
4392.00 -104.22179228  45.37822471
4394.00 -104.30552398  45.43404657
4396.00 -104.38927095  45.48990684
4398.00 -104.47303316  45.54580553
4400.00 -104.55681059  45.60174263
4402.00 -104.64060322  45.65771816
4404.00 -104.72441102  45.71373209
4406.00 -104.80823398  45.76978445
4408.00 -104.89207208  45.82587521
4410.00 -104.97592529  45.88200440
4412.00 -105.05979358  45.93817199
4414.00 -105.14367695  45.99437800
4416.00 -105.22757536  46.05062242
4418.00 -105.31148879  46.10690525
4420.00 -105.39541723  46.16322650
4422.00 -105.47936065  46.21958616
4424.00 -105.56331903  46.27598422
4426.00 -105.64729234  46.33242070
4428.00 -105.73128057  46.38889558
4430.00 -105.81528370  46.44540887
4432.00 -105.89930169  46.50196057
4434.00 -105.98333454  46.55855068
4436.00 -106.06738222  46.61517920
4438.00 -106.15144470  46.67184611
4440.00 -106.23552197  46.72855144
4442.00 -106.31961400  46.78529517
4444.00 -106.40372077  46.84207730
4446.00 -106.48784226  46.89889783
4448.00 -106.57197846  46.95575677
4450.00 -106.65612932  47.01265411
4452.00 -106.74029485  47.06958984
4454.00 -106.82447501  47.12656398
4456.00 -106.90866977  47.18357651
4458.00 -106.99287913  47.24062745
4460.00 -107.07710306  47.29771678
4462.00 -107.16134154  47.35484450
4464.00 -107.24559453  47.41201062
4466.00 -107.32986204  47.46921514
4468.00 -107.41414402  47.52645805
4470.00 -107.49844047  47.58373935
4472.00 -107.58275135  47.64105904
4474.00 -107.66707665  47.69841712
4476.00 -107.75141635  47.75581359
4478.00 -107.83577042  47.81324845
4480.00 -107.92013884  47.87072170
4482.00 -108.00452160  47.92823334
4484.00 -108.08891866  47.98578336
4486.00 -108.17333001  48.04337176
4488.00 -108.25775563  48.10099855
4490.00 -108.34219549  48.15866372
4492.00 -108.42664957  48.21636727
4494.00 -108.51111786  48.27410920
4496.00 -108.59560032  48.33188951
4498.00 -108.68009694  48.38970820
4500.00 -108.76460771  48.44756526
4502.00 -108.84913258  48.50546070
4504.00 -108.93367155  48.56339452
4506.00 -109.01822459  48.62136671
4508.00 -109.10279169  48.67937727
4510.00 -109.18737281  48.73742620
4512.00 -109.27196794  48.79551350
4514.00 -109.35657706  48.85363917
4516.00 -109.44120014  48.91180321
4518.00 -109.52583716  48.97000561
4520.00 -109.61048811  49.02824637
4522.00 -109.69515296  49.08652551
4524.00 -109.77983168  49.14484300
4526.00 -109.86452427  49.20319885
4528.00 -109.94923069  49.26159306
4530.00 -110.03395093  49.32002563
4532.00 -110.11868496  49.37849656
4534.00 -110.20343276  49.43700584
4536.00 -110.28819431  49.49555348
4538.00 -110.37296959  49.55413947
4540.00 -110.45775858  49.61276381
4542.00 -110.54256126  49.67142650
4544.00 -110.62737760  49.73012754
4546.00 -110.71220759  49.78886693
4548.00 -110.79705119  49.84764466
4550.00 -110.88190840  49.90646074
4552.00 -110.96677919  49.96531515
4554.00 -111.05166354  50.02420791
4556.00 -111.13656143  50.08313901
4558.00 -111.22147283  50.14210845
4560.00 -111.30639772  50.20111622
4562.00 -111.39133609  50.26016233
4564.00 -111.47628791  50.31924677
4566.00 -111.56125316  50.37836954
4568.00 -111.64623182  50.43753065
4570.00 -111.73122387  50.49673008
4572.00 -111.81622928  50.55596784
4574.00 -111.90124804  50.61524392
4576.00 -111.98628013  50.67455833
4578.00 -112.07132552  50.73391106
4580.00 -112.15638419  50.79330211
4582.00 -112.24145612  50.85273148
4584.00 -112.32654129  50.91219916
4586.00 -112.41163968  50.97170516
4588.00 -112.49675126  51.03124948
4590.00 -112.58187602  51.09083210
4592.00 -112.66701394  51.15045304
4594.00 -112.75216498  51.21011229
4596.00 -112.83732915  51.26980984
4598.00 -112.92250640  51.32954569
4600.00 -113.00769672  51.38931985
4602.00 -113.09290009  51.44913231
4604.00 -113.17811648  51.50898307
4606.00 -113.26334589  51.56887213
4608.00 -113.34858828  51.62879948
4610.00 -113.43384363  51.68876513
4612.00 -113.51911193  51.74876907
4614.00 -113.60439314  51.80881129
4616.00 -113.68968726  51.86889181
4618.00 -113.77499426  51.92901061
4620.00 -113.86031411  51.98916770
4622.00 -113.94564681  52.04936307
4624.00 -114.03099232  52.10959672
4626.00 -114.11635062  52.16986864
4628.00 -114.20172170  52.23017885
4630.00 -114.28710553  52.29052733
4632.00 -114.37250210  52.35091408
4634.00 -114.45791137  52.41133910
4636.00 -114.54333334  52.47180239
4638.00 -114.62876797  52.53230394
4640.00 -114.71421526  52.59284376
4642.00 -114.79967516  52.65342184
4644.00 -114.88514768  52.71403819
4646.00 -114.97063278  52.77469279
4648.00 -115.05613044  52.83538564
4650.00 -115.14164065  52.89611675
4652.00 -115.22716338  52.95688611
4654.00 -115.31269860  53.01769372
4656.00 -115.39824631  53.07853958
4658.00 -115.48380648  53.13942368
4660.00 -115.56937909  53.20034603
4662.00 -115.65496411  53.26130661
4664.00 -115.74056153  53.32230544
4666.00 -115.82617132  53.38334250
4668.00 -115.91179347  53.44441780
4670.00 -115.99742795  53.50553132
4672.00 -116.08307475  53.56668308
4674.00 -116.16873383  53.62787306
4676.00 -116.25440519  53.68910127
4678.00 -116.34008879  53.75036770
4680.00 -116.42578463  53.81167236
4682.00 -116.51149267  53.87301522
4684.00 -116.59721290  53.93439631
4686.00 -116.68294530  53.99581561
4688.00 -116.76868984  54.05727312
4690.00 -116.85444651  54.11876884
4692.00 -116.94021528  54.18030276
4694.00 -117.02599613  54.24187489
4696.00 -117.11178904  54.30348522
4698.00 -117.19759400  54.36513375
4700.00 -117.28341098  54.42682047
4702.00 -117.36923995  54.48854539
4704.00 -117.45508091  54.55030850
4706.00 -117.54093382  54.61210980
4708.00 -117.62679867  54.67394929
4710.00 -117.71267544  54.73582696
4712.00 -117.79856410  54.79774281
4714.00 -117.88446464  54.85969684
4716.00 -117.97037703  54.92168905
4718.00 -118.05630126  54.98371943
4720.00 -118.14223730  55.04578798
4722.00 -118.22818513  55.10789471
4724.00 -118.31414473  55.17003959
4726.00 -118.40011609  55.23222265
4728.00 -118.48609917  55.29444386
4730.00 -118.57209396  55.35670323
4732.00 -118.65810044  55.41900076
4734.00 -118.74411859  55.48133644
4736.00 -118.83014839  55.54371027
4738.00 -118.91618981  55.60612224
4740.00 -119.00224284  55.66857237
4742.00 -119.08830745  55.73106063
4744.00 -119.17438363  55.79358704
4746.00 -119.26047135  55.85615158
4748.00 -119.34657060  55.91875426
4750.00 -119.43268135  55.98139506
4752.00 -119.51880358  56.04407400
4754.00 -119.60493727  56.10679106
4756.00 -119.69108241  56.16954625
4758.00 -119.77723896  56.23233955
4760.00 -119.86340691  56.29517098
4762.00 -119.94958625  56.35804052
4764.00 -120.03577694  56.42094817
4766.00 -120.12197897  56.48389392
4768.00 -120.20819232  56.54687779
4770.00 -120.29441696  56.60989976
4772.00 -120.38065288  56.67295983
4774.00 -120.46690006  56.73605799
4776.00 -120.55315847  56.79919425
4778.00 -120.63942810  56.86236860
4780.00 -120.72570892  56.92558105
4782.00 -120.81200092  56.98883157
4784.00 -120.89830407  57.05212018
4786.00 -120.98461835  57.11544687
4788.00 -121.07094375  57.17881164
4790.00 -121.15728023  57.24221448
4792.00 -121.24362779  57.30565539
4794.00 -121.32998640  57.36913437
4796.00 -121.41635604  57.43265141
4798.00 -121.50273669  57.49620652
4800.00 -121.58912834  57.55979968
4802.00 -121.67553095  57.62343090
4804.00 -121.76194451  57.68710017
4806.00 -121.84836899  57.75080749
4808.00 -121.93480439  57.81455286
4810.00 -122.02125068  57.87833627
4812.00 -122.10770783  57.94215773
4814.00 -122.19417583  58.00601721
4816.00 -122.28065465  58.06991474
4818.00 -122.36714429  58.13385029
4820.00 -122.45364471  58.19782387
4822.00 -122.54015589  58.26183547
4824.00 -122.62667782  58.32588510
4826.00 -122.71321047  58.38997274
4828.00 -122.79975383  58.45409840
4830.00 -122.88630788  58.51826207
4832.00 -122.97287259  58.58246375
4834.00 -123.05944794  58.64670343
4836.00 -123.14603392  58.71098112
4838.00 -123.23263050  58.77529680
4840.00 -123.31923766  58.83965048
4842.00 -123.40585539  58.90404215
4844.00 -123.49248365  58.96847181
4846.00 -123.57912244  59.03293945
4848.00 -123.66577174  59.09744508
4850.00 -123.75243151  59.16198868
4852.00 -123.83910175  59.22657026
4854.00 -123.92578243  59.29118981
4856.00 -124.01247353  59.35584733
4858.00 -124.09917503  59.42054282
4860.00 -124.18588691  59.48527626
4862.00 -124.27260915  59.55004767
4864.00 -124.35934173  59.61485703
4866.00 -124.44608464  59.67970434
4868.00 -124.53283784  59.74458960
4870.00 -124.61960132  59.80951280
4872.00 -124.70637507  59.87447394
4874.00 -124.79315905  59.93947302
4876.00 -124.87995325  60.00451003
4878.00 -124.96675766  60.06958498
4880.00 -125.05357224  60.13469785
4882.00 -125.14039698  60.19984864
4884.00 -125.22723186  60.26503736
4886.00 -125.31407686  60.33026399
4888.00 -125.40093196  60.39552853
4890.00 -125.48779714  60.46083098
4892.00 -125.57467238  60.52617134
4894.00 -125.66155766  60.59154960
4896.00 -125.74845295  60.65696576
4898.00 -125.83535825  60.72241981
4900.00 -125.92227352  60.78791175
4902.00 -126.00919875  60.85344158
4904.00 -126.09613393  60.91900930
4906.00 -126.18307902  60.98461489
4908.00 -126.27003401  61.05025836
4910.00 -126.35699887  61.11593970
4912.00 -126.44397360  61.18165891
4914.00 -126.53095817  61.24741599
4916.00 -126.61795255  61.31321093
4918.00 -126.70495674  61.37904372
4920.00 -126.79197070  61.44491437
4922.00 -126.87899443  61.51082287
4924.00 -126.96602789  61.57676921
4926.00 -127.05307107  61.64275340
4928.00 -127.14012395  61.70877543
4930.00 -127.22718651  61.77483529
4932.00 -127.31425874  61.84093298
4934.00 -127.40134060  61.90706850
4936.00 -127.48843208  61.97324184
4938.00 -127.57553316  62.03945301
4940.00 -127.66264382  62.10570199
4942.00 -127.74976404  62.17198878
4944.00 -127.83689380  62.23831337
4946.00 -127.92403308  62.30467578
4948.00 -128.01118187  62.37107598
4950.00 -128.09834013  62.43751398
4952.00 -128.18550786  62.50398977
4954.00 -128.27268503  62.57050334
4956.00 -128.35987162  62.63705471
4958.00 -128.44706761  62.70364385
4960.00 -128.53427298  62.77027077
4962.00 -128.62148771  62.83693546
4964.00 -128.70871179  62.90363792
4966.00 -128.79594519  62.97037815
4968.00 -128.88318790  63.03715613
4970.00 -128.97043989  63.10397187
4972.00 -129.05770114  63.17082537
4974.00 -129.14497163  63.23771661
4976.00 -129.23225135  63.30464559
4978.00 -129.31954027  63.37161232
4980.00 -129.40683838  63.43861678
4982.00 -129.49414566  63.50565897
4984.00 -129.58146208  63.57273890
4986.00 -129.66878762  63.63985654
4988.00 -129.75612227  63.70701190
4990.00 -129.84346601  63.77420498
4992.00 -129.93081882  63.84143577
4994.00 -130.01818067  63.90870427
4996.00 -130.10555155  63.97601047
4998.00 -130.19293143  64.04335437
5000.00 -130.28032031  64.11073596
