wavelength(nm)         real         imag
100.00   3.79513675   0.00100206
102.00   3.79090067   0.00106339
104.00   3.78658075   0.00112718
106.00   3.78217698   0.00119346
108.00   3.77768936   0.00126229
110.00   3.77311789   0.00133372
112.00   3.76846259   0.00140779
114.00   3.76372344   0.00148456
116.00   3.75890046   0.00156407
118.00   3.75399364   0.00164636
120.00   3.74900298   0.00173150
122.00   3.74392849   0.00181951
124.00   3.73877017   0.00191046
126.00   3.73352803   0.00200440
128.00   3.72820206   0.00210136
130.00   3.72279226   0.00220139
132.00   3.71729865   0.00230456
134.00   3.71172122   0.00241089
136.00   3.70605997   0.00252045
138.00   3.70031491   0.00263328
140.00   3.69448603   0.00274942
142.00   3.68857335   0.00286893
144.00   3.68257687   0.00299185
146.00   3.67649658   0.00311824
148.00   3.67033249   0.00324813
150.00   3.66408460   0.00338158
152.00   3.65775292   0.00351863
154.00   3.65133745   0.00365934
156.00   3.64483818   0.00380375
158.00   3.63825513   0.00395191
160.00   3.63158830   0.00410387
162.00   3.62483769   0.00425967
164.00   3.61800329   0.00441936
166.00   3.61108513   0.00458300
168.00   3.60408319   0.00475063
170.00   3.59699748   0.00492229
172.00   3.58982801   0.00509804
174.00   3.58257478   0.00527792
176.00   3.57523778   0.00546198
178.00   3.56781703   0.00565027
180.00   3.56031253   0.00584284
182.00   3.55272428   0.00603973
184.00   3.54505228   0.00624100
186.00   3.53729654   0.00644669
188.00   3.52945706   0.00665684
190.00   3.52153384   0.00687152
192.00   3.51352689   0.00709075
194.00   3.50543622   0.00731461
196.00   3.49726181   0.00754312
198.00   3.48900369   0.00777634
200.00   3.48066185   0.00801431
202.00   3.47223629   0.00825709
204.00   3.46372702   0.00850473
206.00   3.45513404   0.00875726
208.00   3.44645737   0.00901474
210.00   3.43769699   0.00927722
212.00   3.42885291   0.00954474
214.00   3.41992515   0.00981736
216.00   3.41091369   0.01009511
218.00   3.40181855   0.01037806
220.00   3.39263974   0.01066623
222.00   3.38337724   0.01095969
224.00   3.37403108   0.01125849
226.00   3.36460124   0.01156266
228.00   3.35508774   0.01187226
230.00   3.34549059   0.01218733
232.00   3.33580977   0.01250793
234.00   3.32604531   0.01283410
236.00   3.31619720   0.01316589
238.00   3.30626545   0.01350334
240.00   3.29625005   0.01384651
242.00   3.28615103   0.01419544
244.00   3.27596837   0.01455018
246.00   3.26570209   0.01491078
248.00   3.25535219   0.01527728
250.00   3.24491868   0.01564974
252.00   3.23440155   0.01602820
254.00   3.22380082   0.01641271
256.00   3.21311648   0.01680332
258.00   3.20234855   0.01720007
260.00   3.19149702   0.01760301
262.00   3.18056190   0.01801220
264.00   3.16954321   0.01842767
266.00   3.15844093   0.01884948
268.00   3.14725508   0.01927767
270.00   3.13598566   0.01971230
272.00   3.12463268   0.02015340
274.00   3.11319614   0.02060103
276.00   3.10167604   0.02105524
278.00   3.09007240   0.02151607
280.00   3.07838521   0.02198357
282.00   3.06661449   0.02245779
284.00   3.05476023   0.02293877
286.00   3.04282244   0.02342657
288.00   3.03080113   0.02392123
290.00   3.01869630   0.02442280
292.00   3.00650796   0.02493133
294.00   2.99423612   0.02544686
296.00   2.98188077   0.02596945
298.00   2.96944192   0.02649913
300.00   2.95691958   0.02703597
302.00   2.94431376   0.02758000
304.00   2.93162446   0.02813127
306.00   2.91885169   0.02868983
308.00   2.90599544   0.02925574
310.00   2.89305573   0.02982903
312.00   2.88003257   0.03040975
314.00   2.86692595   0.03099795
316.00   2.85373589   0.03159369
318.00   2.84046238   0.03219700
320.00   2.82710545   0.03280794
322.00   2.81366508   0.03342655
324.00   2.80014129   0.03405288
326.00   2.78653408   0.03468698
328.00   2.77284347   0.03532889
330.00   2.75906944   0.03597867
332.00   2.74521202   0.03663636
334.00   2.73127121   0.03730200
336.00   2.71724701   0.03797565
338.00   2.70313943   0.03865736
340.00   2.68894847   0.03934717
342.00   2.67467415   0.04004512
344.00   2.66031646   0.04075128
346.00   2.64587542   0.04146567
348.00   2.63135103   0.04218836
350.00   2.61674329   0.04291939
352.00   2.60205222   0.04365880
354.00   2.58727782   0.04440665
356.00   2.57242010   0.04516298
358.00   2.55747905   0.04592784
360.00   2.54245470   0.04670128
362.00   2.52734704   0.04748334
364.00   2.51215609   0.04827407
366.00   2.49688184   0.04907353
368.00   2.48152431   0.04988175
370.00   2.46608350   0.05069878
372.00   2.45055942   0.05152468
374.00   2.43495208   0.05235949
376.00   2.41926147   0.05320325
378.00   2.40348762   0.05405602
380.00   2.38763053   0.05491784
382.00   2.37169020   0.05578876
384.00   2.35566663   0.05666883
386.00   2.33955985   0.05755809
388.00   2.32336985   0.05845659
390.00   2.30709664   0.05936438
392.00   2.29074023   0.06028151
394.00   2.27430063   0.06120803
396.00   2.25777783   0.06214398
398.00   2.24117186   0.06308940
400.00   2.22448272   0.06404435
402.00   2.20771041   0.06500888
404.00   2.19085494   0.06598303
406.00   2.17391632   0.06696684
408.00   2.15689456   0.06796037
410.00   2.13978966   0.06896367
412.00   2.12260163   0.06997678
414.00   2.10533049   0.07099974
416.00   2.08797623   0.07203261
418.00   2.07053886   0.07307543
420.00   2.05301839   0.07412826
422.00   2.03541484   0.07519113
424.00   2.01772820   0.07626410
426.00   1.99995848   0.07734720
428.00   1.98210570   0.07844050
430.00   1.96416986   0.07954404
432.00   1.94615097   0.08065786
434.00   1.92804903   0.08178201
436.00   1.90986405   0.08291654
438.00   1.89159605   0.08406150
440.00   1.87324503   0.08521692
442.00   1.85481100   0.08638287
444.00   1.83629396   0.08755939
446.00   1.81769392   0.08874653
448.00   1.79901090   0.08994432
450.00   1.78024490   0.09115283
452.00   1.76139592   0.09237209
454.00   1.74246398   0.09360215
456.00   1.72344909   0.09484307
458.00   1.70435125   0.09609489
460.00   1.68517047   0.09735765
462.00   1.66590676   0.09863140
464.00   1.64656013   0.09991620
466.00   1.62713059   0.10121208
468.00   1.60761814   0.10251909
470.00   1.58802279   0.10383729
472.00   1.56834456   0.10516671
474.00   1.54858345   0.10650742
476.00   1.52873946   0.10785944
478.00   1.50881262   0.10922283
480.00   1.48880292   0.11059765
482.00   1.46871037   0.11198392
484.00   1.44853499   0.11338171
486.00   1.42827678   0.11479105
488.00   1.40793576   0.11621200
490.00   1.38751192   0.11764461
492.00   1.36700529   0.11908891
494.00   1.34641586   0.12054496
496.00   1.32574365   0.12201280
498.00   1.30498867   0.12349249
500.00   1.28415092   0.12498406
502.00   1.26323041   0.12648756
504.00   1.24222716   0.12800305
506.00   1.22114117   0.12953057
508.00   1.19997246   0.13107016
510.00   1.17872102   0.13262188
512.00   1.15738688   0.13418576
514.00   1.13597003   0.13576187
516.00   1.11447049   0.13735023
518.00   1.09288828   0.13895091
520.00   1.07122338   0.14056394
522.00   1.04947583   0.14218938
524.00   1.02764562   0.14382727
526.00   1.00573277   0.14547766
528.00   0.98373729   0.14714059
530.00   0.96165918   0.14881612
532.00   0.93949845   0.15050428
534.00   0.91725512   0.15220513
536.00   0.89492919   0.15391872
538.00   0.87252068   0.15564508
540.00   0.85002959   0.15738427
542.00   0.82745593   0.15913633
544.00   0.80479972   0.16090131
546.00   0.78206096   0.16267926
548.00   0.75923966   0.16447023
550.00   0.73633583   0.16627425
552.00   0.71334949   0.16809138
554.00   0.69028064   0.16992167
556.00   0.66712929   0.17176515
558.00   0.64389546   0.17362189
560.00   0.62057915   0.17549192
562.00   0.59718037   0.17737529
564.00   0.57369913   0.17927204
566.00   0.55013545   0.18118223
568.00   0.52648933   0.18310591
570.00   0.50276079   0.18504311
572.00   0.47894983   0.18699389
574.00   0.45505646   0.18895828
576.00   0.43108070   0.19093635
578.00   0.40702255   0.19292813
580.00   0.38288204   0.19493367
582.00   0.35865915   0.19695302
584.00   0.33435391   0.19898623
586.00   0.30996634   0.20103333
588.00   0.28549642   0.20309439
590.00   0.26094419   0.20516943
592.00   0.23630965   0.20725852
594.00   0.21159280   0.20936170
596.00   0.18679367   0.21147901
598.00   0.16191226   0.21361051
600.00   0.13694858   0.21575623
602.00   0.11190264   0.21791622
604.00   0.08677446   0.22009053
606.00   0.06156404   0.22227922
608.00   0.03627140   0.22448231
610.00   0.01089654   0.22669987
612.00  -0.01456051   0.22893193
614.00  -0.04009976   0.23117854
616.00  -0.06572119   0.23343976
618.00  -0.09142479   0.23571562
620.00  -0.11721054   0.23800617
622.00  -0.14307845   0.24031146
624.00  -0.16902848   0.24263154
626.00  -0.19506065   0.24496645
628.00  -0.22117492   0.24731623
630.00  -0.24737130   0.24968095
632.00  -0.27364977   0.25206063
634.00  -0.30001031   0.25445533
636.00  -0.32645292   0.25686509
638.00  -0.35297759   0.25928996
640.00  -0.37958431   0.26172999
642.00  -0.40627305   0.26418523
644.00  -0.43304382   0.26665571
646.00  -0.45989660   0.26914148
648.00  -0.48683138   0.27164260
650.00  -0.51384814   0.27415911
652.00  -0.54094687   0.27669105
654.00  -0.56812757   0.27923847
656.00  -0.59539023   0.28180142
658.00  -0.62273482   0.28437994
660.00  -0.65016133   0.28697408
662.00  -0.67766977   0.28958388
664.00  -0.70526011   0.29220940
666.00  -0.73293234   0.29485067
668.00  -0.76068644   0.29750775
670.00  -0.78852242   0.30018068
672.00  -0.81644026   0.30286950
674.00  -0.84443993   0.30557427
676.00  -0.87252144   0.30829503
678.00  -0.90068477   0.31103182
680.00  -0.92892990   0.31378469
682.00  -0.95725683   0.31655369
684.00  -0.98566555   0.31933886
686.00  -1.01415603   0.32214025
688.00  -1.04272827   0.32495791
690.00  -1.07138226   0.32779187
692.00  -1.10011798   0.33064220
694.00  -1.12893542   0.33350893
696.00  -1.15783457   0.33639210
698.00  -1.18681541   0.33929178
700.00  -1.21587794   0.34220799
702.00  -1.24502214   0.34514079
704.00  -1.27424800   0.34809023
706.00  -1.30355550   0.35105634
708.00  -1.33294464   0.35403918
710.00  -1.36241540   0.35703880
712.00  -1.39196776   0.36005522
714.00  -1.42160172   0.36308852
716.00  -1.45131726   0.36613872
718.00  -1.48111437   0.36920587
720.00  -1.51099304   0.37229003
722.00  -1.54095325   0.37539123
724.00  -1.57099499   0.37850953
726.00  -1.60111825   0.38164496
728.00  -1.63132301   0.38479758
730.00  -1.66160926   0.38796743
732.00  -1.69197699   0.39115455
734.00  -1.72242619   0.39435900
736.00  -1.75295684   0.39758081
738.00  -1.78356892   0.40082004
740.00  -1.81426244   0.40407672
742.00  -1.84503736   0.40735092
744.00  -1.87589368   0.41064266
746.00  -1.90683139   0.41395199
748.00  -1.93785047   0.41727897
750.00  -1.96895091   0.42062364
752.00  -2.00013270   0.42398604
754.00  -2.03139582   0.42736621
756.00  -2.06274026   0.43076422
758.00  -2.09416600   0.43418009
760.00  -2.12567303   0.43761388
762.00  -2.15726134   0.44106563
764.00  -2.18893092   0.44453539
766.00  -2.22068174   0.44802320
768.00  -2.25251381   0.45152911
770.00  -2.28442709   0.45505316
772.00  -2.31642159   0.45859540
774.00  -2.34849728   0.46215588
776.00  -2.38065415   0.46573463
778.00  -2.41289219   0.46933172
780.00  -2.44521138   0.47294717
782.00  -2.47761172   0.47658104
784.00  -2.51009318   0.48023337
786.00  -2.54265575   0.48390422
788.00  -2.57529942   0.48759361
790.00  -2.60802418   0.49130160
792.00  -2.64083000   0.49502824
794.00  -2.67371688   0.49877357
796.00  -2.70668480   0.50253763
798.00  -2.73973375   0.50632048
800.00  -2.77286372   0.51012214
802.00  -2.80607468   0.51394268
804.00  -2.83936662   0.51778214
806.00  -2.87273954   0.52164056
808.00  -2.90619341   0.52551798
810.00  -2.93972823   0.52941446
812.00  -2.97334397   0.53333003
814.00  -3.00704062   0.53726475
816.00  -3.04081817   0.54121866
818.00  -3.07467660   0.54519180
820.00  -3.10861591   0.54918422
822.00  -3.14263607   0.55319596
824.00  -3.17673706   0.55722707
826.00  -3.21091889   0.56127759
828.00  -3.24518152   0.56534758
830.00  -3.27952495   0.56943707
832.00  -3.31394916   0.57354611
834.00  -3.34845413   0.57767474
836.00  -3.38303986   0.58182302
838.00  -3.41770632   0.58599098
840.00  -3.45245351   0.59017867
842.00  -3.48728140   0.59438613
844.00  -3.52218998   0.59861342
846.00  -3.55717924   0.60286057
848.00  -3.59224916   0.60712763
850.00  -3.62739972   0.61141465
852.00  -3.66263092   0.61572166
854.00  -3.69794273   0.62004873
856.00  -3.73333515   0.62439588
858.00  -3.76880815   0.62876317
860.00  -3.80436172   0.63315064
862.00  -3.83999585   0.63755833
864.00  -3.87571051   0.64198630
866.00  -3.91150570   0.64643458
868.00  -3.94738140   0.65090322
870.00  -3.98333760   0.65539227
872.00  -4.01937427   0.65990176
874.00  -4.05549140   0.66443175
876.00  -4.09168898   0.66898228
878.00  -4.12796700   0.67355339
880.00  -4.16432543   0.67814514
882.00  -4.20076426   0.68275755
884.00  -4.23728347   0.68739069
886.00  -4.27388306   0.69204459
888.00  -4.31056300   0.69671929
890.00  -4.34732328   0.70141485
892.00  -4.38416387   0.70613131
894.00  -4.42108478   0.71086871
896.00  -4.45808598   0.71562710
898.00  -4.49516745   0.72040652
900.00  -4.53232918   0.72520701
902.00  -4.56957115   0.73002863
904.00  -4.60689335   0.73487141
906.00  -4.64429576   0.73973540
908.00  -4.68177836   0.74462065
910.00  -4.71934114   0.74952720
912.00  -4.75698409   0.75445509
914.00  -4.79470718   0.75940437
916.00  -4.83251041   0.76437508
918.00  -4.87039374   0.76936727
920.00  -4.90835718   0.77438098
922.00  -4.94640070   0.77941626
924.00  -4.98452428   0.78447315
926.00  -5.02272791   0.78955170
928.00  -5.06101157   0.79465194
930.00  -5.09937525   0.79977393
932.00  -5.13781894   0.80491771
934.00  -5.17634260   0.81008332
936.00  -5.21494623   0.81527081
938.00  -5.25362981   0.82048022
940.00  -5.29239333   0.82571160
942.00  -5.33123676   0.83096499
944.00  -5.37016009   0.83624043
946.00  -5.40916331   0.84153798
948.00  -5.44824639   0.84685766
950.00  -5.48740933   0.85219954
952.00  -5.52665210   0.85756364
954.00  -5.56597468   0.86295003
956.00  -5.60537707   0.86835873
958.00  -5.64485924   0.87378980
960.00  -5.68442118   0.87924328
962.00  -5.72406286   0.88471921
964.00  -5.76378428   0.89021764
966.00  -5.80358542   0.89573861
968.00  -5.84346625   0.90128216
970.00  -5.88342677   0.90684835
972.00  -5.92346695   0.91243721
974.00  -5.96358677   0.91804879
976.00  -6.00378623   0.92368312
978.00  -6.04406530   0.92934027
980.00  -6.08442397   0.93502027
982.00  -6.12486222   0.94072315
984.00  -6.16538002   0.94644898
986.00  -6.20597737   0.95219779
988.00  -6.24665425   0.95796963
990.00  -6.28741064   0.96376453
992.00  -6.32824652   0.96958255
994.00  -6.36916188   0.97542373
996.00  -6.41015669   0.98128811
998.00  -6.45123094   0.98717574
1000.00  -6.49238461   0.99308665
1002.00  -6.53361769   0.99902090
1004.00  -6.57493016   1.00497853
1006.00  -6.61632200   1.01095957
1008.00  -6.65779318   1.01696409
1010.00  -6.69934370   1.02299211
1012.00  -6.74097354   1.02904368
1014.00  -6.78268268   1.03511885
1016.00  -6.82447110   1.04121766
1018.00  -6.86633878   1.04734015
1020.00  -6.90828571   1.05348637
1022.00  -6.95031186   1.05965636
1024.00  -6.99241722   1.06585017
1026.00  -7.03460178   1.07206783
1028.00  -7.07686551   1.07830940
1030.00  -7.11920839   1.08457491
1032.00  -7.16163041   1.09086442
1034.00  -7.20413155   1.09717795
1036.00  -7.24671180   1.10351556
1038.00  -7.28937112   1.10987729
1040.00  -7.33210951   1.11626319
1042.00  -7.37492695   1.12267329
1044.00  -7.41782342   1.12910764
1046.00  -7.46079890   1.13556629
1048.00  -7.50385337   1.14204927
1050.00  -7.54698681   1.14855664
1052.00  -7.59019921   1.15508843
1054.00  -7.63349055   1.16164468
1056.00  -7.67686080   1.16822545
1058.00  -7.72030996   1.17483077
1060.00  -7.76383799   1.18146069
1062.00  -7.80744489   1.18811526
1064.00  -7.85113064   1.19479450
1066.00  -7.89489521   1.20149848
1068.00  -7.93873859   1.20822723
1070.00  -7.98266076   1.21498079
1072.00  -8.02666170   1.22175921
1074.00  -8.07074139   1.22856252
1076.00  -8.11489981   1.23539079
1078.00  -8.15913695   1.24224404
1080.00  -8.20345279   1.24912232
1082.00  -8.24784730   1.25602568
1084.00  -8.29232046   1.26295415
1086.00  -8.33687227   1.26990779
1088.00  -8.38150270   1.27688662
1090.00  -8.42621172   1.28389071
1092.00  -8.47099933   1.29092008
1094.00  -8.51586551   1.29797478
1096.00  -8.56081022   1.30505486
1098.00  -8.60583347   1.31216036
1100.00  -8.65093521   1.31929133
1102.00  -8.69611545   1.32644779
1104.00  -8.74137415   1.33362980
1106.00  -8.78671130   1.34083741
1108.00  -8.83212688   1.34807065
1110.00  -8.87762087   1.35532956
1112.00  -8.92319325   1.36261419
1114.00  -8.96884400   1.36992459
1116.00  -9.01457311   1.37726079
1118.00  -9.06038054   1.38462284
1120.00  -9.10626629   1.39201078
1122.00  -9.15223034   1.39942465
1124.00  -9.19827265   1.40686450
1126.00  -9.24439323   1.41433037
1128.00  -9.29059203   1.42182230
1130.00  -9.33686906   1.42934034
1132.00  -9.38322428   1.43688452
1134.00  -9.42965767   1.44445489
1136.00  -9.47616923   1.45205150
1138.00  -9.52275892   1.45967438
1140.00  -9.56942672   1.46732358
1142.00  -9.61617263   1.47499914
1144.00  -9.66299661   1.48270111
1146.00  -9.70989866   1.49042952
1148.00  -9.75687874   1.49818442
1150.00  -9.80393683   1.50596585
1152.00  -9.85107293   1.51377385
1154.00  -9.89828701   1.52160847
1156.00  -9.94557904   1.52946975
1158.00  -9.99294901   1.53735773
1160.00 -10.04039691   1.54527245
1162.00 -10.08792270   1.55321396
1164.00 -10.13552637   1.56118230
1166.00 -10.18320789   1.56917751
1168.00 -10.23096726   1.57719963
1170.00 -10.27880444   1.58524871
1172.00 -10.32671943   1.59332479
1174.00 -10.37471218   1.60142790
1176.00 -10.42278270   1.60955810
1178.00 -10.47093096   1.61771543
1180.00 -10.51915693   1.62589992
1182.00 -10.56746060   1.63411162
1184.00 -10.61584194   1.64235057
1186.00 -10.66430094   1.65061682
1188.00 -10.71283757   1.65891041
1190.00 -10.76145182   1.66723137
1192.00 -10.81014367   1.67557975
1194.00 -10.85891308   1.68395560
1196.00 -10.90776006   1.69235895
1198.00 -10.95668456   1.70078985
1200.00 -11.00568657   1.70924833
1202.00 -11.05476608   1.71773445
1204.00 -11.10392306   1.72624824
1206.00 -11.15315749   1.73478975
1208.00 -11.20246934   1.74335901
1210.00 -11.25185861   1.75195607
1212.00 -11.30132526   1.76058098
1214.00 -11.35086928   1.76923377
1216.00 -11.40049065   1.77791448
1218.00 -11.45018934   1.78662316
1220.00 -11.49996533   1.79535985
1222.00 -11.54981861   1.80412458
1224.00 -11.59974915   1.81291742
1226.00 -11.64975693   1.82173838
1228.00 -11.69984193   1.83058753
1230.00 -11.75000413   1.83946489
1232.00 -11.80024351   1.84837051
1234.00 -11.85056005   1.85730443
1236.00 -11.90095372   1.86626669
1238.00 -11.95142451   1.87525735
1240.00 -12.00197239   1.88427642
1242.00 -12.05259734   1.89332397
1244.00 -12.10329934   1.90240002
1246.00 -12.15407837   1.91150463
1248.00 -12.20493441   1.92063783
1250.00 -12.25586744   1.92979967
1252.00 -12.30687743   1.93899018
1254.00 -12.35796437   1.94820941
1256.00 -12.40912822   1.95745741
1258.00 -12.46036898   1.96673420
1260.00 -12.51168662   1.97603983
1262.00 -12.56308112   1.98537435
1264.00 -12.61455245   1.99473780
1266.00 -12.66610060   2.00413021
1268.00 -12.71772554   2.01355163
1270.00 -12.76942726   2.02300210
1272.00 -12.82120572   2.03248166
1274.00 -12.87306091   2.04199035
1276.00 -12.92499281   2.05152822
1278.00 -12.97700139   2.06109530
1280.00 -13.02908664   2.07069164
1282.00 -13.08124852   2.08031728
1284.00 -13.13348703   2.08997226
1286.00 -13.18580213   2.09965662
1288.00 -13.23819381   2.10937040
1290.00 -13.29066204   2.11911364
1292.00 -13.34320680   2.12888638
1294.00 -13.39582807   2.13868868
1296.00 -13.44852583   2.14852055
1298.00 -13.50130006   2.15838206
1300.00 -13.55415073   2.16827323
1302.00 -13.60707782   2.17819411
1304.00 -13.66008130   2.18814475
1306.00 -13.71316117   2.19812517
1308.00 -13.76631739   2.20813543
1310.00 -13.81954994   2.21817556
1312.00 -13.87285880   2.22824561
1314.00 -13.92624395   2.23834561
1316.00 -13.97970537   2.24847561
1318.00 -14.03324302   2.25863565
1320.00 -14.08685690   2.26882576
1322.00 -14.14054698   2.27904599
1324.00 -14.19431323   2.28929639
1326.00 -14.24815564   2.29957698
1328.00 -14.30207418   2.30988782
1330.00 -14.35606882   2.32022894
1332.00 -14.41013955   2.33060038
1334.00 -14.46428635   2.34100219
1336.00 -14.51850918   2.35143440
1338.00 -14.57280804   2.36189705
1340.00 -14.62718288   2.37239020
1342.00 -14.68163371   2.38291387
1344.00 -14.73616048   2.39346810
1346.00 -14.79076318   2.40405295
1348.00 -14.84544178   2.41466844
1350.00 -14.90019626   2.42531462
1352.00 -14.95502661   2.43599154
1354.00 -15.00993278   2.44669922
1356.00 -15.06491478   2.45743771
1358.00 -15.11997256   2.46820706
1360.00 -15.17510611   2.47900729
1362.00 -15.23031540   2.48983846
1364.00 -15.28560041   2.50070060
1366.00 -15.34096113   2.51159376
1368.00 -15.39639751   2.52251797
1370.00 -15.45190955   2.53347327
1372.00 -15.50749722   2.54445971
1374.00 -15.56316050   2.55547732
1376.00 -15.61889935   2.56652614
1378.00 -15.67471377   2.57760622
1380.00 -15.73060372   2.58871760
1382.00 -15.78656919   2.59986031
1384.00 -15.84261014   2.61103440
1386.00 -15.89872656   2.62223990
1388.00 -15.95491842   2.63347686
1390.00 -16.01118571   2.64474532
1392.00 -16.06752839   2.65604531
1394.00 -16.12394644   2.66737688
1396.00 -16.18043984   2.67874007
1398.00 -16.23700857   2.69013491
1400.00 -16.29365259   2.70156145
1402.00 -16.35037190   2.71301972
1404.00 -16.40716647   2.72450978
1406.00 -16.46403626   2.73603165
1408.00 -16.52098126   2.74758537
1410.00 -16.57800145   2.75917099
1412.00 -16.63509680   2.77078855
1414.00 -16.69226728   2.78243809
1416.00 -16.74951288   2.79411964
1418.00 -16.80683357   2.80583325
1420.00 -16.86422932   2.81757895
1422.00 -16.92170011   2.82935679
1424.00 -16.97924593   2.84116681
1426.00 -17.03686673   2.85300904
1428.00 -17.09456251   2.86488353
1430.00 -17.15233323   2.87679031
1432.00 -17.21017888   2.88872942
1434.00 -17.26809942   2.90070091
1436.00 -17.32609484   2.91270482
1438.00 -17.38416511   2.92474117
1440.00 -17.44231020   2.93681002
1442.00 -17.50053010   2.94891141
1444.00 -17.55882478   2.96104536
1446.00 -17.61719421   2.97321193
1448.00 -17.67563837   2.98541115
1450.00 -17.73415723   2.99764305
1452.00 -17.79275078   3.00990769
1454.00 -17.85141898   3.02220510
1456.00 -17.91016182   3.03453532
1458.00 -17.96897926   3.04689838
1460.00 -18.02787129   3.05929434
1462.00 -18.08683788   3.07172322
1464.00 -18.14587901   3.08418507
1466.00 -18.20499464   3.09667992
1468.00 -18.26418477   3.10920782
1470.00 -18.32344935   3.12176880
1472.00 -18.38278837   3.13436291
1474.00 -18.44220181   3.14699018
1476.00 -18.50168963   3.15965065
1478.00 -18.56125182   3.17234436
1480.00 -18.62088835   3.18507136
1482.00 -18.68059919   3.19783167
1484.00 -18.74038433   3.21062534
1486.00 -18.80024372   3.22345241
1488.00 -18.86017736   3.23631292
1490.00 -18.92018522   3.24920690
1492.00 -18.98026727   3.26213440
1494.00 -19.04042348   3.27509545
1496.00 -19.10065383   3.28809010
1498.00 -19.16095831   3.30111837
1500.00 -19.22133687   3.31418032
1502.00 -19.28178950   3.32727598
1504.00 -19.34231618   3.34040538
1506.00 -19.40291687   3.35356858
1508.00 -19.46359155   3.36676560
1510.00 -19.52434020   3.37999648
1512.00 -19.58516279   3.39326127
1514.00 -19.64605930   3.40656000
1516.00 -19.70702971   3.41989271
1518.00 -19.76807398   3.43325944
1520.00 -19.82919209   3.44666024
1522.00 -19.89038402   3.46009512
1524.00 -19.95164974   3.47356415
1526.00 -20.01298922   3.48706735
1528.00 -20.07440245   3.50060476
1530.00 -20.13588939   3.51417643
1532.00 -20.19745003   3.52778239
1534.00 -20.25908433   3.54142267
1536.00 -20.32079227   3.55509732
1538.00 -20.38257382   3.56880638
1540.00 -20.44442896   3.58254989
1542.00 -20.50635767   3.59632787
1544.00 -20.56835992   3.61014038
1546.00 -20.63043568   3.62398745
1548.00 -20.69258492   3.63786912
1550.00 -20.75480763   3.65178542
1552.00 -20.81710377   3.66573640
1554.00 -20.87947333   3.67972209
1556.00 -20.94191627   3.69374253
1558.00 -21.00443257   3.70779776
1560.00 -21.06702220   3.72188782
1562.00 -21.12968515   3.73601275
1564.00 -21.19242137   3.75017258
1566.00 -21.25523085   3.76436736
1568.00 -21.31811356   3.77859711
1570.00 -21.38106948   3.79286189
1572.00 -21.44409858   3.80716172
1574.00 -21.50720083   3.82149664
1576.00 -21.57037621   3.83586670
1578.00 -21.63362469   3.85027193
1580.00 -21.69694625   3.86471237
1582.00 -21.76034086   3.87918806
1584.00 -21.82380849   3.89369903
1586.00 -21.88734912   3.90824532
1588.00 -21.95096272   3.92282698
1590.00 -22.01464927   3.93744403
1592.00 -22.07840874   3.95209652
1594.00 -22.14224110   3.96678449
1596.00 -22.20614633   3.98150796
1598.00 -22.27012440   3.99626699
1600.00 -22.33417529   4.01106161
1602.00 -22.39829897   4.02589185
1604.00 -22.46249541   4.04075775
1606.00 -22.52676458   4.05565936
1608.00 -22.59110647   4.07059670
1610.00 -22.65552104   4.08556982
1612.00 -22.72000828   4.10057876
1614.00 -22.78456814   4.11562354
1616.00 -22.84920061   4.13070422
1618.00 -22.91390565   4.14582082
1620.00 -22.97868325   4.16097338
1622.00 -23.04353338   4.17616195
1624.00 -23.10845601   4.19138656
1626.00 -23.17345110   4.20664724
1628.00 -23.23851865   4.22194404
1630.00 -23.30365862   4.23727699
1632.00 -23.36887098   4.25264612
1634.00 -23.43415570   4.26805149
1636.00 -23.49951277   4.28349312
1638.00 -23.56494215   4.29897104
1640.00 -23.63044382   4.31448531
1642.00 -23.69601775   4.33003595
1644.00 -23.76166392   4.34562301
1646.00 -23.82738229   4.36124651
1648.00 -23.89317284   4.37690650
1650.00 -23.95903554   4.39260302
1652.00 -24.02497037   4.40833609
1654.00 -24.09097730   4.42410577
1656.00 -24.15705631   4.43991208
1658.00 -24.22320736   4.45575506
1660.00 -24.28943043   4.47163475
1662.00 -24.35572549   4.48755119
1664.00 -24.42209252   4.50350442
1666.00 -24.48853148   4.51949446
1668.00 -24.55504236   4.53552136
1670.00 -24.62162512   4.55158516
1672.00 -24.68827974   4.56768588
1674.00 -24.75500619   4.58382358
1676.00 -24.82180445   4.59999828
1678.00 -24.88867448   4.61621002
1680.00 -24.95561625   4.63245884
1682.00 -25.02262975   4.64874478
1684.00 -25.08971495   4.66506786
1686.00 -25.15687181   4.68142814
1688.00 -25.22410031   4.69782564
1690.00 -25.29140043   4.71426041
1692.00 -25.35877213   4.73073247
1694.00 -25.42621539   4.74724187
1696.00 -25.49373018   4.76378865
1698.00 -25.56131647   4.78037283
1700.00 -25.62897424   4.79699445
1702.00 -25.69670346   4.81365356
1704.00 -25.76450410   4.83035018
1706.00 -25.83237613   4.84708437
1708.00 -25.90031953   4.86385614
1710.00 -25.96833427   4.88066554
1712.00 -26.03642032   4.89751260
1714.00 -26.10457765   4.91439736
1716.00 -26.17280624   4.93131986
1718.00 -26.24110606   4.94828014
1720.00 -26.30947708   4.96527822
1722.00 -26.37791927   4.98231415
1724.00 -26.44643261   4.99938796
1726.00 -26.51501707   5.01649969
1728.00 -26.58367262   5.03364937
1730.00 -26.65239923   5.05083705
1732.00 -26.72119687   5.06806275
1734.00 -26.79006552   5.08532651
1736.00 -26.85900515   5.10262837
1738.00 -26.92801574   5.11996837
1740.00 -26.99709724   5.13734654
1742.00 -27.06624964   5.15476291
1744.00 -27.13547291   5.17221753
1746.00 -27.20476702   5.18971043
1748.00 -27.27413194   5.20724164
1750.00 -27.34356765   5.22481120
1752.00 -27.41307411   5.24241915
1754.00 -27.48265129   5.26006552
1756.00 -27.55229918   5.27775035
1758.00 -27.62201774   5.29547368
1760.00 -27.69180694   5.31323553
1762.00 -27.76166676   5.33103595
1764.00 -27.83159717   5.34887498
1766.00 -27.90159813   5.36675264
1768.00 -27.97166963   5.38466897
1770.00 -28.04181163   5.40262401
1772.00 -28.11202410   5.42061780
1774.00 -28.18230702   5.43865036
1776.00 -28.25266036   5.45672174
1778.00 -28.32308409   5.47483198
1780.00 -28.39357818   5.49298109
1782.00 -28.46414260   5.51116914
1784.00 -28.53477733   5.52939613
1786.00 -28.60548233   5.54766213
1788.00 -28.67625758   5.56596715
1790.00 -28.74710305   5.58431123
1792.00 -28.81801872   5.60269442
1794.00 -28.88900454   5.62111673
1796.00 -28.96006050   5.63957822
1798.00 -29.03118656   5.65807892
1800.00 -29.10238271   5.67661885
1802.00 -29.17364889   5.69519806
1804.00 -29.24498510   5.71381658
1806.00 -29.31639130   5.73247445
1808.00 -29.38786747   5.75117170
1810.00 -29.45941356   5.76990837
1812.00 -29.53102957   5.78868449
1814.00 -29.60271545   5.80750009
1816.00 -29.67447117   5.82635522
1818.00 -29.74629672   5.84524990
1820.00 -29.81819205   5.86418418
1822.00 -29.89015715   5.88315808
1824.00 -29.96219198   5.90217165
1826.00 -30.03429652   5.92122491
1828.00 -30.10647072   5.94031790
1830.00 -30.17871458   5.95945066
1832.00 -30.25102805   5.97862323
1834.00 -30.32341111   5.99783563
1836.00 -30.39586373   6.01708790
1838.00 -30.46838588   6.03638007
1840.00 -30.54097753   6.05571219
1842.00 -30.61363866   6.07508428
1844.00 -30.68636922   6.09449639
1846.00 -30.75916920   6.11394854
1848.00 -30.83203857   6.13344077
1850.00 -30.90497729   6.15297311
1852.00 -30.97798534   6.17254560
1854.00 -31.05106269   6.19215828
1856.00 -31.12420930   6.21181117
1858.00 -31.19742516   6.23150432
1860.00 -31.27071022   6.25123775
1862.00 -31.34406447   6.27101150
1864.00 -31.41748787   6.29082562
1866.00 -31.49098039   6.31068012
1868.00 -31.56454200   6.33057504
1870.00 -31.63817268   6.35051043
1872.00 -31.71187239   6.37048631
1874.00 -31.78564111   6.39050272
1876.00 -31.85947880   6.41055969
1878.00 -31.93338544   6.43065725
1880.00 -32.00736100   6.45079545
1882.00 -32.08140544   6.47097431
1884.00 -32.15551874   6.49119387
1886.00 -32.22970087   6.51145417
1888.00 -32.30395180   6.53175523
1890.00 -32.37827150   6.55209710
1892.00 -32.45265993   6.57247979
1894.00 -32.52711708   6.59290336
1896.00 -32.60164291   6.61336784
1898.00 -32.67623739   6.63387325
1900.00 -32.75090049   6.65441963
1902.00 -32.82563218   6.67500702
1904.00 -32.90043244   6.69563545
1906.00 -32.97530123   6.71630495
1908.00 -33.05023852   6.73701556
1910.00 -33.12524428   6.75776731
1912.00 -33.20031849   6.77856023
1914.00 -33.27546110   6.79939437
1916.00 -33.35067211   6.82026975
1918.00 -33.42595146   6.84118640
1920.00 -33.50129915   6.86214436
1922.00 -33.57671512   6.88314367
1924.00 -33.65219936   6.90418436
1926.00 -33.72775183   6.92526645
1928.00 -33.80337251   6.94638999
1930.00 -33.87906136   6.96755501
1932.00 -33.95481835   6.98876154
1934.00 -34.03064346   7.01000962
1936.00 -34.10653666   7.03129927
1938.00 -34.18249791   7.05263054
1940.00 -34.25852718   7.07400345
1942.00 -34.33462445   7.09541805
1944.00 -34.41078968   7.11687435
1946.00 -34.48702284   7.13837240
1948.00 -34.56332391   7.15991223
1950.00 -34.63969285   7.18149387
1952.00 -34.71612964   7.20311736
1954.00 -34.79263424   7.22478273
1956.00 -34.86920662   7.24649001
1958.00 -34.94584675   7.26823924
1960.00 -35.02255461   7.29003044
1962.00 -35.09933016   7.31186366
1964.00 -35.17617337   7.33373892
1966.00 -35.25308421   7.35565626
1968.00 -35.33006266   7.37761571
1970.00 -35.40710867   7.39961731
1972.00 -35.48422223   7.42166108
1974.00 -35.56140329   7.44374706
1976.00 -35.63865183   7.46587529
1978.00 -35.71596783   7.48804579
1980.00 -35.79335124   7.51025860
1982.00 -35.87080204   7.53251375
1984.00 -35.94832020   7.55481128
1986.00 -36.02590569   7.57715122
1988.00 -36.10355847   7.59953359
1990.00 -36.18127852   7.62195844
1992.00 -36.25906580   7.64442580
1994.00 -36.33692029   7.66693569
1996.00 -36.41484195   7.68948816
1998.00 -36.49283076   7.71208323
2000.00 -36.57088668   7.73472093
2002.00 -36.64900968   7.75740131
2004.00 -36.72719974   7.78012438
2006.00 -36.80545681   7.80289019
2008.00 -36.88378088   7.82569877
2010.00 -36.96217190   7.84855015
2012.00 -37.04062985   7.87144436
2014.00 -37.11915470   7.89438143
2016.00 -37.19774642   7.91736141
2018.00 -37.27640497   7.94038431
2020.00 -37.35513033   7.96345017
2022.00 -37.43392246   7.98655902
2024.00 -37.51278134   8.00971090
2026.00 -37.59170693   8.03290584
2028.00 -37.67069920   8.05614387
2030.00 -37.74975812   8.07942503
2032.00 -37.82888366   8.10274934
2034.00 -37.90807579   8.12611683
2036.00 -37.98733448   8.14952755
2038.00 -38.06665969   8.17298152
2040.00 -38.14605140   8.19647877
2042.00 -38.22550958   8.22001933
2044.00 -38.30503418   8.24360325
2046.00 -38.38462519   8.26723054
2048.00 -38.46428257   8.29090125
2050.00 -38.54400630   8.31461540
2052.00 -38.62379632   8.33837302
2054.00 -38.70365263   8.36217415
2056.00 -38.78357519   8.38601883
2058.00 -38.86356395   8.40990707
2060.00 -38.94361891   8.43383892
2062.00 -39.02374001   8.45781440
2064.00 -39.10392724   8.48183354
2066.00 -39.18418056   8.50589639
2068.00 -39.26449993   8.53000297
2070.00 -39.34488534   8.55415330
2072.00 -39.42533674   8.57834743
2074.00 -39.50585410   8.60258539
2076.00 -39.58643740   8.62686720
2078.00 -39.66708660   8.65119290
2080.00 -39.74780167   8.67556252
2082.00 -39.82858258   8.69997609
2084.00 -39.90942929   8.72443365
2086.00 -39.99034179   8.74893522
2088.00 -40.07132002   8.77348083
2090.00 -40.15236398   8.79807052
2092.00 -40.23347361   8.82270432
2094.00 -40.31464889   8.84738226
2096.00 -40.39588979   8.87210437
2098.00 -40.47719628   8.89687068
2100.00 -40.55856832   8.92168123
2102.00 -40.64000589   8.94653604
2104.00 -40.72150894   8.97143514
2106.00 -40.80307746   8.99637858
2108.00 -40.88471141   9.02136637
2110.00 -40.96641075   9.04639855
2112.00 -41.04817546   9.07147515
2114.00 -41.13000550   9.09659620
2116.00 -41.21190084   9.12176174
2118.00 -41.29386146   9.14697179
2120.00 -41.37588731   9.17222638
2122.00 -41.45797837   9.19752555
2124.00 -41.54013460   9.22286932
2126.00 -41.62235597   9.24825774
2128.00 -41.70464246   9.27369082
2130.00 -41.78699402   9.29916860
2132.00 -41.86941063   9.32469111
2134.00 -41.95189225   9.35025838
2136.00 -42.03443886   9.37587044
2138.00 -42.11705042   9.40152733
2140.00 -42.19972690   9.42722906
2142.00 -42.28246826   9.45297568
2144.00 -42.36527448   9.47876722
2146.00 -42.44814553   9.50460370
2148.00 -42.53108136   9.53048515
2150.00 -42.61408195   9.55641162
2152.00 -42.69714727   9.58238311
2154.00 -42.78027729   9.60839968
2156.00 -42.86347197   9.63446134
2158.00 -42.94673127   9.66056813
2160.00 -43.03005518   9.68672008
2162.00 -43.11344365   9.71291721
2164.00 -43.19689666   9.73915957
2166.00 -43.28041416   9.76544717
2168.00 -43.36399614   9.79178006
2170.00 -43.44764256   9.81815825
2172.00 -43.53135338   9.84458179
2174.00 -43.61512857   9.87105069
2176.00 -43.69896810   9.89756500
2178.00 -43.78287194   9.92412474
2180.00 -43.86684006   9.95072994
2182.00 -43.95087242   9.97738062
2184.00 -44.03496899  10.00407683
2186.00 -44.11912974  10.03081860
2188.00 -44.20335463  10.05760594
2190.00 -44.28764364  10.08443889
2192.00 -44.37199673  10.11131749
2194.00 -44.45641387  10.13824175
2196.00 -44.54089503  10.16521172
2198.00 -44.62544017  10.19222742
2200.00 -44.71004926  10.21928888
2202.00 -44.79472228  10.24639613
2204.00 -44.87945917  10.27354920
2206.00 -44.96425993  10.30074812
2208.00 -45.04912450  10.32799292
2210.00 -45.13405286  10.35528362
2212.00 -45.21904498  10.38262027
2214.00 -45.30410082  10.41000289
2216.00 -45.38922036  10.43743151
2218.00 -45.47440355  10.46490615
2220.00 -45.55965037  10.49242685
2222.00 -45.64496078  10.51999364
2224.00 -45.73033475  10.54760655
2226.00 -45.81577225  10.57526560
2228.00 -45.90127324  10.60297083
2230.00 -45.98683770  10.63072226
2232.00 -46.07246558  10.65851993
2234.00 -46.15815686  10.68636386
2236.00 -46.24391151  10.71425409
2238.00 -46.32972949  10.74219064
2240.00 -46.41561076  10.77017353
2242.00 -46.50155530  10.79820282
2244.00 -46.58756307  10.82627851
2246.00 -46.67363405  10.85440064
2248.00 -46.75976819  10.88256924
2250.00 -46.84596546  10.91078433
2252.00 -46.93222583  10.93904596
2254.00 -47.01854927  10.96735414
2256.00 -47.10493575  10.99570890
2258.00 -47.19138523  11.02411028
2260.00 -47.27789767  11.05255831
2262.00 -47.36447306  11.08105300
2264.00 -47.45111134  11.10959440
2266.00 -47.53781250  11.13818252
2268.00 -47.62457649  11.16681741
2270.00 -47.71140329  11.19549908
2272.00 -47.79829286  11.22422757
2274.00 -47.88524516  11.25300290
2276.00 -47.97226017  11.28182511
2278.00 -48.05933786  11.31069422
2280.00 -48.14647818  11.33961026
2282.00 -48.23368110  11.36857327
2284.00 -48.32094660  11.39758326
2286.00 -48.40827463  11.42664027
2288.00 -48.49566517  11.45574432
2290.00 -48.58311819  11.48489545
2292.00 -48.67063364  11.51409368
2294.00 -48.75821150  11.54333905
2296.00 -48.84585173  11.57263157
2298.00 -48.93355430  11.60197129
2300.00 -49.02131917  11.63135822
2302.00 -49.10914632  11.66079239
2304.00 -49.19703571  11.69027384
2306.00 -49.28498730  11.71980260
2308.00 -49.37300107  11.74937868
2310.00 -49.46107697  11.77900212
2312.00 -49.54921498  11.80867295
2314.00 -49.63741507  11.83839119
2316.00 -49.72567719  11.86815688
2318.00 -49.81400132  11.89797004
2320.00 -49.90238742  11.92783070
2322.00 -49.99083545  11.95773888
2324.00 -50.07934540  11.98769462
2326.00 -50.16791721  12.01769795
2328.00 -50.25655086  12.04774889
2330.00 -50.34524632  12.07784747
2332.00 -50.43400355  12.10799371
2334.00 -50.52282252  12.13818765
2336.00 -50.61170319  12.16842932
2338.00 -50.70064553  12.19871873
2340.00 -50.78964950  12.22905593
2342.00 -50.87871508  12.25944093
2344.00 -50.96784223  12.28987377
2346.00 -51.05703092  12.32035447
2348.00 -51.14628111  12.35088307
2350.00 -51.23559276  12.38145958
2352.00 -51.32496585  12.41208403
2354.00 -51.41440034  12.44275646
2356.00 -51.50389620  12.47347689
2358.00 -51.59345339  12.50424535
2360.00 -51.68307189  12.53506187
2362.00 -51.77275164  12.56592647
2364.00 -51.86249263  12.59683918
2366.00 -51.95229482  12.62780003
2368.00 -52.04215818  12.65880905
2370.00 -52.13208266  12.68986626
2372.00 -52.22206824  12.72097169
2374.00 -52.31211489  12.75212537
2376.00 -52.40222256  12.78332732
2378.00 -52.49239123  12.81457758
2380.00 -52.58262086  12.84587617
2382.00 -52.67291142  12.87722311
2384.00 -52.76326287  12.90861844
2386.00 -52.85367518  12.94006219
2388.00 -52.94414832  12.97155437
2390.00 -53.03468225  13.00309501
2392.00 -53.12527694  13.03468415
2394.00 -53.21593235  13.06632182
2396.00 -53.30664845  13.09800802
2398.00 -53.39742520  13.12974281
2400.00 -53.48826258  13.16152619
2402.00 -53.57916055  13.19335820
2404.00 -53.67011907  13.22523887
2406.00 -53.76113811  13.25716822
2408.00 -53.85221763  13.28914628
2410.00 -53.94335761  13.32117307
2412.00 -54.03455800  13.35324863
2414.00 -54.12581878  13.38537297
2416.00 -54.21713990  13.41754613
2418.00 -54.30852134  13.44976814
2420.00 -54.39996307  13.48203901
2422.00 -54.49146503  13.51435878
2424.00 -54.58302721  13.54672747
2426.00 -54.67464957  13.57914511
2428.00 -54.76633207  13.61161173
2430.00 -54.85807468  13.64412735
2432.00 -54.94987737  13.67669200
2434.00 -55.04174010  13.70930570
2436.00 -55.13366283  13.74196849
2438.00 -55.22564554  13.77468038
2440.00 -55.31768818  13.80744141
2442.00 -55.40979073  13.84025160
2444.00 -55.50195315  13.87311097
2446.00 -55.59417540  13.90601956
2448.00 -55.68645746  13.93897739
2450.00 -55.77879928  13.97198449
2452.00 -55.87120083  14.00504088
2454.00 -55.96366208  14.03814658
2456.00 -56.05618300  14.07130164
2458.00 -56.14876354  14.10450606
2460.00 -56.24140368  14.13775988
2462.00 -56.33410337  14.17106312
2464.00 -56.42686260  14.20441581
2466.00 -56.51968131  14.23781797
2468.00 -56.61255948  14.27126964
2470.00 -56.70549707  14.30477083
2472.00 -56.79849405  14.33832158
2474.00 -56.89155038  14.37192190
2476.00 -56.98466603  14.40557183
2478.00 -57.07784097  14.43927139
2480.00 -57.17107515  14.47302061
2482.00 -57.26436855  14.50681950
2484.00 -57.35772113  14.54066811
2486.00 -57.45113285  14.57456645
2488.00 -57.54460368  14.60851454
2490.00 -57.63813359  14.64251242
2492.00 -57.73172255  14.67656012
2494.00 -57.82537051  14.71065764
2496.00 -57.91907744  14.74480503
2498.00 -58.01284331  14.77900231
2500.00 -58.10666808  14.81324950
2502.00 -58.20055172  14.84754663
2504.00 -58.29449419  14.88189372
2506.00 -58.38849546  14.91629079
2508.00 -58.48255550  14.95073789
2510.00 -58.57667426  14.98523502
2512.00 -58.67085172  15.01978222
2514.00 -58.76508784  15.05437951
2516.00 -58.85938259  15.08902691
2518.00 -58.95373592  15.12372445
2520.00 -59.04814781  15.15847216
2522.00 -59.14261822  15.19327006
2524.00 -59.23714711  15.22811818
2526.00 -59.33173446  15.26301654
2528.00 -59.42638022  15.29796516
2530.00 -59.52108436  15.33296408
2532.00 -59.61584685  15.36801331
2534.00 -59.71066765  15.40311289
2536.00 -59.80554673  15.43826283
2538.00 -59.90048405  15.47346316
2540.00 -59.99547957  15.50871391
2542.00 -60.09053327  15.54401510
2544.00 -60.18564510  15.57936675
2546.00 -60.28081503  15.61476890
2548.00 -60.37604303  15.65022156
2550.00 -60.47132906  15.68572477
2552.00 -60.56667309  15.72127853
2554.00 -60.66207508  15.75688289
2556.00 -60.75753499  15.79253786
2558.00 -60.85305280  15.82824348
2560.00 -60.94862846  15.86399975
2562.00 -61.04426195  15.89980672
2564.00 -61.13995322  15.93566439
2566.00 -61.23570224  15.97157281
2568.00 -61.33150898  16.00753198
2570.00 -61.42737339  16.04354195
2572.00 -61.52329546  16.07960272
2574.00 -61.61927513  16.11571433
2576.00 -61.71531238  16.15187680
2578.00 -61.81140717  16.18809015
2580.00 -61.90755947  16.22435441
2582.00 -62.00376924  16.26066961
2584.00 -62.10003644  16.29703576
2586.00 -62.19636104  16.33345289
2588.00 -62.29274300  16.36992103
2590.00 -62.38918229  16.40644019
2592.00 -62.48567888  16.44301041
2594.00 -62.58223273  16.47963171
2596.00 -62.67884380  16.51630411
2598.00 -62.77551205  16.55302764
2600.00 -62.87223746  16.58980232
2602.00 -62.96901999  16.62662817
2604.00 -63.06585960  16.66350521
2606.00 -63.16275626  16.70043348
2608.00 -63.25970993  16.73741300
2610.00 -63.35672057  16.77444378
2612.00 -63.45378816  16.81152586
2614.00 -63.55091265  16.84865926
2616.00 -63.64809401  16.88584400
2618.00 -63.74533221  16.92308010
2620.00 -63.84262720  16.96036759
2622.00 -63.93997896  16.99770649
2624.00 -64.03738745  17.03509683
2626.00 -64.13485263  17.07253863
2628.00 -64.23237447  17.11003191
2630.00 -64.32995293  17.14757670
2632.00 -64.42758798  17.18517301
2634.00 -64.52527958  17.22282089
2636.00 -64.62302769  17.26052033
2638.00 -64.72083229  17.29827138
2640.00 -64.81869333  17.33607406
2642.00 -64.91661078  17.37392838
2644.00 -65.01458460  17.41183437
2646.00 -65.11261477  17.44979206
2648.00 -65.21070123  17.48780146
2650.00 -65.30884396  17.52586261
2652.00 -65.40704293  17.56397552
2654.00 -65.50529809  17.60214021
2656.00 -65.60360941  17.64035672
2658.00 -65.70197685  17.67862506
2660.00 -65.80040039  17.71694526
2662.00 -65.89887998  17.75531734
2664.00 -65.99741559  17.79374132
2666.00 -66.09600718  17.83221722
2668.00 -66.19465471  17.87074508
2670.00 -66.29335816  17.90932491
2672.00 -66.39211748  17.94795673
2674.00 -66.49093265  17.98664057
2676.00 -66.58980361  18.02537645
2678.00 -66.68873035  18.06416440
2680.00 -66.78771282  18.10300443
2682.00 -66.88675098  18.14189657
2684.00 -66.98584481  18.18084084
2686.00 -67.08499426  18.21983727
2688.00 -67.18419931  18.25888587
2690.00 -67.28345990  18.29798668
2692.00 -67.38277602  18.33713971
2694.00 -67.48214762  18.37634498
2696.00 -67.58157466  18.41560252
2698.00 -67.68105712  18.45491235
2700.00 -67.78059495  18.49427450
2702.00 -67.88018812  18.53368898
2704.00 -67.97983660  18.57315582
2706.00 -68.07954034  18.61267504
2708.00 -68.17929932  18.65224666
2710.00 -68.27911349  18.69187071
2712.00 -68.37898282  18.73154721
2714.00 -68.47890727  18.77127617
2716.00 -68.57888682  18.81105763
2718.00 -68.67892142  18.85089160
2720.00 -68.77901103  18.89077811
2722.00 -68.87915563  18.93071718
2724.00 -68.97935517  18.97070883
2726.00 -69.07960962  19.01075309
2728.00 -69.17991894  19.05084997
2730.00 -69.28028310  19.09099949
2732.00 -69.38070206  19.13120169
2734.00 -69.48117579  19.17145658
2736.00 -69.58170424  19.21176418
2738.00 -69.68228739  19.25212452
2740.00 -69.78292520  19.29253761
2742.00 -69.88361763  19.33300349
2744.00 -69.98436464  19.37352216
2746.00 -70.08516620  19.41409366
2748.00 -70.18602228  19.45471800
2750.00 -70.28693283  19.49539522
2752.00 -70.38789783  19.53612531
2754.00 -70.48891723  19.57690832
2756.00 -70.58999100  19.61774427
2758.00 -70.69111910  19.65863316
2760.00 -70.79230150  19.69957503
2762.00 -70.89353817  19.74056990
2764.00 -70.99482905  19.78161779
2766.00 -71.09617413  19.82271871
2768.00 -71.19757336  19.86387270
2770.00 -71.29902670  19.90507977
2772.00 -71.40053413  19.94633995
2774.00 -71.50209560  19.98765325
2776.00 -71.60371107  20.02901970
2778.00 -71.70538053  20.07043932
2780.00 -71.80710391  20.11191213
2782.00 -71.90888120  20.15343815
2784.00 -72.01071235  20.19501740
2786.00 -72.11259733  20.23664990
2788.00 -72.21453609  20.27833568
2790.00 -72.31652862  20.32007476
2792.00 -72.41857486  20.36186716
2794.00 -72.52067479  20.40371289
2796.00 -72.62282836  20.44561198
2798.00 -72.72503554  20.48756446
2800.00 -72.82729630  20.52957033
2802.00 -72.92961059  20.57162963
2804.00 -73.03197839  20.61374237
2806.00 -73.13439965  20.65590858
2808.00 -73.23687434  20.69812828
2810.00 -73.33940242  20.74040147
2812.00 -73.44198386  20.78272820
2814.00 -73.54461862  20.82510848
2816.00 -73.64730666  20.86754232
2818.00 -73.75004795  20.91002976
2820.00 -73.85284246  20.95257080
2822.00 -73.95569013  20.99516548
2824.00 -74.05859095  21.03781381
2826.00 -74.16154486  21.08051581
2828.00 -74.26455185  21.12327150
2830.00 -74.36761186  21.16608091
2832.00 -74.47072487  21.20894405
2834.00 -74.57389083  21.25186095
2836.00 -74.67710971  21.29483163
2838.00 -74.78038148  21.33785609
2840.00 -74.88370610  21.38093438
2842.00 -74.98708352  21.42406650
2844.00 -75.09051372  21.46725248
2846.00 -75.19399666  21.51049234
2848.00 -75.29753230  21.55378610
2850.00 -75.40112061  21.59713377
2852.00 -75.50476155  21.64053538
2854.00 -75.60845507  21.68399095
2856.00 -75.71220116  21.72750050
2858.00 -75.81599976  21.77106405
2860.00 -75.91985085  21.81468162
2862.00 -76.02375439  21.85835322
2864.00 -76.12771033  21.90207889
2866.00 -76.23171865  21.94585864
2868.00 -76.33577931  21.98969248
2870.00 -76.43989226  22.03358045
2872.00 -76.54405749  22.07752255
2874.00 -76.64827494  22.12151882
2876.00 -76.75254458  22.16556926
2878.00 -76.85686637  22.20967390
2880.00 -76.96124029  22.25383276
2882.00 -77.06566628  22.29804586
2884.00 -77.17014432  22.34231322
2886.00 -77.27467437  22.38663486
2888.00 -77.37925639  22.43101080
2890.00 -77.48389035  22.47544105
2892.00 -77.58857620  22.51992564
2894.00 -77.69331392  22.56446459
2896.00 -77.79810347  22.60905791
2898.00 -77.90294480  22.65370563
2900.00 -78.00783788  22.69840777
2902.00 -78.11278268  22.74316434
2904.00 -78.21777916  22.78797537
2906.00 -78.32282729  22.83284087
2908.00 -78.42792702  22.87776087
2910.00 -78.53307831  22.92273538
2912.00 -78.63828114  22.96776442
2914.00 -78.74353547  23.01284801
2916.00 -78.84884126  23.05798618
2918.00 -78.95419847  23.10317893
2920.00 -79.05960706  23.14842630
2922.00 -79.16506701  23.19372829
2924.00 -79.27057826  23.23908493
2926.00 -79.37614080  23.28449624
2928.00 -79.48175457  23.32996223
2930.00 -79.58741954  23.37548294
2932.00 -79.69313569  23.42105836
2934.00 -79.79890296  23.46668853
2936.00 -79.90472132  23.51237346
2938.00 -80.01059074  23.55811318
2940.00 -80.11651117  23.60390769
2942.00 -80.22248259  23.64975702
2944.00 -80.32850496  23.69566119
2946.00 -80.43457823  23.74162022
2948.00 -80.54070238  23.78763413
2950.00 -80.64687736  23.83370293
2952.00 -80.75310314  23.87982664
2954.00 -80.85937968  23.92600529
2956.00 -80.96570695  23.97223889
2958.00 -81.07208490  24.01852745
2960.00 -81.17851351  24.06487101
2962.00 -81.28499273  24.11126957
2964.00 -81.39152253  24.15772316
2966.00 -81.49810286  24.20423180
2968.00 -81.60473371  24.25079549
2970.00 -81.71141502  24.29741427
2972.00 -81.81814676  24.34408815
2974.00 -81.92492889  24.39081714
2976.00 -82.03176138  24.43760127
2978.00 -82.13864420  24.48444056
2980.00 -82.24557729  24.53133502
2982.00 -82.35256063  24.57828467
2984.00 -82.45959418  24.62528953
2986.00 -82.56667790  24.67234962
2988.00 -82.67381176  24.71946496
2990.00 -82.78099572  24.76663556
2992.00 -82.88822973  24.81386145
2994.00 -82.99551378  24.86114263
2996.00 -83.10284781  24.90847914
2998.00 -83.21023179  24.95587098
3000.00 -83.31766569  25.00331818
3002.00 -83.42514946  25.05082075
3004.00 -83.53268308  25.09837871
3006.00 -83.64026650  25.14599208
3008.00 -83.74789968  25.19366088
3010.00 -83.85558260  25.24138512
3012.00 -83.96331520  25.28916483
3014.00 -84.07109747  25.33700002
3016.00 -84.17892935  25.38489071
3018.00 -84.28681081  25.43283691
3020.00 -84.39474182  25.48083865
3022.00 -84.50272234  25.52889594
3024.00 -84.61075232  25.57700880
3026.00 -84.71883175  25.62517724
3028.00 -84.82696056  25.67340129
3030.00 -84.93513874  25.72168097
3032.00 -85.04336624  25.77001628
3034.00 -85.15164303  25.81840726
3036.00 -85.25996907  25.86685390
3038.00 -85.36834432  25.91535624
3040.00 -85.47676874  25.96391430
3042.00 -85.58524231  26.01252807
3044.00 -85.69376497  26.06119760
3046.00 -85.80233670  26.10992288
3048.00 -85.91095745  26.15870395
3050.00 -86.01962719  26.20754081
3052.00 -86.12834589  26.25643349
3054.00 -86.23711351  26.30538200
3056.00 -86.34593000  26.35438636
3058.00 -86.45479533  26.40344659
3060.00 -86.56370947  26.45256269
3062.00 -86.67267238  26.50173470
3064.00 -86.78168401  26.55096263
3066.00 -86.89074435  26.60024649
3068.00 -86.99985333  26.64958630
3070.00 -87.10901094  26.69898208
3072.00 -87.21821713  26.74843385
3074.00 -87.32747186  26.79794162
3076.00 -87.43677511  26.84750541
3078.00 -87.54612682  26.89712523
3080.00 -87.65552697  26.94680111
3082.00 -87.76497551  26.99653306
3084.00 -87.87447242  27.04632110
3086.00 -87.98401764  27.09616524
3088.00 -88.09361116  27.14606550
3090.00 -88.20325292  27.19602190
3092.00 -88.31294289  27.24603445
3094.00 -88.42268104  27.29610317
3096.00 -88.53246732  27.34622808
3098.00 -88.64230171  27.39640920
3100.00 -88.75218415  27.44664653
3102.00 -88.86211462  27.49694010
3104.00 -88.97209309  27.54728993
3106.00 -89.08211950  27.59769602
3108.00 -89.19219383  27.64815841
3110.00 -89.30231603  27.69867709
3112.00 -89.41248607  27.74925209
3114.00 -89.52270392  27.79988343
3116.00 -89.63296953  27.85057113
3118.00 -89.74328287  27.90131519
3120.00 -89.85364391  27.95211563
3122.00 -89.96405259  28.00297248
3124.00 -90.07450889  28.05388574
3126.00 -90.18501278  28.10485544
3128.00 -90.29556420  28.15588158
3130.00 -90.40616313  28.20696419
3132.00 -90.51680953  28.25810328
3134.00 -90.62750336  28.30929888
3136.00 -90.73824459  28.36055098
3138.00 -90.84903317  28.41185961
3140.00 -90.95986907  28.46322480
3142.00 -91.07075225  28.51464654
3144.00 -91.18168267  28.56612486
3146.00 -91.29266031  28.61765977
3148.00 -91.40368511  28.66925129
3150.00 -91.51475705  28.72089944
3152.00 -91.62587609  28.77260423
3154.00 -91.73704218  28.82436568
3156.00 -91.84825529  28.87618380
3158.00 -91.95951539  28.92805860
3160.00 -92.07082244  28.97999012
3162.00 -92.18217639  29.03197835
3164.00 -92.29357722  29.08402331
3166.00 -92.40502488  29.13612503
3168.00 -92.51651935  29.18828352
3170.00 -92.62806057  29.24049878
3172.00 -92.73964851  29.29277085
3174.00 -92.85128315  29.34509972
3176.00 -92.96296443  29.39748543
3178.00 -93.07469232  29.44992798
3180.00 -93.18646679  29.50242739
3182.00 -93.29828779  29.55498367
3184.00 -93.41015530  29.60759685
3186.00 -93.52206927  29.66026693
3188.00 -93.63402966  29.71299393
3190.00 -93.74603644  29.76577786
3192.00 -93.85808957  29.81861875
3194.00 -93.97018902  29.87151660
3196.00 -94.08233474  29.92447144
3198.00 -94.19452670  29.97748327
3200.00 -94.30676486  30.03055212
3202.00 -94.41904919  30.08367799
3204.00 -94.53137964  30.13686090
3206.00 -94.64375619  30.19010087
3208.00 -94.75617878  30.24339791
3210.00 -94.86864739  30.29675204
3212.00 -94.98116198  30.35016327
3214.00 -95.09372251  30.40363162
3216.00 -95.20632894  30.45715710
3218.00 -95.31898124  30.51073972
3220.00 -95.43167937  30.56437951
3222.00 -95.54442328  30.61807647
3224.00 -95.65721296  30.67183062
3226.00 -95.77004834  30.72564198
3228.00 -95.88292941  30.77951056
3230.00 -95.99585612  30.83343637
3232.00 -96.10882843  30.88741944
3234.00 -96.22184632  30.94145976
3236.00 -96.33490973  30.99555737
3238.00 -96.44801863  31.04971227
3240.00 -96.56117299  31.10392447
3242.00 -96.67437276  31.15819400
3244.00 -96.78761792  31.21252087
3246.00 -96.90090842  31.26690509
3248.00 -97.01424423  31.32134667
3250.00 -97.12762530  31.37584563
3252.00 -97.24105161  31.43040199
3254.00 -97.35452310  31.48501575
3256.00 -97.46803976  31.53968694
3258.00 -97.58160153  31.59441557
3260.00 -97.69520839  31.64920164
3262.00 -97.80886029  31.70404519
3264.00 -97.92255719  31.75894621
3266.00 -98.03629907  31.81390473
3268.00 -98.15008588  31.86892075
3270.00 -98.26391758  31.92399430
3272.00 -98.37779414  31.97912538
3274.00 -98.49171552  32.03431401
3276.00 -98.60568169  32.08956021
3278.00 -98.71969259  32.14486398
3280.00 -98.83374821  32.20022535
3282.00 -98.94784850  32.25564432
3284.00 -99.06199342  32.31112091
3286.00 -99.17618293  32.36665514
3288.00 -99.29041701  32.42224701
3290.00 -99.40469560  32.47789655
3292.00 -99.51901868  32.53360376
3294.00 -99.63338620  32.58936866
3296.00 -99.74779814  32.64519126
3298.00 -99.86225444  32.70107158
3300.00 -99.97675508  32.75700962
3302.00 -100.09130001  32.81300541
3304.00 -100.20588921  32.86905896
3306.00 -100.32052262  32.92517028
3308.00 -100.43520023  32.98133938
3310.00 -100.54992197  33.03756628
3312.00 -100.66468783  33.09385100
3314.00 -100.77949776  33.15019353
3316.00 -100.89435172  33.20659391
3318.00 -101.00924968  33.26305213
3320.00 -101.12419160  33.31956822
3322.00 -101.23917745  33.37614219
3324.00 -101.35420718  33.43277405
3326.00 -101.46928075  33.48946381
3328.00 -101.58439814  33.54621150
3330.00 -101.69955930  33.60301711
3332.00 -101.81476419  33.65988067
3334.00 -101.93001279  33.71680218
3336.00 -102.04530504  33.77378167
3338.00 -102.16064092  33.83081914
3340.00 -102.27602038  33.88791460
3342.00 -102.39144339  33.94506808
3344.00 -102.50690991  34.00227958
3346.00 -102.62241991  34.05954911
3348.00 -102.73797334  34.11687669
3350.00 -102.85357017  34.17426234
3352.00 -102.96921036  34.23170606
3354.00 -103.08489388  34.28920786
3356.00 -103.20062068  34.34676777
3358.00 -103.31639073  34.40438579
3360.00 -103.43220400  34.46206194
3362.00 -103.54806043  34.51979622
3364.00 -103.66396001  34.57758866
3366.00 -103.77990268  34.63543925
3368.00 -103.89588842  34.69334803
3370.00 -104.01191718  34.75131500
3372.00 -104.12798892  34.80934016
3374.00 -104.24410362  34.86742355
3376.00 -104.36026123  34.92556515
3378.00 -104.47646171  34.98376500
3380.00 -104.59270503  35.04202310
3382.00 -104.70899115  35.10033947
3384.00 -104.82532004  35.15871411
3386.00 -104.94169164  35.21714704
3388.00 -105.05810594  35.27563828
3390.00 -105.17456289  35.33418782
3392.00 -105.29106244  35.39279570
3394.00 -105.40760458  35.45146191
3396.00 -105.52418925  35.51018647
3398.00 -105.64081642  35.56896940
3400.00 -105.75748606  35.62781070
3402.00 -105.87419812  35.68671039
3404.00 -105.99095257  35.74566848
3406.00 -106.10774937  35.80468498
3408.00 -106.22458848  35.86375991
3410.00 -106.34146987  35.92289327
3412.00 -106.45839350  35.98208508
3414.00 -106.57535933  36.04133535
3416.00 -106.69236732  36.10064409
3418.00 -106.80941744  36.16001131
3420.00 -106.92650965  36.21943704
3422.00 -107.04364391  36.27892127
3424.00 -107.16082018  36.33846401
3426.00 -107.27803843  36.39806529
3428.00 -107.39529862  36.45772512
3430.00 -107.51260071  36.51744350
3432.00 -107.62994466  36.57722044
3434.00 -107.74733045  36.63705597
3436.00 -107.86475802  36.69695008
3438.00 -107.98222734  36.75690280
3440.00 -108.09973838  36.81691413
3442.00 -108.21729109  36.87698408
3444.00 -108.33488544  36.93711268
3446.00 -108.45252140  36.99729992
3448.00 -108.57019892  37.05754582
3450.00 -108.68791797  37.11785039
3452.00 -108.80567851  37.17821364
3454.00 -108.92348050  37.23863559
3456.00 -109.04132390  37.29911625
3458.00 -109.15920869  37.35965562
3460.00 -109.27713481  37.42025372
3462.00 -109.39510224  37.48091056
3464.00 -109.51311093  37.54162615
3466.00 -109.63116085  37.60240050
3468.00 -109.74925196  37.66323362
3470.00 -109.86738423  37.72412553
3472.00 -109.98555761  37.78507624
3474.00 -110.10377207  37.84608575
3476.00 -110.22202757  37.90715409
3478.00 -110.34032407  37.96828125
3480.00 -110.45866154  38.02946725
3482.00 -110.57703994  38.09071210
3484.00 -110.69545922  38.15201582
3486.00 -110.81391937  38.21337841
3488.00 -110.93242033  38.27479988
3490.00 -111.05096207  38.33628025
3492.00 -111.16954455  38.39781952
3494.00 -111.28816773  38.45941771
3496.00 -111.40683158  38.52107483
3498.00 -111.52553607  38.58279089
3500.00 -111.64428114  38.64456590
3502.00 -111.76306677  38.70639986
3504.00 -111.88189291  38.76829280
3506.00 -112.00075954  38.83024472
3508.00 -112.11966660  38.89225563
3510.00 -112.23861408  38.95432555
3512.00 -112.35760192  39.01645448
3514.00 -112.47663009  39.07864243
3516.00 -112.59569855  39.14088942
3518.00 -112.71480727  39.20319545
3520.00 -112.83395621  39.26556054
3522.00 -112.95314533  39.32798470
3524.00 -113.07237459  39.39046793
3526.00 -113.19164396  39.45301025
3528.00 -113.31095339  39.51561166
3530.00 -113.43030286  39.57827219
3532.00 -113.54969232  39.64099183
3534.00 -113.66912174  39.70377060
3536.00 -113.78859108  39.76660851
3538.00 -113.90810030  39.82950557
3540.00 -114.02764936  39.89246179
3542.00 -114.14723823  39.95547718
3544.00 -114.26686687  40.01855174
3546.00 -114.38653524  40.08168550
3548.00 -114.50624331  40.14487846
3550.00 -114.62599104  40.20813063
3552.00 -114.74577838  40.27144201
3554.00 -114.86560531  40.33481263
3556.00 -114.98547178  40.39824249
3558.00 -115.10537776  40.46173159
3560.00 -115.22532321  40.52527996
3562.00 -115.34530810  40.58888760
3564.00 -115.46533238  40.65255452
3566.00 -115.58539602  40.71628072
3568.00 -115.70549898  40.78006623
3570.00 -115.82564123  40.84391104
3572.00 -115.94582272  40.90781518
3574.00 -116.06604342  40.97177864
3576.00 -116.18630329  41.03580144
3578.00 -116.30660230  41.09988359
3580.00 -116.42694041  41.16402510
3582.00 -116.54731757  41.22822598
3584.00 -116.66773376  41.29248623
3586.00 -116.78818893  41.35680587
3588.00 -116.90868306  41.42118490
3590.00 -117.02921609  41.48562335
3592.00 -117.14978799  41.55012120
3594.00 -117.27039874  41.61467848
3596.00 -117.39104828  41.67929520
3598.00 -117.51173658  41.74397136
3600.00 -117.63246360  41.80870697
3602.00 -117.75322931  41.87350205
3604.00 -117.87403368  41.93835659
3606.00 -117.99487665  42.00327062
3608.00 -118.11575820  42.06824414
3610.00 -118.23667829  42.13327716
3612.00 -118.35763687  42.19836968
3614.00 -118.47863392  42.26352173
3616.00 -118.59966940  42.32873330
3618.00 -118.72074326  42.39400441
3620.00 -118.84185548  42.45933506
3622.00 -118.96300601  42.52472527
3624.00 -119.08419481  42.59017504
3626.00 -119.20542186  42.65568438
3628.00 -119.32668710  42.72125331
3630.00 -119.44799051  42.78688182
3632.00 -119.56933205  42.85256994
3634.00 -119.69071168  42.91831766
3636.00 -119.81212936  42.98412500
3638.00 -119.93358506  43.04999197
3640.00 -120.05507874  43.11591857
3642.00 -120.17661035  43.18190481
3644.00 -120.29817987  43.24795071
3646.00 -120.41978726  43.31405627
3648.00 -120.54143248  43.38022150
3650.00 -120.66311549  43.44644641
3652.00 -120.78483625  43.51273101
3654.00 -120.90659473  43.57907530
3656.00 -121.02839089  43.64547929
3658.00 -121.15022470  43.71194300
3660.00 -121.27209611  43.77846644
3662.00 -121.39400509  43.84504960
3664.00 -121.51595160  43.91169250
3666.00 -121.63793561  43.97839515
3668.00 -121.75995707  44.04515755
3670.00 -121.88201595  44.11197972
3672.00 -122.00411222  44.17886166
3674.00 -122.12624583  44.24580338
3676.00 -122.24841675  44.31280489
3678.00 -122.37062493  44.37986620
3680.00 -122.49287036  44.44698732
3682.00 -122.61515298  44.51416825
3684.00 -122.73747276  44.58140900
3686.00 -122.85982966  44.64870958
3688.00 -122.98222365  44.71607000
3690.00 -123.10465468  44.78349027
3692.00 -123.22712272  44.85097039
3694.00 -123.34962774  44.91851038
3696.00 -123.47216970  44.98611024
3698.00 -123.59474855  45.05376997
3700.00 -123.71736427  45.12148960
3702.00 -123.84001681  45.18926912
3704.00 -123.96270614  45.25710854
3706.00 -124.08543222  45.32500788
3708.00 -124.20819501  45.39296713
3710.00 -124.33099448  45.46098631
3712.00 -124.45383058  45.52906542
3714.00 -124.57670329  45.59720448
3716.00 -124.69961257  45.66540349
3718.00 -124.82255837  45.73366246
3720.00 -124.94554066  45.80198139
3722.00 -125.06855941  45.87036029
3724.00 -125.19161457  45.93879918
3726.00 -125.31470611  46.00729806
3728.00 -125.43783399  46.07585693
3730.00 -125.56099818  46.14447581
3732.00 -125.68419864  46.21315470
3734.00 -125.80743533  46.28189361
3736.00 -125.93070821  46.35069254
3738.00 -126.05401724  46.41955151
3740.00 -126.17736240  46.48847053
3742.00 -126.30074364  46.55744959
3744.00 -126.42416092  46.62648871
3746.00 -126.54761421  46.69558789
3748.00 -126.67110348  46.76474714
3750.00 -126.79462867  46.83396648
3752.00 -126.91818977  46.90324589
3754.00 -127.04178672  46.97258541
3756.00 -127.16541950  47.04198502
3758.00 -127.28908806  47.11144474
3760.00 -127.41279237  47.18096458
3762.00 -127.53653240  47.25054454
3764.00 -127.66030809  47.32018463
3766.00 -127.78411943  47.38988485
3768.00 -127.90796636  47.45964522
3770.00 -128.03184886  47.52946574
3772.00 -128.15576689  47.59934642
3774.00 -128.27972040  47.66928726
3776.00 -128.40370937  47.73928828
3778.00 -128.52773375  47.80934947
3780.00 -128.65179352  47.87947085
3782.00 -128.77588862  47.94965242
3784.00 -128.90001903  48.01989419
3786.00 -129.02418470  48.09019617
3788.00 -129.14838561  48.16055836
3790.00 -129.27262170  48.23098077
3792.00 -129.39689296  48.30146341
3794.00 -129.52119933  48.37200628
3796.00 -129.64554079  48.44260940
3798.00 -129.76991729  48.51327275
3800.00 -129.89432881  48.58399637
3802.00 -130.01877529  48.65478024
3804.00 -130.14325671  48.72562438
3806.00 -130.26777302  48.79652879
3808.00 -130.39232420  48.86749349
3810.00 -130.51691020  48.93851847
3812.00 -130.64153098  49.00960374
3814.00 -130.76618652  49.08074931
3816.00 -130.89087677  49.15195519
3818.00 -131.01560170  49.22322138
3820.00 -131.14036126  49.29454790
3822.00 -131.26515543  49.36593473
3824.00 -131.38998416  49.43738190
3826.00 -131.51484742  49.50888940
3828.00 -131.63974517  49.58045725
3830.00 -131.76467738  49.65208545
3832.00 -131.88964401  49.72377401
3834.00 -132.01464501  49.79552293
3836.00 -132.13968036  49.86733222
3838.00 -132.26475002  49.93920189
3840.00 -132.38985395  50.01113193
3842.00 -132.51499211  50.08312237
3844.00 -132.64016446  50.15517319
3846.00 -132.76537098  50.22728442
3848.00 -132.89061162  50.29945605
3850.00 -133.01588635  50.37168810
3852.00 -133.14119512  50.44398056
3854.00 -133.26653791  50.51633345
3856.00 -133.39191467  50.58874677
3858.00 -133.51732537  50.66122052
3860.00 -133.64276997  50.73375471
3862.00 -133.76824844  50.80634935
3864.00 -133.89376074  50.87900445
3866.00 -134.01930683  50.95172000
3868.00 -134.14488667  51.02449602
3870.00 -134.27050023  51.09733251
3872.00 -134.39614747  51.17022947
3874.00 -134.52182836  51.24318692
3876.00 -134.64754285  51.31620485
3878.00 -134.77329091  51.38928328
3880.00 -134.89907251  51.46242220
3882.00 -135.02488760  51.53562163
3884.00 -135.15073616  51.60888157
3886.00 -135.27661814  51.68220203
3888.00 -135.40253350  51.75558301
3890.00 -135.52848222  51.82902451
3892.00 -135.65446425  51.90252655
3894.00 -135.78047956  51.97608912
3896.00 -135.90652810  52.04971223
3898.00 -136.03260985  52.12339590
3900.00 -136.15872477  52.19714011
3902.00 -136.28487281  52.27094489
3904.00 -136.41105395  52.34481023
3906.00 -136.53726815  52.41873614
3908.00 -136.66351536  52.49272263
3910.00 -136.78979556  52.56676969
3912.00 -136.91610871  52.64087734
3914.00 -137.04245476  52.71504558
3916.00 -137.16883369  52.78927442
3918.00 -137.29524545  52.86356385
3920.00 -137.42169002  52.93791389
3922.00 -137.54816734  53.01232455
3924.00 -137.67467740  53.08679581
3926.00 -137.80122014  53.16132770
3928.00 -137.92779554  53.23592022
3930.00 -138.05440355  53.31057336
3932.00 -138.18104414  53.38528714
3934.00 -138.30771728  53.46006157
3936.00 -138.43442292  53.53489663
3938.00 -138.56116103  53.60979235
3940.00 -138.68793158  53.68474873
3942.00 -138.81473452  53.75976576
3944.00 -138.94156983  53.83484346
3946.00 -139.06843746  53.90998182
3948.00 -139.19533737  53.98518087
3950.00 -139.32226954  54.06044059
3952.00 -139.44923392  54.13576099
3954.00 -139.57623047  54.21114208
3956.00 -139.70325917  54.28658387
3958.00 -139.83031998  54.36208635
3960.00 -139.95741285  54.43764954
3962.00 -140.08453775  54.51327343
3964.00 -140.21169465  54.58895804
3966.00 -140.33888350  54.66470336
3968.00 -140.46610428  54.74050940
3970.00 -140.59335694  54.81637616
3972.00 -140.72064145  54.89230365
3974.00 -140.84795778  54.96829188
3976.00 -140.97530588  55.04434085
3978.00 -141.10268571  55.12045056
3980.00 -141.23009726  55.19662101
3982.00 -141.35754046  55.27285221
3984.00 -141.48501530  55.34914417
3986.00 -141.61252173  55.42549689
3988.00 -141.74005972  55.50191038
3990.00 -141.86762923  55.57838463
3992.00 -141.99523023  55.65491965
3994.00 -142.12286267  55.73151545
3996.00 -142.25052652  55.80817203
3998.00 -142.37822175  55.88488940
4000.00 -142.50594832  55.96166755
4002.00 -142.63370618  56.03850649
4004.00 -142.76149532  56.11540624
4006.00 -142.88931568  56.19236678
4008.00 -143.01716724  56.26938812
4010.00 -143.14504995  56.34647028
4012.00 -143.27296379  56.42361325
4014.00 -143.40090870  56.50081703
4016.00 -143.52888467  56.57808164
4018.00 -143.65689164  56.65540706
4020.00 -143.78492959  56.73279332
4022.00 -143.91299848  56.81024041
4024.00 -144.04109828  56.88774833
4026.00 -144.16922893  56.96531709
4028.00 -144.29739042  57.04294670
4030.00 -144.42558270  57.12063715
4032.00 -144.55380574  57.19838845
4034.00 -144.68205949  57.27620061
4036.00 -144.81034394  57.35407362
4038.00 -144.93865903  57.43200749
4040.00 -145.06700473  57.51000223
4042.00 -145.19538101  57.58805784
4044.00 -145.32378782  57.66617432
4046.00 -145.45222514  57.74435167
4048.00 -145.58069293  57.82258990
4050.00 -145.70919115  57.90088902
4052.00 -145.83771976  57.97924902
4054.00 -145.96627873  58.05766991
4056.00 -146.09486802  58.13615169
4058.00 -146.22348759  58.21469436
4060.00 -146.35213742  58.29329794
4062.00 -146.48081746  58.37196242
4064.00 -146.60952768  58.45068780
4066.00 -146.73826803  58.52947409
4068.00 -146.86703850  58.60832130
4070.00 -146.99583903  58.68722942
4072.00 -147.12466959  58.76619845
4074.00 -147.25353015  58.84522841
4076.00 -147.38242067  58.92431930
4078.00 -147.51134111  59.00347111
4080.00 -147.64029144  59.08268385
4082.00 -147.76927163  59.16195753
4084.00 -147.89828162  59.24129214
4086.00 -148.02732140  59.32068769
4088.00 -148.15639092  59.40014419
4090.00 -148.28549015  59.47966163
4092.00 -148.41461905  59.55924002
4094.00 -148.54377759  59.63887936
4096.00 -148.67296572  59.71857966
4098.00 -148.80218342  59.79834091
4100.00 -148.93143064  59.87816312
4102.00 -149.06070736  59.95804630
4104.00 -149.19001353  60.03799044
4106.00 -149.31934911  60.11799555
4108.00 -149.44871409  60.19806163
4110.00 -149.57810840  60.27818869
4112.00 -149.70753203  60.35837672
4114.00 -149.83698494  60.43862573
4116.00 -149.96646708  60.51893572
4118.00 -150.09597842  60.59930670
4120.00 -150.22551893  60.67973867
4122.00 -150.35508858  60.76023162
4124.00 -150.48468731  60.84078557
4126.00 -150.61431511  60.92140051
4128.00 -150.74397193  61.00207644
4130.00 -150.87365774  61.08281338
4132.00 -151.00337249  61.16361132
4134.00 -151.13311616  61.24447026
4136.00 -151.26288872  61.32539021
4138.00 -151.39269011  61.40637117
4140.00 -151.52252031  61.48741314
4142.00 -151.65237929  61.56851613
4144.00 -151.78226700  61.64968013
4146.00 -151.91218340  61.73090515
4148.00 -152.04212848  61.81219119
4150.00 -152.17210218  61.89353825
4152.00 -152.30210447  61.97494634
4154.00 -152.43213532  62.05641545
4156.00 -152.56219469  62.13794559
4158.00 -152.69228254  62.21953677
4160.00 -152.82239885  62.30118897
4162.00 -152.95254356  62.38290222
4164.00 -153.08271666  62.46467650
4166.00 -153.21291809  62.54651182
4168.00 -153.34314783  62.62840818
4170.00 -153.47340584  62.71036559
4172.00 -153.60369209  62.79238404
4174.00 -153.73400653  62.87446354
4176.00 -153.86434913  62.95660408
4178.00 -153.99471986  63.03880568
4180.00 -154.12511869  63.12106834
4182.00 -154.25554557  63.20339204
4184.00 -154.38600046  63.28577681
4186.00 -154.51648334  63.36822263
4188.00 -154.64699417  63.45072951
4190.00 -154.77753291  63.53329745
4192.00 -154.90809953  63.61592646
4194.00 -155.03869399  63.69861653
4196.00 -155.16931626  63.78136767
4198.00 -155.29996629  63.86417988
4200.00 -155.43064406  63.94705316
4202.00 -155.56134953  64.02998751
4204.00 -155.69208266  64.11298293
4206.00 -155.82284341  64.19603943
4208.00 -155.95363176  64.27915701
4210.00 -156.08444767  64.36233566
4212.00 -156.21529109  64.44557539
4214.00 -156.34616200  64.52887620
4216.00 -156.47706036  64.61223810
4218.00 -156.60798613  64.69566108
4220.00 -156.73893928  64.77914514
4222.00 -156.86991977  64.86269029
4224.00 -157.00092757  64.94629653
4226.00 -157.13196264  65.02996386
4228.00 -157.26302494  65.11369227
4230.00 -157.39411445  65.19748178
4232.00 -157.52523112  65.28133238
4234.00 -157.65637492  65.36524408
4236.00 -157.78754581  65.44921687
4238.00 -157.91874376  65.53325075
4240.00 -158.04996874  65.61734574
4242.00 -158.18122070  65.70150182
4244.00 -158.31249961  65.78571900
4246.00 -158.44380544  65.86999728
4248.00 -158.57513815  65.95433667
4250.00 -158.70649770  66.03873715
4252.00 -158.83788407  66.12319874
4254.00 -158.96929720  66.20772144
4256.00 -159.10073708  66.29230524
4258.00 -159.23220366  66.37695015
4260.00 -159.36369691  66.46165616
4262.00 -159.49521680  66.54642328
4264.00 -159.62676328  66.63125152
4266.00 -159.75833632  66.71614086
4268.00 -159.88993589  66.80109131
4270.00 -160.02156195  66.88610287
4272.00 -160.15321446  66.97117555
4274.00 -160.28489340  67.05630934
4276.00 -160.41659872  67.14150425
4278.00 -160.54833039  67.22676026
4280.00 -160.68008838  67.31207740
4282.00 -160.81187264  67.39745565
4284.00 -160.94368315  67.48289501
4286.00 -161.07551987  67.56839549
4288.00 -161.20738276  67.65395709
4290.00 -161.33927179  67.73957981
4292.00 -161.47118693  67.82526365
4294.00 -161.60312813  67.91100860
4296.00 -161.73509536  67.99681468
4298.00 -161.86708859  68.08268187
4300.00 -161.99910779  68.16861019
4302.00 -162.13115291  68.25459963
4304.00 -162.26322392  68.34065019
4306.00 -162.39532079  68.42676187
4308.00 -162.52744347  68.51293467
4310.00 -162.65959195  68.59916859
4312.00 -162.79176618  68.68546364
4314.00 -162.92396612  68.77181981
4316.00 -163.05619174  68.85823710
4318.00 -163.18844301  68.94471552
4320.00 -163.32071989  69.03125506
4322.00 -163.45302234  69.11785572
4324.00 -163.58535033  69.20451751
4326.00 -163.71770383  69.29124042
4328.00 -163.85008280  69.37802446
4330.00 -163.98248720  69.46486962
4332.00 -164.11491701  69.55177590
4334.00 -164.24737217  69.63874331
4336.00 -164.37985267  69.72577184
4338.00 -164.51235846  69.81286150
4340.00 -164.64488951  69.90001228
4342.00 -164.77744579  69.98722419
4344.00 -164.91002726  70.07449722
4346.00 -165.04263388  70.16183137
4348.00 -165.17526562  70.24922665
4350.00 -165.30792244  70.33668305
4352.00 -165.44060431  70.42420058
4354.00 -165.57331120  70.51177923
4356.00 -165.70604307  70.59941900
4358.00 -165.83879988  70.68711990
4360.00 -165.97158160  70.77488191
4362.00 -166.10438820  70.86270505
4364.00 -166.23721964  70.95058932
4366.00 -166.37007588  71.03853470
4368.00 -166.50295689  71.12654121
4370.00 -166.63586264  71.21460884
4372.00 -166.76879309  71.30273759
4374.00 -166.90174820  71.39092746
4376.00 -167.03472794  71.47917844
4378.00 -167.16773228  71.56749055
4380.00 -167.30076118  71.65586378
4382.00 -167.43381461  71.74429813
4384.00 -167.56689253  71.83279359
4386.00 -167.69999490  71.92135017
4388.00 -167.83312170  72.00996787
4390.00 -167.96627288  72.09864669
4392.00 -168.09944841  72.18738662
4394.00 -168.23264827  72.27618766
4396.00 -168.36587240  72.36504982
4398.00 -168.49912078  72.45397309
4400.00 -168.63239338  72.54295748
4402.00 -168.76569015  72.63200298
4404.00 -168.89901107  72.72110959
4406.00 -169.03235609  72.81027731
4408.00 -169.16572519  72.89950614
4410.00 -169.29911833  72.98879608
4412.00 -169.43253547  73.07814713
4414.00 -169.56597659  73.16755928
4416.00 -169.69944164  73.25703254
4418.00 -169.83293059  73.34656691
4420.00 -169.96644340  73.43616238
4422.00 -170.09998005  73.52581896
4424.00 -170.23354050  73.61553664
4426.00 -170.36712470  73.70531542
4428.00 -170.50073264  73.79515530
4430.00 -170.63436427  73.88505628
4432.00 -170.76801955  73.97501836
4434.00 -170.90169846  74.06504154
4436.00 -171.03540096  74.15512581
4438.00 -171.16912702  74.24527118
4440.00 -171.30287659  74.33547764
4442.00 -171.43664965  74.42574520
4444.00 -171.57044616  74.51607385
4446.00 -171.70426609  74.60646359
4448.00 -171.83810940  74.69691441
4450.00 -171.97197606  74.78742633
4452.00 -172.10586603  74.87799933
4454.00 -172.23977928  74.96863342
4456.00 -172.37371577  75.05932859
4458.00 -172.50767548  75.15008485
4460.00 -172.64165836  75.24090219
4462.00 -172.77566438  75.33178060
4464.00 -172.90969351  75.42272010
4466.00 -173.04374570  75.51372067
4468.00 -173.17782094  75.60478232
4470.00 -173.31191918  75.69590504
4472.00 -173.44604039  75.78708884
4474.00 -173.58018453  75.87833371
4476.00 -173.71435158  75.96963964
4478.00 -173.84854149  76.06100665
4480.00 -173.98275423  76.15243472
4482.00 -174.11698977  76.24392385
4484.00 -174.25124807  76.33547405
4486.00 -174.38552910  76.42708532
4488.00 -174.51983283  76.51875764
4490.00 -174.65415921  76.61049102
4492.00 -174.78850822  76.70228545
4494.00 -174.92287983  76.79414094
4496.00 -175.05727399  76.88605749
4498.00 -175.19169067  76.97803508
4500.00 -175.32612984  77.07007373
4502.00 -175.46059147  77.16217342
4504.00 -175.59507551  77.25433416
4506.00 -175.72958195  77.34655594
4508.00 -175.86411073  77.43883877
4510.00 -175.99866183  77.53118263
4512.00 -176.13323522  77.62358753
4514.00 -176.26783086  77.71605347
4516.00 -176.40244871  77.80858045
4518.00 -176.53708874  77.90116845
4520.00 -176.67175092  77.99381749
4522.00 -176.80643521  78.08652755
4524.00 -176.94114159  78.17929864
4526.00 -177.07587000  78.27213076
4528.00 -177.21062043  78.36502389
4530.00 -177.34539283  78.45797805
4532.00 -177.48018718  78.55099322
4534.00 -177.61500344  78.64406941
4536.00 -177.74984157  78.73720661
4538.00 -177.88470154  78.83040483
4540.00 -178.01958331  78.92366405
4542.00 -178.15448686  79.01698428
4544.00 -178.28941215  79.11036551
4546.00 -178.42435914  79.20380775
4548.00 -178.55932781  79.29731098
4550.00 -178.69431811  79.39087522
4552.00 -178.82933001  79.48450044
4554.00 -178.96436348  79.57818666
4556.00 -179.09941849  79.67193388
4558.00 -179.23449500  79.76574207
4560.00 -179.36959297  79.85961126
4562.00 -179.50471238  79.95354142
4564.00 -179.63985318  80.04753257
4566.00 -179.77501536  80.14158470
4568.00 -179.91019886  80.23569780
4570.00 -180.04540366  80.32987187
4572.00 -180.18062973  80.42410691
4574.00 -180.31587702  80.51840293
4576.00 -180.45114551  80.61275990
4578.00 -180.58643517  80.70717784
4580.00 -180.72174595  80.80165674
4582.00 -180.85707783  80.89619660
4584.00 -180.99243076  80.99079741
4586.00 -181.12780473  81.08545917
4588.00 -181.26319969  81.18018188
4590.00 -181.39861561  81.27496554
4592.00 -181.53405245  81.36981014
4594.00 -181.66951019  81.46471568
4596.00 -181.80498879  81.55968216
4598.00 -181.94048821  81.65470957
4600.00 -182.07600842  81.74979792
4602.00 -182.21154939  81.84494719
4604.00 -182.34711108  81.94015739
4606.00 -182.48269347  82.03542852
4608.00 -182.61829651  82.13076056
4610.00 -182.75392017  82.22615352
4612.00 -182.88956443  82.32160740
4614.00 -183.02522924  82.41712219
4616.00 -183.16091457  82.51269789
4618.00 -183.29662039  82.60833449
4620.00 -183.43234667  82.70403199
4622.00 -183.56809336  82.79979040
4624.00 -183.70386045  82.89560970
4626.00 -183.83964789  82.99148989
4628.00 -183.97545565  83.08743097
4630.00 -184.11128370  83.18343294
4632.00 -184.24713200  83.27949579
4634.00 -184.38300052  83.37561953
4636.00 -184.51888923  83.47180414
4638.00 -184.65479810  83.56804962
4640.00 -184.79072708  83.66435597
4642.00 -184.92667615  83.76072320
4644.00 -185.06264528  83.85715128
4646.00 -185.19863442  83.95364023
4648.00 -185.33464355  84.05019003
4650.00 -185.47067263  84.14680068
4652.00 -185.60672164  84.24347219
4654.00 -185.74279053  84.34020455
4656.00 -185.87887927  84.43699774
4658.00 -186.01498783  84.53385178
4660.00 -186.15111618  84.63076665
4662.00 -186.28726428  84.72774236
4664.00 -186.42343210  84.82477890
4666.00 -186.55961961  84.92187626
4668.00 -186.69582677  85.01903444
4670.00 -186.83205355  85.11625345
4672.00 -186.96829991  85.21353327
4674.00 -187.10456583  85.31087390
4676.00 -187.24085127  85.40827534
4678.00 -187.37715620  85.50573758
4680.00 -187.51348058  85.60326062
4682.00 -187.64982438  85.70084446
4684.00 -187.78618757  85.79848910
4686.00 -187.92257011  85.89619452
4688.00 -188.05897197  85.99396073
4690.00 -188.19539312  86.09178772
4692.00 -188.33183353  86.18967549
4694.00 -188.46829316  86.28762403
4696.00 -188.60477197  86.38563335
4698.00 -188.74126994  86.48370343
4700.00 -188.87778703  86.58183427
4702.00 -189.01432321  86.68002588
4704.00 -189.15087845  86.77827823
4706.00 -189.28745271  86.87659134
4708.00 -189.42404596  86.97496520
4710.00 -189.56065817  87.07339979
4712.00 -189.69728930  87.17189513
4714.00 -189.83393932  87.27045120
4716.00 -189.97060820  87.36906801
4718.00 -190.10729590  87.46774554
4720.00 -190.24400239  87.56648379
4722.00 -190.38072765  87.66528276
4724.00 -190.51747163  87.76414245
4726.00 -190.65423430  87.86306284
4728.00 -190.79101563  87.96204395
4730.00 -190.92781559  88.06108575
4732.00 -191.06463415  88.16018826
4734.00 -191.20147126  88.25935145
4736.00 -191.33832691  88.35857534
4738.00 -191.47520105  88.45785991
4740.00 -191.61209365  88.55720516
4742.00 -191.74900468  88.65661109
4744.00 -191.88593411  88.75607769
4746.00 -192.02288190  88.85560496
4748.00 -192.15984803  88.95519290
4750.00 -192.29683245  89.05484149
4752.00 -192.43383514  89.15455073
4754.00 -192.57085606  89.25432063
4756.00 -192.70789518  89.35415118
4758.00 -192.84495247  89.45404236
4760.00 -192.98202789  89.55399418
4762.00 -193.11912142  89.65400664
4764.00 -193.25623302  89.75407972
4766.00 -193.39336265  89.85421343
4768.00 -193.53051029  89.95440775
4770.00 -193.66767589  90.05466269
4772.00 -193.80485944  90.15497824
4774.00 -193.94206089  90.25535440
4776.00 -194.07928022  90.35579115
4778.00 -194.21651738  90.45628850
4780.00 -194.35377236  90.55684644
4782.00 -194.49104511  90.65746497
4784.00 -194.62833560  90.75814408
4786.00 -194.76564380  90.85888377
4788.00 -194.90296968  90.95968403
4790.00 -195.04031321  91.06054486
4792.00 -195.17767435  91.16146625
4794.00 -195.31505307  91.26244820
4796.00 -195.45244933  91.36349070
4798.00 -195.58986312  91.46459376
4800.00 -195.72729438  91.56575735
4802.00 -195.86474309  91.66698148
4804.00 -196.00220923  91.76826615
4806.00 -196.13969274  91.86961135
4808.00 -196.27719362  91.97101707
4810.00 -196.41471181  92.07248330
4812.00 -196.55224729  92.17401006
4814.00 -196.68980002  92.27559732
4816.00 -196.82736998  92.37724508
4818.00 -196.96495713  92.47895335
4820.00 -197.10256143  92.58072211
4822.00 -197.24018287  92.68255135
4824.00 -197.37782139  92.78444109
4826.00 -197.51547698  92.88639130
4828.00 -197.65314960  92.98840198
4830.00 -197.79083922  93.09047313
4832.00 -197.92854579  93.19260475
4834.00 -198.06626931  93.29479682
4836.00 -198.20400972  93.39704934
4838.00 -198.34176700  93.49936232
4840.00 -198.47954111  93.60173573
4842.00 -198.61733203  93.70416959
4844.00 -198.75513972  93.80666387
4846.00 -198.89296415  93.90921858
4848.00 -199.03080528  94.01183371
4850.00 -199.16866309  94.11450926
4852.00 -199.30653755  94.21724522
4854.00 -199.44442861  94.32004159
4856.00 -199.58233625  94.42289835
4858.00 -199.72026044  94.52581551
4860.00 -199.85820114  94.62879306
4862.00 -199.99615832  94.73183099
4864.00 -200.13413195  94.83492930
4866.00 -200.27212200  94.93808798
4868.00 -200.41012844  95.04130703
4870.00 -200.54815122  95.14458644
4872.00 -200.68619034  95.24792620
4874.00 -200.82424574  95.35132632
4876.00 -200.96231739  95.45478678
4878.00 -201.10040528  95.55830758
4880.00 -201.23850935  95.66188872
4882.00 -201.37662959  95.76553018
4884.00 -201.51476596  95.86923197
4886.00 -201.65291842  95.97299407
4888.00 -201.79108696  96.07681648
4890.00 -201.92927152  96.18069920
4892.00 -202.06747209  96.28464222
4894.00 -202.20568862  96.38864553
4896.00 -202.34392110  96.49270913
4898.00 -202.48216948  96.59683301
4900.00 -202.62043374  96.70101717
4902.00 -202.75871384  96.80526160
4904.00 -202.89700975  96.90956630
4906.00 -203.03532143  97.01393125
4908.00 -203.17364887  97.11835646
4910.00 -203.31199202  97.22284191
4912.00 -203.45035086  97.32738761
4914.00 -203.58872534  97.43199354
4916.00 -203.72711545  97.53665970
4918.00 -203.86552114  97.64138609
4920.00 -204.00394240  97.74617269
4922.00 -204.14237917  97.85101950
4924.00 -204.28083144  97.95592652
4926.00 -204.41929917  98.06089374
4928.00 -204.55778233  98.16592116
4930.00 -204.69628089  98.27100876
4932.00 -204.83479482  98.37615654
4934.00 -204.97332408  98.48136450
4936.00 -205.11186865  98.58663262
4938.00 -205.25042848  98.69196091
4940.00 -205.38900356  98.79734936
4942.00 -205.52759384  98.90279796
4944.00 -205.66619931  99.00830670
4946.00 -205.80481991  99.11387558
4948.00 -205.94345564  99.21950459
4950.00 -206.08210644  99.32519373
4952.00 -206.22077230  99.43094299
4954.00 -206.35945317  99.53675236
4956.00 -206.49814903  99.64262183
4958.00 -206.63685985  99.74855141
4960.00 -206.77558560  99.85454109
4962.00 -206.91432623  99.96059085
4964.00 -207.05308173 100.06670069
4966.00 -207.19185206 100.17287061
4968.00 -207.33063719 100.27910060
4970.00 -207.46943709 100.38539064
4972.00 -207.60825173 100.49174075
4974.00 -207.74708107 100.59815090
4976.00 -207.88592508 100.70462110
4978.00 -208.02478373 100.81115134
4980.00 -208.16365700 100.91774160
4982.00 -208.30254485 101.02439189
4984.00 -208.44144724 101.13110219
4986.00 -208.58036416 101.23787251
4988.00 -208.71929556 101.34470283
4990.00 -208.85824141 101.45159315
4992.00 -208.99720169 101.55854345
4994.00 -209.13617636 101.66555374
4996.00 -209.27516539 101.77262401
4998.00 -209.41416875 101.87975425
5000.00 -209.55318641 101.98694445
