wavelength(nm)         real         imag
100.00   3.82345996   0.00073141
102.00   3.82036804   0.00077617
104.00   3.81721491   0.00082273
106.00   3.81400058   0.00087111
108.00   3.81072505   0.00092135
110.00   3.80738833   0.00097349
112.00   3.80399040   0.00102755
114.00   3.80053129   0.00108359
116.00   3.79701097   0.00114162
118.00   3.79342947   0.00120169
120.00   3.78978677   0.00126382
122.00   3.78608289   0.00132807
124.00   3.78231781   0.00139445
126.00   3.77849155   0.00146302
128.00   3.77460411   0.00153379
130.00   3.77065548   0.00160681
132.00   3.76664567   0.00168210
134.00   3.76257469   0.00175972
136.00   3.75844252   0.00183969
138.00   3.75424918   0.00192204
140.00   3.74999467   0.00200681
142.00   3.74567899   0.00209404
144.00   3.74130213   0.00218376
146.00   3.73686411   0.00227601
148.00   3.73236492   0.00237082
150.00   3.72780456   0.00246823
152.00   3.72318305   0.00256826
154.00   3.71850037   0.00267097
156.00   3.71375654   0.00277637
158.00   3.70895155   0.00288451
160.00   3.70408540   0.00299543
162.00   3.69915811   0.00310915
164.00   3.69416966   0.00322571
166.00   3.68912007   0.00334515
168.00   3.68400933   0.00346750
170.00   3.67883745   0.00359280
172.00   3.67360443   0.00372107
174.00   3.66831027   0.00385237
176.00   3.66295497   0.00398672
178.00   3.65753854   0.00412415
180.00   3.65206098   0.00426471
182.00   3.64652229   0.00440842
184.00   3.64092247   0.00455533
186.00   3.63526153   0.00470546
188.00   3.62953947   0.00485885
190.00   3.62375629   0.00501554
192.00   3.61791199   0.00517557
194.00   3.61200658   0.00533895
196.00   3.60604005   0.00550575
198.00   3.60001242   0.00567597
200.00   3.59392368   0.00584967
202.00   3.58777384   0.00602688
204.00   3.58156290   0.00620763
206.00   3.57529085   0.00639195
208.00   3.56895772   0.00657989
210.00   3.56256349   0.00677148
212.00   3.55610817   0.00696674
214.00   3.54959176   0.00716572
216.00   3.54301427   0.00736846
218.00   3.53637570   0.00757498
220.00   3.52967605   0.00778532
222.00   3.52291533   0.00799952
224.00   3.51609353   0.00821761
226.00   3.50921066   0.00843962
228.00   3.50226673   0.00866560
230.00   3.49526173   0.00889558
232.00   3.48819567   0.00912958
234.00   3.48106856   0.00936765
236.00   3.47388039   0.00960982
238.00   3.46663117   0.00985613
240.00   3.45932090   0.01010661
242.00   3.45194959   0.01036130
244.00   3.44451723   0.01062022
246.00   3.43702384   0.01088343
248.00   3.42946942   0.01115094
250.00   3.42185396   0.01142280
252.00   3.41417747   0.01169904
254.00   3.40643996   0.01197969
256.00   3.39864143   0.01226480
258.00   3.39078188   0.01255439
260.00   3.38286131   0.01284850
262.00   3.37487973   0.01314716
264.00   3.36683715   0.01345042
266.00   3.35873356   0.01375830
268.00   3.35056897   0.01407084
270.00   3.34234339   0.01438807
272.00   3.33405681   0.01471003
274.00   3.32570924   0.01503676
276.00   3.31730068   0.01536829
278.00   3.30883114   0.01570465
280.00   3.30030063   0.01604588
282.00   3.29170913   0.01639201
284.00   3.28305667   0.01674309
286.00   3.27434324   0.01709913
288.00   3.26556885   0.01746019
290.00   3.25673349   0.01782629
292.00   3.24783718   0.01819746
294.00   3.23887992   0.01857375
296.00   3.22986171   0.01895519
298.00   3.22078255   0.01934181
300.00   3.21164246   0.01973364
302.00   3.20244143   0.02013073
304.00   3.19317946   0.02053311
306.00   3.18385657   0.02094080
308.00   3.17447276   0.02135386
310.00   3.16502802   0.02177231
312.00   3.15552237   0.02219618
314.00   3.14595580   0.02262551
316.00   3.13632833   0.02306034
318.00   3.12663996   0.02350070
320.00   3.11689069   0.02394662
322.00   3.10708052   0.02439815
324.00   3.09720946   0.02485531
326.00   3.08727751   0.02531814
328.00   3.07728469   0.02578668
330.00   3.06723098   0.02626095
332.00   3.05711640   0.02674100
334.00   3.04694096   0.02722686
336.00   3.03670465   0.02771856
338.00   3.02640748   0.02821614
340.00   3.01604945   0.02871963
342.00   3.00563057   0.02922907
344.00   2.99515085   0.02974449
346.00   2.98461028   0.03026593
348.00   2.97400888   0.03079343
350.00   2.96334665   0.03132700
352.00   2.95262359   0.03186671
354.00   2.94183970   0.03241256
356.00   2.93099500   0.03296461
358.00   2.92008948   0.03352288
360.00   2.90912316   0.03408742
362.00   2.89809603   0.03465825
364.00   2.88700810   0.03523541
366.00   2.87585937   0.03581893
368.00   2.86464986   0.03640885
370.00   2.85337956   0.03700521
372.00   2.84204848   0.03760803
374.00   2.83065663   0.03821736
376.00   2.81920401   0.03883323
378.00   2.80769062   0.03945567
380.00   2.79611648   0.04008471
382.00   2.78448158   0.04072040
384.00   2.77278592   0.04136276
386.00   2.76102953   0.04201184
388.00   2.74921239   0.04266766
390.00   2.73733452   0.04333026
392.00   2.72539593   0.04399968
394.00   2.71339660   0.04467594
396.00   2.70133656   0.04535909
398.00   2.68921581   0.04604916
400.00   2.67703435   0.04674619
402.00   2.66479218   0.04745020
404.00   2.65248932   0.04816123
406.00   2.64012576   0.04887932
408.00   2.62770152   0.04960450
410.00   2.61521660   0.05033681
412.00   2.60267100   0.05107628
414.00   2.59006473   0.05182295
416.00   2.57739780   0.05257684
418.00   2.56467021   0.05333800
420.00   2.55188196   0.05410646
422.00   2.53903307   0.05488226
424.00   2.52612353   0.05566542
426.00   2.51315336   0.05645598
428.00   2.50012255   0.05725398
430.00   2.48703112   0.05805946
432.00   2.47387907   0.05887244
434.00   2.46066641   0.05969296
436.00   2.44739313   0.06052106
438.00   2.43405926   0.06135677
440.00   2.42066479   0.06220012
442.00   2.40720972   0.06305115
444.00   2.39369407   0.06390989
446.00   2.38011785   0.06477639
448.00   2.36648105   0.06565066
450.00   2.35278368   0.06653275
452.00   2.33902575   0.06742269
454.00   2.32520726   0.06832052
456.00   2.31132823   0.06922627
458.00   2.29738865   0.07013998
460.00   2.28338854   0.07106167
462.00   2.26932789   0.07199139
464.00   2.25520672   0.07292916
466.00   2.24102503   0.07387503
468.00   2.22678283   0.07482903
470.00   2.21248012   0.07579118
472.00   2.19811691   0.07676154
474.00   2.18369321   0.07774012
476.00   2.16920902   0.07872696
478.00   2.15466435   0.07972211
480.00   2.14005920   0.08072559
482.00   2.12539359   0.08173744
484.00   2.11066751   0.08275769
486.00   2.09588098   0.08378637
488.00   2.08103400   0.08482353
490.00   2.06612657   0.08586919
492.00   2.05115871   0.08692339
494.00   2.03613042   0.08798617
496.00   2.02104170   0.08905755
498.00   2.00589257   0.09013758
500.00   1.99068303   0.09122628
502.00   1.97541308   0.09232370
504.00   1.96008274   0.09342986
506.00   1.94469201   0.09454480
508.00   1.92924089   0.09566855
510.00   1.91372939   0.09680115
512.00   1.89815753   0.09794264
514.00   1.88252530   0.09909304
516.00   1.86683272   0.10025239
518.00   1.85107979   0.10142073
520.00   1.83526651   0.10259809
522.00   1.81939290   0.10378450
524.00   1.80345896   0.10498001
526.00   1.78746470   0.10618463
528.00   1.77141012   0.10739841
530.00   1.75529523   0.10862138
532.00   1.73912004   0.10985358
534.00   1.72288456   0.11109503
536.00   1.70658879   0.11234578
538.00   1.69023274   0.11360586
540.00   1.67381642   0.11487530
542.00   1.65733983   0.11615414
544.00   1.64080299   0.11744241
546.00   1.62420589   0.11874014
548.00   1.60754855   0.12004737
550.00   1.59083097   0.12136413
552.00   1.57405316   0.12269046
554.00   1.55721513   0.12402639
556.00   1.54031689   0.12537196
558.00   1.52335843   0.12672719
560.00   1.50633978   0.12809213
562.00   1.48926093   0.12946681
564.00   1.47212190   0.13085126
566.00   1.45492269   0.13224552
568.00   1.43766331   0.13364961
570.00   1.42034376   0.13506358
572.00   1.40296407   0.13648746
574.00   1.38552422   0.13792128
576.00   1.36802423   0.13936508
578.00   1.35046411   0.14081889
580.00   1.33284386   0.14228274
582.00   1.31516350   0.14375667
584.00   1.29742303   0.14524071
586.00   1.27962245   0.14673490
588.00   1.26176178   0.14823927
590.00   1.24384102   0.14975385
592.00   1.22586019   0.15127869
594.00   1.20781928   0.15281380
596.00   1.18971831   0.15435924
598.00   1.17155729   0.15591502
600.00   1.15333621   0.15748119
602.00   1.13505510   0.15905778
604.00   1.11671396   0.16064482
606.00   1.09831279   0.16224234
608.00   1.07985160   0.16385039
610.00   1.06133041   0.16546899
612.00   1.04274922   0.16709818
614.00   1.02410804   0.16873799
616.00   1.00540687   0.17038846
618.00   0.98664573   0.17204962
620.00   0.96782462   0.17372150
622.00   0.94894355   0.17540414
624.00   0.93000253   0.17709757
626.00   0.91100157   0.17880183
628.00   0.89194068   0.18051694
630.00   0.87281985   0.18224296
632.00   0.85363911   0.18397989
634.00   0.83439846   0.18572779
636.00   0.81509791   0.18748669
638.00   0.79573747   0.18925661
640.00   0.77631714   0.19103760
642.00   0.75683693   0.19282968
644.00   0.73729686   0.19463289
646.00   0.71769693   0.19644727
648.00   0.69803714   0.19827284
650.00   0.67831752   0.20010965
652.00   0.65853806   0.20195772
654.00   0.63869878   0.20381709
656.00   0.61879968   0.20568779
658.00   0.59884077   0.20756986
660.00   0.57882206   0.20946333
662.00   0.55874356   0.21136824
664.00   0.53860528   0.21328461
666.00   0.51840723   0.21521249
668.00   0.49814941   0.21715190
670.00   0.47783184   0.21910288
672.00   0.45745452   0.22106546
674.00   0.43701747   0.22303968
676.00   0.41652068   0.22502557
678.00   0.39596417   0.22702316
680.00   0.37534795   0.22903249
682.00   0.35467203   0.23105359
684.00   0.33393642   0.23308650
686.00   0.31314112   0.23513124
688.00   0.29228615   0.23718786
690.00   0.27137151   0.23925638
692.00   0.25039721   0.24133684
694.00   0.22936326   0.24342928
696.00   0.20826968   0.24553372
698.00   0.18711646   0.24765020
700.00   0.16590362   0.24977876
702.00   0.14463117   0.25191942
704.00   0.12329912   0.25407222
706.00   0.10190748   0.25623720
708.00   0.08045625   0.25841438
710.00   0.05894544   0.26060381
712.00   0.03737508   0.26280551
714.00   0.01574515   0.26501952
716.00  -0.00594432   0.26724587
718.00  -0.02769333   0.26948460
720.00  -0.04950187   0.27173573
722.00  -0.07136993   0.27399931
724.00  -0.09329749   0.27627537
726.00  -0.11528456   0.27856393
728.00  -0.13733112   0.28086504
730.00  -0.15943715   0.28317872
732.00  -0.18160266   0.28550501
734.00  -0.20382763   0.28784395
736.00  -0.22611205   0.29019556
738.00  -0.24845592   0.29255988
740.00  -0.27085922   0.29493695
742.00  -0.29332194   0.29732679
744.00  -0.31584407   0.29972944
746.00  -0.33842561   0.30214494
748.00  -0.36106654   0.30457331
750.00  -0.38376685   0.30701460
752.00  -0.40652654   0.30946882
754.00  -0.42934560   0.31193603
756.00  -0.45222401   0.31441624
758.00  -0.47516176   0.31690950
760.00  -0.49815885   0.31941583
762.00  -0.52121526   0.32193527
764.00  -0.54433099   0.32446786
766.00  -0.56750602   0.32701363
768.00  -0.59074035   0.32957260
770.00  -0.61403397   0.33214482
772.00  -0.63738685   0.33473031
774.00  -0.66079901   0.33732912
776.00  -0.68427042   0.33994126
778.00  -0.70780107   0.34256679
780.00  -0.73139096   0.34520572
782.00  -0.75504007   0.34785809
784.00  -0.77874840   0.35052394
786.00  -0.80251593   0.35320330
788.00  -0.82634265   0.35589620
790.00  -0.85022856   0.35860268
792.00  -0.87417364   0.36132277
794.00  -0.89817788   0.36405649
796.00  -0.92224128   0.36680389
798.00  -0.94636382   0.36956500
800.00  -0.97054549   0.37233985
802.00  -0.99478628   0.37512848
804.00  -1.01908618   0.37793091
806.00  -1.04344519   0.38074718
808.00  -1.06786328   0.38357733
810.00  -1.09234045   0.38642138
812.00  -1.11687669   0.38927937
814.00  -1.14147199   0.39215133
816.00  -1.16612634   0.39503730
818.00  -1.19083972   0.39793731
820.00  -1.21561213   0.40085139
822.00  -1.24044356   0.40377957
824.00  -1.26533399   0.40672190
826.00  -1.29028342   0.40967839
828.00  -1.31529183   0.41264908
830.00  -1.34035921   0.41563402
832.00  -1.36548556   0.41863322
834.00  -1.39067085   0.42164672
836.00  -1.41591509   0.42467456
838.00  -1.44121826   0.42771677
840.00  -1.46658034   0.43077338
842.00  -1.49200134   0.43384442
844.00  -1.51748123   0.43692993
846.00  -1.54302000   0.44002994
848.00  -1.56861766   0.44314448
850.00  -1.59427417   0.44627359
852.00  -1.61998954   0.44941730
854.00  -1.64576375   0.45257563
856.00  -1.67159679   0.45574864
858.00  -1.69748865   0.45893634
860.00  -1.72343932   0.46213876
862.00  -1.74944879   0.46535596
864.00  -1.77551704   0.46858794
866.00  -1.80164407   0.47183476
868.00  -1.82782987   0.47509643
870.00  -1.85407441   0.47837300
872.00  -1.88037770   0.48166450
874.00  -1.90673972   0.48497095
876.00  -1.93316045   0.48829240
878.00  -1.95963989   0.49162887
880.00  -1.98617803   0.49498040
882.00  -2.01277486   0.49834702
884.00  -2.03943036   0.50172876
886.00  -2.06614452   0.50512565
888.00  -2.09291732   0.50853774
890.00  -2.11974877   0.51196504
892.00  -2.14663885   0.51540760
894.00  -2.17358754   0.51886544
896.00  -2.20059484   0.52233861
898.00  -2.22766073   0.52582712
900.00  -2.25478520   0.52933102
902.00  -2.28196824   0.53285033
904.00  -2.30920983   0.53638509
906.00  -2.33650998   0.53993534
908.00  -2.36386866   0.54350110
910.00  -2.39128586   0.54708240
912.00  -2.41876157   0.55067929
914.00  -2.44629578   0.55429178
916.00  -2.47388848   0.55791992
918.00  -2.50153965   0.56156374
920.00  -2.52924929   0.56522326
922.00  -2.55701738   0.56889853
924.00  -2.58484391   0.57258957
926.00  -2.61272887   0.57629642
928.00  -2.64067224   0.58001910
930.00  -2.66867402   0.58375766
932.00  -2.69673419   0.58751212
934.00  -2.72485274   0.59128252
936.00  -2.75302966   0.59506888
938.00  -2.78126494   0.59887125
940.00  -2.80955856   0.60268965
942.00  -2.83791051   0.60652412
944.00  -2.86632078   0.61037468
946.00  -2.89478936   0.61424138
948.00  -2.92331623   0.61812423
950.00  -2.95190139   0.62202329
952.00  -2.98054482   0.62593857
954.00  -3.00924650   0.62987010
956.00  -3.03800644   0.63381794
958.00  -3.06682460   0.63778209
960.00  -3.09570099   0.64176260
962.00  -3.12463559   0.64575950
964.00  -3.15362839   0.64977282
966.00  -3.18267937   0.65380260
968.00  -3.21178852   0.65784886
970.00  -3.24095584   0.66191164
972.00  -3.27018130   0.66599096
974.00  -3.29946489   0.67008687
976.00  -3.32880661   0.67419939
978.00  -3.35820644   0.67832856
980.00  -3.38766437   0.68247441
982.00  -3.41718038   0.68663697
984.00  -3.44675446   0.69081627
986.00  -3.47638660   0.69501235
988.00  -3.50607679   0.69922523
990.00  -3.53582501   0.70345495
992.00  -3.56563126   0.70770154
994.00  -3.59549551   0.71196504
996.00  -3.62541776   0.71624547
998.00  -3.65539800   0.72054286
1000.00  -3.68543620   0.72485726
1002.00  -3.71553236   0.72918869
1004.00  -3.74568647   0.73353718
1006.00  -3.77589851   0.73790277
1008.00  -3.80616847   0.74228548
1010.00  -3.83649633   0.74668535
1012.00  -3.86688209   0.75110242
1014.00  -3.89732573   0.75553670
1016.00  -3.92782723   0.75998824
1018.00  -3.95838659   0.76445707
1020.00  -3.98900380   0.76894322
1022.00  -4.01967882   0.77344671
1024.00  -4.05041167   0.77796759
1026.00  -4.08120232   0.78250589
1028.00  -4.11205075   0.78706163
1030.00  -4.14295697   0.79163485
1032.00  -4.17392094   0.79622558
1034.00  -4.20494267   0.80083385
1036.00  -4.23602213   0.80545969
1038.00  -4.26715931   0.81010314
1040.00  -4.29835421   0.81476422
1042.00  -4.32960680   0.81944298
1044.00  -4.36091707   0.82413943
1046.00  -4.39228502   0.82885362
1048.00  -4.42371062   0.83358557
1050.00  -4.45519386   0.83833532
1052.00  -4.48673474   0.84310290
1054.00  -4.51833323   0.84788833
1056.00  -4.54998932   0.85269165
1058.00  -4.58170301   0.85751290
1060.00  -4.61347426   0.86235210
1062.00  -4.64530309   0.86720929
1064.00  -4.67718946   0.87208449
1066.00  -4.70913337   0.87697775
1068.00  -4.74113479   0.88188908
1070.00  -4.77319373   0.88681853
1072.00  -4.80531016   0.89176612
1074.00  -4.83748408   0.89673189
1076.00  -4.86971546   0.90171586
1078.00  -4.90200429   0.90671807
1080.00  -4.93435057   0.91173855
1082.00  -4.96675427   0.91677733
1084.00  -4.99921538   0.92183445
1086.00  -5.03173389   0.92690993
1088.00  -5.06430979   0.93200381
1090.00  -5.09694306   0.93711611
1092.00  -5.12963369   0.94224687
1094.00  -5.16238166   0.94739612
1096.00  -5.19518695   0.95256390
1098.00  -5.22804957   0.95775023
1100.00  -5.26096949   0.96295514
1102.00  -5.29394669   0.96817867
1104.00  -5.32698117   0.97342084
1106.00  -5.36007290   0.97868170
1108.00  -5.39322189   0.98396126
1110.00  -5.42642810   0.98925957
1112.00  -5.45969154   0.99457665
1114.00  -5.49301217   0.99991253
1116.00  -5.52639000   1.00526725
1118.00  -5.55982500   1.01064083
1120.00  -5.59331716   1.01603331
1122.00  -5.62686647   1.02144472
1124.00  -5.66047291   1.02687509
1126.00  -5.69413647   1.03232446
1128.00  -5.72785713   1.03779284
1130.00  -5.76163489   1.04328028
1132.00  -5.79546972   1.04878681
1134.00  -5.82936161   1.05431245
1136.00  -5.86331054   1.05985723
1138.00  -5.89731651   1.06542120
1140.00  -5.93137950   1.07100438
1142.00  -5.96549950   1.07660679
1144.00  -5.99967648   1.08222848
1146.00  -6.03391043   1.08786948
1148.00  -6.06820135   1.09352980
1150.00  -6.10254921   1.09920949
1152.00  -6.13695401   1.10490858
1154.00  -6.17141572   1.11062710
1156.00  -6.20593433   1.11636507
1158.00  -6.24050984   1.12212253
1160.00  -6.27514221   1.12789952
1162.00  -6.30983144   1.13369605
1164.00  -6.34457752   1.13951217
1166.00  -6.37938043   1.14534790
1168.00  -6.41424015   1.15120327
1170.00  -6.44915667   1.15707832
1172.00  -6.48412997   1.16297308
1174.00  -6.51916005   1.16888757
1176.00  -6.55424688   1.17482183
1178.00  -6.58939045   1.18077589
1180.00  -6.62459075   1.18674978
1182.00  -6.65984775   1.19274352
1184.00  -6.69516146   1.19875716
1186.00  -6.73053184   1.20479073
1188.00  -6.76595890   1.21084424
1190.00  -6.80144260   1.21691774
1192.00  -6.83698294   1.22301125
1194.00  -6.87257990   1.22912481
1196.00  -6.90823347   1.23525844
1198.00  -6.94394362   1.24141218
1200.00  -6.97971036   1.24758606
1202.00  -7.01553366   1.25378011
1204.00  -7.05141350   1.25999435
1206.00  -7.08734987   1.26622882
1208.00  -7.12334276   1.27248356
1210.00  -7.15939215   1.27875858
1212.00  -7.19549802   1.28505393
1214.00  -7.23166037   1.29136963
1216.00  -7.26787917   1.29770571
1218.00  -7.30415441   1.30406220
1220.00  -7.34048607   1.31043914
1222.00  -7.37687415   1.31683655
1224.00  -7.41331862   1.32325447
1226.00  -7.44981946   1.32969292
1228.00  -7.48637667   1.33615194
1230.00  -7.52299023   1.34263156
1232.00  -7.55966012   1.34913180
1234.00  -7.59638633   1.35565270
1236.00  -7.63316884   1.36219429
1238.00  -7.67000763   1.36875659
1240.00  -7.70690270   1.37533965
1242.00  -7.74385402   1.38194348
1244.00  -7.78086158   1.38856812
1246.00  -7.81792536   1.39521361
1248.00  -7.85504536   1.40187996
1250.00  -7.89222154   1.40856722
1252.00  -7.92945391   1.41527540
1254.00  -7.96674243   1.42200455
1256.00  -8.00408710   1.42875469
1258.00  -8.04148790   1.43552585
1260.00  -8.07894482   1.44231807
1262.00  -8.11645783   1.44913136
1264.00  -8.15402693   1.45596577
1266.00  -8.19165210   1.46282132
1268.00  -8.22933331   1.46969805
1270.00  -8.26707057   1.47659598
1272.00  -8.30486384   1.48351514
1274.00  -8.34271312   1.49045557
1276.00  -8.38061838   1.49741729
1278.00  -8.41857962   1.50440034
1280.00  -8.45659682   1.51140474
1282.00  -8.49466995   1.51843052
1284.00  -8.53279901   1.52547772
1286.00  -8.57098398   1.53254637
1288.00  -8.60922484   1.53963649
1290.00  -8.64752157   1.54674811
1292.00  -8.68587417   1.55388127
1294.00  -8.72428261   1.56103600
1296.00  -8.76274688   1.56821232
1298.00  -8.80126697   1.57541026
1300.00  -8.83984285   1.58262987
1302.00  -8.87847451   1.58987115
1304.00  -8.91716193   1.59713415
1306.00  -8.95590510   1.60441890
1308.00  -8.99470400   1.61172542
1310.00  -9.03355862   1.61905374
1312.00  -9.07246893   1.62640390
1314.00  -9.11143493   1.63377593
1316.00  -9.15045660   1.64116985
1318.00  -9.18953391   1.64858569
1320.00  -9.22866686   1.65602349
1322.00  -9.26785543   1.66348327
1324.00  -9.30709959   1.67096507
1326.00  -9.34639935   1.67846891
1328.00  -9.38575467   1.68599483
1330.00  -9.42516554   1.69354284
1332.00  -9.46463195   1.70111299
1334.00  -9.50415387   1.70870531
1336.00  -9.54373130   1.71631981
1338.00  -9.58336421   1.72395654
1340.00  -9.62305260   1.73161552
1342.00  -9.66279643   1.73929678
1344.00  -9.70259571   1.74700035
1346.00  -9.74245040   1.75472627
1348.00  -9.78236049   1.76247455
1350.00  -9.82232597   1.77024524
1352.00  -9.86234682   1.77803835
1354.00  -9.90242303   1.78585392
1356.00  -9.94255457   1.79369198
1358.00  -9.98274142   1.80155257
1360.00 -10.02298359   1.80943569
1362.00 -10.06328103   1.81734140
1364.00 -10.10363375   1.82526971
1366.00 -10.14404172   1.83322066
1368.00 -10.18450492   1.84119428
1370.00 -10.22502335   1.84919059
1372.00 -10.26559697   1.85720963
1374.00 -10.30622578   1.86525142
1376.00 -10.34690976   1.87331599
1378.00 -10.38764889   1.88140338
1380.00 -10.42844315   1.88951361
1382.00 -10.46929253   1.89764672
1384.00 -10.51019701   1.90580272
1386.00 -10.55115657   1.91398165
1388.00 -10.59217120   1.92218355
1390.00 -10.63324088   1.93040843
1392.00 -10.67436558   1.93865633
1394.00 -10.71554531   1.94692728
1396.00 -10.75678003   1.95522131
1398.00 -10.79806973   1.96353844
1400.00 -10.83941440   1.97187871
1402.00 -10.88081401   1.98024215
1404.00 -10.92226855   1.98862877
1406.00 -10.96377800   1.99703863
1408.00 -11.00534235   2.00547173
1410.00 -11.04696158   2.01392811
1412.00 -11.08863566   2.02240781
1414.00 -11.13036459   2.03091084
1416.00 -11.17214834   2.03943725
1418.00 -11.21398690   2.04798705
1420.00 -11.25588025   2.05656028
1422.00 -11.29782838   2.06515696
1424.00 -11.33983126   2.07377713
1426.00 -11.38188888   2.08242082
1428.00 -11.42400122   2.09108804
1430.00 -11.46616826   2.09977884
1432.00 -11.50838999   2.10849324
1434.00 -11.55066639   2.11723127
1436.00 -11.59299744   2.12599296
1438.00 -11.63538312   2.13477834
1440.00 -11.67782342   2.14358743
1442.00 -11.72031832   2.15242027
1444.00 -11.76286780   2.16127689
1446.00 -11.80547184   2.17015731
1448.00 -11.84813042   2.17906156
1450.00 -11.89084354   2.18798967
1452.00 -11.93361116   2.19694167
1454.00 -11.97643328   2.20591759
1456.00 -12.01930987   2.21491745
1458.00 -12.06224092   2.22394130
1460.00 -12.10522641   2.23298914
1462.00 -12.14826632   2.24206103
1464.00 -12.19136064   2.25115697
1466.00 -12.23450934   2.26027701
1468.00 -12.27771240   2.26942116
1470.00 -12.32096982   2.27858946
1472.00 -12.36428157   2.28778194
1474.00 -12.40764764   2.29699863
1476.00 -12.45106800   2.30623955
1478.00 -12.49454264   2.31550474
1480.00 -12.53807154   2.32479421
1482.00 -12.58165468   2.33410801
1484.00 -12.62529205   2.34344615
1486.00 -12.66898363   2.35280867
1488.00 -12.71272939   2.36219560
1490.00 -12.75652932   2.37160696
1492.00 -12.80038341   2.38104278
1494.00 -12.84429163   2.39050310
1496.00 -12.88825397   2.39998793
1498.00 -12.93227040   2.40949731
1500.00 -12.97634092   2.41903127
1502.00 -13.02046550   2.42858984
1504.00 -13.06464412   2.43817303
1506.00 -13.10887676   2.44778089
1508.00 -13.15316342   2.45741344
1510.00 -13.19750406   2.46707071
1512.00 -13.24189867   2.47675272
1514.00 -13.28634724   2.48645951
1516.00 -13.33084974   2.49619110
1518.00 -13.37540616   2.50594752
1520.00 -13.42001647   2.51572880
1522.00 -13.46468066   2.52553498
1524.00 -13.50939872   2.53536606
1526.00 -13.55417061   2.54522209
1528.00 -13.59899633   2.55510310
1530.00 -13.64387586   2.56500910
1532.00 -13.68880917   2.57494013
1534.00 -13.73379625   2.58489622
1536.00 -13.77883708   2.59487740
1538.00 -13.82393164   2.60488369
1540.00 -13.86907992   2.61491511
1542.00 -13.91428189   2.62497171
1544.00 -13.95953753   2.63505351
1546.00 -14.00484684   2.64516053
1548.00 -14.05020978   2.65529280
1550.00 -14.09562634   2.66545036
1552.00 -14.14109651   2.67563323
1554.00 -14.18662025   2.68584143
1556.00 -14.23219756   2.69607500
1558.00 -14.27782842   2.70633396
1560.00 -14.32351280   2.71661834
1562.00 -14.36925069   2.72692817
1564.00 -14.41504207   2.73726348
1566.00 -14.46088692   2.74762429
1568.00 -14.50678522   2.75801064
1570.00 -14.55273696   2.76842254
1572.00 -14.59874211   2.77886004
1574.00 -14.64480065   2.78932315
1576.00 -14.69091257   2.79981190
1578.00 -14.73707785   2.81032633
1580.00 -14.78329646   2.82086645
1582.00 -14.82956840   2.83143230
1584.00 -14.87589364   2.84202391
1586.00 -14.92227215   2.85264130
1588.00 -14.96870393   2.86328450
1590.00 -15.01518896   2.87395353
1592.00 -15.06172721   2.88464844
1594.00 -15.10831866   2.89536923
1596.00 -15.15496330   2.90611595
1598.00 -15.20166111   2.91688861
1600.00 -15.24841207   2.92768725
1602.00 -15.29521615   2.93851189
1604.00 -15.34207335   2.94936256
1606.00 -15.38898363   2.96023930
1608.00 -15.43594699   2.97114211
1610.00 -15.48296341   2.98207104
1612.00 -15.53003285   2.99302611
1614.00 -15.57715531   3.00400735
1616.00 -15.62433076   3.01501479
1618.00 -15.67155919   3.02604845
1620.00 -15.71884058   3.03710836
1622.00 -15.76617490   3.04819454
1624.00 -15.81356214   3.05930703
1626.00 -15.86100228   3.07044586
1628.00 -15.90849530   3.08161104
1630.00 -15.95604118   3.09280261
1632.00 -16.00363990   3.10402059
1634.00 -16.05129144   3.11526502
1636.00 -16.09899578   3.12653592
1638.00 -16.14675291   3.13783331
1640.00 -16.19456279   3.14915722
1642.00 -16.24242542   3.16050769
1644.00 -16.29034078   3.17188473
1646.00 -16.33830884   3.18328838
1648.00 -16.38632958   3.19471866
1650.00 -16.43440299   3.20617560
1652.00 -16.48252904   3.21765922
1654.00 -16.53070772   3.22916956
1656.00 -16.57893900   3.24070664
1658.00 -16.62722288   3.25227048
1660.00 -16.67555932   3.26386112
1662.00 -16.72394830   3.27547859
1664.00 -16.77238982   3.28712290
1666.00 -16.82088384   3.29879408
1668.00 -16.86943035   3.31049217
1670.00 -16.91802933   3.32221719
1672.00 -16.96668076   3.33396916
1674.00 -17.01538462   3.34574812
1676.00 -17.06414089   3.35755409
1678.00 -17.11294954   3.36938709
1680.00 -17.16181057   3.38124716
1682.00 -17.21072395   3.39313432
1684.00 -17.25968966   3.40504860
1686.00 -17.30870767   3.41699002
1688.00 -17.35777798   3.42895861
1690.00 -17.40690056   3.44095440
1692.00 -17.45607539   3.45297742
1694.00 -17.50530245   3.46502768
1696.00 -17.55458172   3.47710523
1698.00 -17.60391318   3.48921007
1700.00 -17.65329681   3.50134225
1702.00 -17.70273259   3.51350179
1704.00 -17.75222051   3.52568871
1706.00 -17.80176053   3.53790305
1708.00 -17.85135264   3.55014482
1710.00 -17.90099683   3.56241406
1712.00 -17.95069306   3.57471079
1714.00 -18.00044133   3.58703503
1716.00 -18.05024161   3.59938682
1718.00 -18.10009387   3.61176618
1720.00 -18.14999811   3.62417314
1722.00 -18.19995429   3.63660772
1724.00 -18.24996241   3.64906995
1726.00 -18.30002243   3.66155986
1728.00 -18.35013434   3.67407747
1730.00 -18.40029813   3.68662281
1732.00 -18.45051376   3.69919591
1734.00 -18.50078121   3.71179679
1736.00 -18.55110048   3.72442547
1738.00 -18.60147153   3.73708199
1740.00 -18.65189436   3.74976638
1742.00 -18.70236892   3.76247865
1744.00 -18.75289522   3.77521883
1746.00 -18.80347322   3.78798695
1748.00 -18.85410291   3.80078304
1750.00 -18.90478426   3.81360713
1752.00 -18.95551726   3.82645923
1754.00 -19.00630188   3.83933937
1756.00 -19.05713810   3.85224759
1758.00 -19.10802591   3.86518390
1760.00 -19.15896529   3.87814834
1762.00 -19.20995620   3.89114093
1764.00 -19.26099864   3.90416169
1766.00 -19.31209258   3.91721065
1768.00 -19.36323799   3.93028785
1770.00 -19.41443487   3.94339329
1772.00 -19.46568319   3.95652701
1774.00 -19.51698293   3.96968904
1776.00 -19.56833407   3.98287941
1778.00 -19.61973658   3.99609812
1780.00 -19.67119045   4.00934523
1782.00 -19.72269566   4.02262074
1784.00 -19.77425218   4.03592469
1786.00 -19.82586000   4.04925709
1788.00 -19.87751909   4.06261799
1790.00 -19.92922944   4.07600740
1792.00 -19.98099102   4.08942535
1794.00 -20.03280381   4.10287186
1796.00 -20.08466779   4.11634696
1798.00 -20.13658294   4.12985068
1800.00 -20.18854924   4.14338304
1802.00 -20.24056667   4.15694407
1804.00 -20.29263521   4.17053379
1806.00 -20.34475483   4.18415223
1808.00 -20.39692552   4.19779941
1810.00 -20.44914725   4.21147537
1812.00 -20.50142001   4.22518012
1814.00 -20.55374378   4.23891369
1816.00 -20.60611852   4.25267611
1818.00 -20.65854423   4.26646740
1820.00 -20.71102087   4.28028760
1822.00 -20.76354844   4.29413671
1824.00 -20.81612690   4.30801478
1826.00 -20.86875624   4.32192181
1828.00 -20.92143643   4.33585786
1830.00 -20.97416747   4.34982292
1832.00 -21.02694931   4.36381704
1834.00 -21.07978195   4.37784023
1836.00 -21.13266536   4.39189253
1838.00 -21.18559951   4.40597395
1840.00 -21.23858440   4.42008453
1842.00 -21.29162000   4.43422429
1844.00 -21.34470628   4.44839325
1846.00 -21.39784323   4.46259143
1848.00 -21.45103083   4.47681888
1850.00 -21.50426904   4.49107560
1852.00 -21.55755786   4.50536163
1854.00 -21.61089726   4.51967698
1856.00 -21.66428722   4.53402170
1858.00 -21.71772772   4.54839579
1860.00 -21.77121873   4.56279929
1862.00 -21.82476024   4.57723222
1864.00 -21.87835222   4.59169460
1866.00 -21.93199466   4.60618647
1868.00 -21.98568752   4.62070784
1870.00 -22.03943080   4.63525875
1872.00 -22.09322447   4.64983921
1874.00 -22.14706850   4.66444925
1876.00 -22.20096288   4.67908890
1878.00 -22.25490758   4.69375818
1880.00 -22.30890258   4.70845712
1882.00 -22.36294787   4.72318574
1884.00 -22.41704342   4.73794406
1886.00 -22.47118920   4.75273212
1888.00 -22.52538520   4.76754993
1890.00 -22.57963140   4.78239753
1892.00 -22.63392777   4.79727493
1894.00 -22.68827429   4.81218216
1896.00 -22.74267094   4.82711925
1898.00 -22.79711770   4.84208622
1900.00 -22.85161454   4.85708309
1902.00 -22.90616146   4.87210989
1904.00 -22.96075841   4.88716665
1906.00 -23.01540539   4.90225339
1908.00 -23.07010237   4.91737013
1910.00 -23.12484932   4.93251690
1912.00 -23.17964624   4.94769373
1914.00 -23.23449309   4.96290063
1916.00 -23.28938985   4.97813764
1918.00 -23.34433650   4.99340478
1920.00 -23.39933302   5.00870206
1922.00 -23.45437940   5.02402953
1924.00 -23.50947559   5.03938719
1926.00 -23.56462160   5.05477509
1928.00 -23.61981738   5.07019323
1930.00 -23.67506292   5.08564165
1932.00 -23.73035821   5.10112037
1934.00 -23.78570321   5.11662941
1936.00 -23.84109791   5.13216880
1938.00 -23.89654227   5.14773856
1940.00 -23.95203629   5.16333872
1942.00 -24.00757994   5.17896930
1944.00 -24.06317320   5.19463033
1946.00 -24.11881604   5.21032183
1948.00 -24.17450844   5.22604382
1950.00 -24.23025039   5.24179634
1952.00 -24.28604185   5.25757939
1954.00 -24.34188282   5.27339302
1956.00 -24.39777325   5.28923723
1958.00 -24.45371314   5.30511207
1960.00 -24.50970246   5.32101754
1962.00 -24.56574119   5.33695368
1964.00 -24.62182931   5.35292050
1966.00 -24.67796679   5.36891804
1968.00 -24.73415361   5.38494632
1970.00 -24.79038976   5.40100536
1972.00 -24.84667520   5.41709518
1974.00 -24.90300991   5.43321581
1976.00 -24.95939388   5.44936728
1978.00 -25.01582709   5.46554960
1980.00 -25.07230950   5.48176281
1982.00 -25.12884109   5.49800692
1984.00 -25.18542186   5.51428196
1986.00 -25.24205176   5.53058795
1988.00 -25.29873079   5.54692492
1990.00 -25.35545891   5.56329290
1992.00 -25.41223611   5.57969189
1994.00 -25.46906236   5.59612194
1996.00 -25.52593764   5.61258306
1998.00 -25.58286193   5.62907528
2000.00 -25.63983521   5.64559861
2002.00 -25.69685745   5.66215309
2004.00 -25.75392863   5.67873874
2006.00 -25.81104873   5.69535559
2008.00 -25.86821772   5.71200364
2010.00 -25.92543559   5.72868294
2012.00 -25.98270232   5.74539350
2014.00 -26.04001787   5.76213535
2016.00 -26.09738222   5.77890850
2018.00 -26.15479536   5.79571300
2020.00 -26.21225726   5.81254884
2022.00 -26.26976791   5.82941608
2024.00 -26.32732726   5.84631471
2026.00 -26.38493531   5.86324477
2028.00 -26.44259203   5.88020629
2030.00 -26.50029741   5.89719928
2032.00 -26.55805140   5.91422377
2034.00 -26.61585400   5.93127979
2036.00 -26.67370518   5.94836735
2038.00 -26.73160492   5.96548648
2040.00 -26.78955319   5.98263720
2042.00 -26.84754998   5.99981953
2044.00 -26.90559526   6.01703351
2046.00 -26.96368900   6.03427915
2048.00 -27.02183119   6.05155648
2050.00 -27.08002180   6.06886552
2052.00 -27.13826081   6.08620629
2054.00 -27.19654819   6.10357881
2056.00 -27.25488393   6.12098312
2058.00 -27.31326800   6.13841923
2060.00 -27.37170038   6.15588716
2062.00 -27.43018104   6.17338694
2064.00 -27.48870996   6.19091860
2066.00 -27.54728713   6.20848215
2068.00 -27.60591251   6.22607762
2070.00 -27.66458608   6.24370503
2072.00 -27.72330783   6.26136441
2074.00 -27.78207772   6.27905578
2076.00 -27.84089574   6.29677915
2078.00 -27.89976186   6.31453456
2080.00 -27.95867606   6.33232203
2082.00 -28.01763831   6.35014158
2084.00 -28.07664860   6.36799323
2086.00 -28.13570690   6.38587700
2088.00 -28.19481318   6.40379293
2090.00 -28.25396743   6.42174103
2092.00 -28.31316962   6.43972132
2094.00 -28.37241973   6.45773383
2096.00 -28.43171774   6.47577858
2098.00 -28.49106361   6.49385559
2100.00 -28.55045734   6.51196489
2102.00 -28.60989889   6.53010650
2104.00 -28.66938824   6.54828044
2106.00 -28.72892538   6.56648674
2108.00 -28.78851027   6.58472541
2110.00 -28.84814289   6.60299648
2112.00 -28.90782322   6.62129998
2114.00 -28.96755124   6.63963592
2116.00 -29.02732693   6.65800432
2118.00 -29.08715025   6.67640522
2120.00 -29.14702120   6.69483864
2122.00 -29.20693973   6.71330458
2124.00 -29.26690584   6.73180309
2126.00 -29.32691949   6.75033418
2128.00 -29.38698067   6.76889787
2130.00 -29.44708936   6.78749418
2132.00 -29.50724551   6.80612315
2134.00 -29.56744913   6.82478479
2136.00 -29.62770017   6.84347912
2138.00 -29.68799862   6.86220616
2140.00 -29.74834446   6.88096594
2142.00 -29.80873766   6.89975849
2144.00 -29.86917820   6.91858382
2146.00 -29.92966605   6.93744195
2148.00 -29.99020119   6.95633291
2150.00 -30.05078360   6.97525672
2152.00 -30.11141325   6.99421340
2154.00 -30.17209013   7.01320298
2156.00 -30.23281420   7.03222547
2158.00 -30.29358545   7.05128091
2160.00 -30.35440384   7.07036930
2162.00 -30.41526937   7.08949068
2164.00 -30.47618199   7.10864506
2166.00 -30.53714170   7.12783247
2168.00 -30.59814847   7.14705293
2170.00 -30.65920226   7.16630646
2172.00 -30.72030307   7.18559309
2174.00 -30.78145086   7.20491283
2176.00 -30.84264562   7.22426571
2178.00 -30.90388731   7.24365175
2180.00 -30.96517592   7.26307098
2182.00 -31.02651142   7.28252340
2184.00 -31.08789378   7.30200906
2186.00 -31.14932300   7.32152796
2188.00 -31.21079903   7.34108013
2190.00 -31.27232186   7.36066559
2192.00 -31.33389146   7.38028437
2194.00 -31.39550781   7.39993648
2196.00 -31.45717089   7.41962195
2198.00 -31.51888067   7.43934080
2200.00 -31.58063713   7.45909304
2202.00 -31.64244025   7.47887872
2204.00 -31.70428999   7.49869783
2206.00 -31.76618634   7.51855041
2208.00 -31.82812928   7.53843649
2210.00 -31.89011877   7.55835606
2212.00 -31.95215480   7.57830918
2214.00 -32.01423735   7.59829584
2216.00 -32.07636638   7.61831608
2218.00 -32.13854187   7.63836991
2220.00 -32.20076381   7.65845737
2222.00 -32.26303216   7.67857846
2224.00 -32.32534691   7.69873321
2226.00 -32.38770803   7.71892164
2228.00 -32.45011549   7.73914378
2230.00 -32.51256927   7.75939965
2232.00 -32.57506935   7.77968926
2234.00 -32.63761570   7.80001264
2236.00 -32.70020830   7.82036980
2238.00 -32.76284713   7.84076078
2240.00 -32.82553216   7.86118559
2242.00 -32.88826336   7.88164426
2244.00 -32.95104072   7.90213680
2246.00 -33.01386421   7.92266324
2248.00 -33.07673381   7.94322359
2250.00 -33.13964949   7.96381789
2252.00 -33.20261122   7.98444614
2254.00 -33.26561899   8.00510837
2256.00 -33.32867277   8.02580461
2258.00 -33.39177253   8.04653487
2260.00 -33.45491825   8.06729918
2262.00 -33.51810991   8.08809755
2264.00 -33.58134749   8.10893001
2266.00 -33.64463095   8.12979658
2268.00 -33.70796028   8.15069728
2270.00 -33.77133545   8.17163213
2272.00 -33.83475643   8.19260115
2274.00 -33.89822321   8.21360436
2276.00 -33.96173576   8.23464179
2278.00 -34.02529405   8.25571345
2280.00 -34.08889806   8.27681936
2282.00 -34.15254776   8.29795955
2284.00 -34.21624314   8.31913404
2286.00 -34.27998417   8.34034285
2288.00 -34.34377081   8.36158600
2290.00 -34.40760306   8.38286351
2292.00 -34.47148088   8.40417539
2294.00 -34.53540425   8.42552168
2296.00 -34.59937315   8.44690239
2298.00 -34.66338754   8.46831755
2300.00 -34.72744742   8.48976717
2302.00 -34.79155275   8.51125127
2304.00 -34.85570351   8.53276988
2306.00 -34.91989967   8.55432301
2308.00 -34.98414121   8.57591070
2310.00 -35.04842811   8.59753294
2312.00 -35.11276033   8.61918978
2314.00 -35.17713787   8.64088123
2316.00 -35.24156069   8.66260730
2318.00 -35.30602876   8.68436802
2320.00 -35.37054207   8.70616342
2322.00 -35.43510059   8.72799350
2324.00 -35.49970429   8.74985830
2326.00 -35.56435315   8.77175783
2328.00 -35.62904715   8.79369211
2330.00 -35.69378626   8.81566116
2332.00 -35.75857046   8.83766500
2334.00 -35.82339972   8.85970366
2336.00 -35.88827402   8.88177716
2338.00 -35.95319333   8.90388550
2340.00 -36.01815763   8.92602872
2342.00 -36.08316689   8.94820684
2344.00 -36.14822110   8.97041987
2346.00 -36.21332022   8.99266783
2348.00 -36.27846422   9.01495076
2350.00 -36.34365310   9.03726865
2352.00 -36.40888682   9.05962155
2354.00 -36.47416535   9.08200945
2356.00 -36.53948868   9.10443240
2358.00 -36.60485677   9.12689040
2360.00 -36.67026961   9.14938348
2362.00 -36.73572716   9.17191165
2364.00 -36.80122941   9.19447494
2366.00 -36.86677633   9.21707337
2368.00 -36.93236789   9.23970696
2370.00 -36.99800407   9.26237572
2372.00 -37.06368484   9.28507967
2374.00 -37.12941019   9.30781885
2376.00 -37.19518008   9.33059326
2378.00 -37.26099449   9.35340293
2380.00 -37.32685340   9.37624787
2382.00 -37.39275678   9.39912811
2384.00 -37.45870461   9.42204367
2386.00 -37.52469686   9.44499456
2388.00 -37.59073350   9.46798081
2390.00 -37.65681452   9.49100243
2392.00 -37.72293988   9.51405945
2394.00 -37.78910957   9.53715189
2396.00 -37.85532355   9.56027975
2398.00 -37.92158181   9.58344308
2400.00 -37.98788432   9.60664188
2402.00 -38.05423105   9.62987617
2404.00 -38.12062197   9.65314597
2406.00 -38.18705707   9.67645131
2408.00 -38.25353632   9.69979220
2410.00 -38.32005970   9.72316867
2412.00 -38.38662717   9.74658072
2414.00 -38.45323871   9.77002839
2416.00 -38.51989431   9.79351169
2418.00 -38.58659392   9.81703063
2420.00 -38.65333754   9.84058525
2422.00 -38.72012513   9.86417556
2424.00 -38.78695667   9.88780158
2426.00 -38.85383214   9.91146332
2428.00 -38.92075150   9.93516081
2430.00 -38.98771474   9.95889407
2432.00 -39.05472183   9.98266312
2434.00 -39.12177274  10.00646797
2436.00 -39.18886745  10.03030864
2438.00 -39.25600593  10.05418517
2440.00 -39.32318817  10.07809755
2442.00 -39.39041413  10.10204582
2444.00 -39.45768378  10.12602998
2446.00 -39.52499711  10.15005007
2448.00 -39.59235409  10.17410610
2450.00 -39.65975470  10.19819809
2452.00 -39.72719890  10.22232606
2454.00 -39.79468667  10.24649003
2456.00 -39.86221800  10.27069001
2458.00 -39.92979284  10.29492603
2460.00 -39.99741119  10.31919810
2462.00 -40.06507301  10.34350625
2464.00 -40.13277827  10.36785049
2466.00 -40.20052696  10.39223084
2468.00 -40.26831905  10.41664732
2470.00 -40.33615450  10.44109995
2472.00 -40.40403331  10.46558876
2474.00 -40.47195544  10.49011374
2476.00 -40.53992086  10.51467494
2478.00 -40.60792956  10.53927236
2480.00 -40.67598150  10.56390602
2482.00 -40.74407666  10.58857595
2484.00 -40.81221502  10.61328216
2486.00 -40.88039655  10.63802467
2488.00 -40.94862122  10.66280350
2490.00 -41.01688901  10.68761867
2492.00 -41.08519990  10.71247019
2494.00 -41.15355386  10.73735809
2496.00 -41.22195086  10.76228239
2498.00 -41.29039088  10.78724309
2500.00 -41.35887390  10.81224023
2502.00 -41.42739988  10.83727382
2504.00 -41.49596880  10.86234387
2506.00 -41.56458065  10.88745041
2508.00 -41.63323538  10.91259346
2510.00 -41.70193298  10.93777304
2512.00 -41.77067342  10.96298915
2514.00 -41.83945668  10.98824183
2516.00 -41.90828273  11.01353108
2518.00 -41.97715154  11.03885693
2520.00 -42.04606309  11.06421940
2522.00 -42.11501736  11.08961851
2524.00 -42.18401432  11.11505426
2526.00 -42.25305394  11.14052669
2528.00 -42.32213619  11.16603581
2530.00 -42.39126106  11.19158164
2532.00 -42.46042852  11.21716419
2534.00 -42.52963854  11.24278348
2536.00 -42.59889109  11.26843954
2538.00 -42.66818616  11.29413238
2540.00 -42.73752371  11.31986202
2542.00 -42.80690372  11.34562848
2544.00 -42.87632616  11.37143177
2546.00 -42.94579101  11.39727191
2548.00 -43.01529825  11.42314893
2550.00 -43.08484784  11.44906284
2552.00 -43.15443976  11.47501365
2554.00 -43.22407399  11.50100139
2556.00 -43.29375050  11.52702607
2558.00 -43.36346927  11.55308772
2560.00 -43.43323026  11.57918634
2562.00 -43.50303346  11.60532197
2564.00 -43.57287884  11.63149460
2566.00 -43.64276637  11.65770428
2568.00 -43.71269603  11.68395100
2570.00 -43.78266779  11.71023479
2572.00 -43.85268162  11.73655567
2574.00 -43.92273751  11.76291365
2576.00 -43.99283542  11.78930876
2578.00 -44.06297532  11.81574101
2580.00 -44.13315721  11.84221041
2582.00 -44.20338103  11.86871699
2584.00 -44.27364678  11.89526077
2586.00 -44.34395443  11.92184176
2588.00 -44.41430395  11.94845997
2590.00 -44.48469531  11.97511543
2592.00 -44.55512849  12.00180816
2594.00 -44.62560347  12.02853817
2596.00 -44.69612021  12.05530547
2598.00 -44.76667869  12.08211010
2600.00 -44.83727889  12.10895206
2602.00 -44.90792078  12.13583137
2604.00 -44.97860434  12.16274805
2606.00 -45.04932953  12.18970212
2608.00 -45.12009633  12.21669359
2610.00 -45.19090473  12.24372248
2612.00 -45.26175468  12.27078881
2614.00 -45.33264617  12.29789260
2616.00 -45.40357917  12.32503387
2618.00 -45.47455366  12.35221262
2620.00 -45.54556960  12.37942889
2622.00 -45.61662697  12.40668267
2624.00 -45.68772575  12.43397401
2626.00 -45.75886591  12.46130290
2628.00 -45.83004743  12.48866937
2630.00 -45.90127027  12.51607344
2632.00 -45.97253442  12.54351512
2634.00 -46.04383985  12.57099442
2636.00 -46.11518652  12.59851138
2638.00 -46.18657442  12.62606599
2640.00 -46.25800352  12.65365829
2642.00 -46.32947379  12.68128829
2644.00 -46.40098522  12.70895600
2646.00 -46.47253776  12.73666144
2648.00 -46.54413140  12.76440463
2650.00 -46.61576610  12.79218559
2652.00 -46.68744186  12.82000433
2654.00 -46.75915862  12.84786087
2656.00 -46.83091639  12.87575522
2658.00 -46.90271511  12.90368741
2660.00 -46.97455478  12.93165745
2662.00 -47.04643536  12.95966536
2664.00 -47.11835683  12.98771115
2666.00 -47.19031916  13.01579484
2668.00 -47.26232232  13.04391645
2670.00 -47.33436630  13.07207600
2672.00 -47.40645106  13.10027350
2674.00 -47.47857658  13.12850896
2676.00 -47.55074283  13.15678241
2678.00 -47.62294978  13.18509386
2680.00 -47.69519741  13.21344333
2682.00 -47.76748570  13.24183083
2684.00 -47.83981462  13.27025638
2686.00 -47.91218413  13.29872001
2688.00 -47.98459423  13.32722171
2690.00 -48.05704487  13.35576152
2692.00 -48.12953603  13.38433945
2694.00 -48.20206769  13.41295551
2696.00 -48.27463982  13.44160972
2698.00 -48.34725240  13.47030210
2700.00 -48.41990540  13.49903266
2702.00 -48.49259879  13.52780142
2704.00 -48.56533254  13.55660840
2706.00 -48.63810663  13.58545361
2708.00 -48.71092104  13.61433707
2710.00 -48.78377574  13.64325879
2712.00 -48.85667070  13.67221880
2714.00 -48.92960589  13.70121710
2716.00 -49.00258129  13.73025372
2718.00 -49.07559688  13.75932867
2720.00 -49.14865262  13.78844197
2722.00 -49.22174850  13.81759363
2724.00 -49.29488448  13.84678367
2726.00 -49.36806053  13.87601210
2728.00 -49.44127664  13.90527895
2730.00 -49.51453278  13.93458422
2732.00 -49.58782891  13.96392794
2734.00 -49.66116502  13.99331011
2736.00 -49.73454108  14.02273077
2738.00 -49.80795705  14.05218991
2740.00 -49.88141292  14.08168757
2742.00 -49.95490866  14.11122374
2744.00 -50.02844424  14.14079846
2746.00 -50.10201964  14.17041173
2748.00 -50.17563483  14.20006358
2750.00 -50.24928978  14.22975401
2752.00 -50.32298447  14.25948304
2754.00 -50.39671886  14.28925070
2756.00 -50.47049294  14.31905699
2758.00 -50.54430668  14.34890193
2760.00 -50.61816006  14.37878554
2762.00 -50.69205303  14.40870783
2764.00 -50.76598559  14.43866882
2766.00 -50.83995770  14.46866852
2768.00 -50.91396933  14.49870696
2770.00 -50.98802047  14.52878413
2772.00 -51.06211108  14.55890007
2774.00 -51.13624113  14.58905479
2776.00 -51.21041061  14.61924830
2778.00 -51.28461948  14.64948062
2780.00 -51.35886772  14.67975176
2782.00 -51.43315530  14.71006174
2784.00 -51.50748220  14.74041057
2786.00 -51.58184838  14.77079828
2788.00 -51.65625383  14.80122487
2790.00 -51.73069851  14.83169036
2792.00 -51.80518241  14.86219477
2794.00 -51.87970548  14.89273811
2796.00 -51.95426772  14.92332040
2798.00 -52.02886908  14.95394165
2800.00 -52.10350955  14.98460188
2802.00 -52.17818909  15.01530110
2804.00 -52.25290769  15.04603933
2806.00 -52.32766531  15.07681659
2808.00 -52.40246192  15.10763288
2810.00 -52.47729751  15.13848823
2812.00 -52.55217205  15.16938265
2814.00 -52.62708550  15.20031615
2816.00 -52.70203785  15.23128876
2818.00 -52.77702906  15.26230048
2820.00 -52.85205911  15.29335133
2822.00 -52.92712797  15.32444133
2824.00 -53.00223562  15.35557048
2826.00 -53.07738203  15.38673882
2828.00 -53.15256717  15.41794634
2830.00 -53.22779101  15.44919307
2832.00 -53.30305354  15.48047902
2834.00 -53.37835472  15.51180421
2836.00 -53.45369453  15.54316865
2838.00 -53.52907294  15.57457235
2840.00 -53.60448992  15.60601534
2842.00 -53.67994545  15.63749762
2844.00 -53.75543949  15.66901921
2846.00 -53.83097204  15.70058012
2848.00 -53.90654305  15.73218038
2850.00 -53.98215250  15.76381999
2852.00 -54.05780036  15.79549897
2854.00 -54.13348662  15.82721734
2856.00 -54.20921123  15.85897510
2858.00 -54.28497418  15.89077228
2860.00 -54.36077543  15.92260889
2862.00 -54.43661497  15.95448494
2864.00 -54.51249276  15.98640045
2866.00 -54.58840878  16.01835544
2868.00 -54.66436300  16.05034991
2870.00 -54.74035539  16.08238388
2872.00 -54.81638594  16.11445737
2874.00 -54.89245460  16.14657039
2876.00 -54.96856136  16.17872295
2878.00 -55.04470619  16.21091508
2880.00 -55.12088905  16.24314678
2882.00 -55.19710994  16.27541807
2884.00 -55.27336881  16.30772896
2886.00 -55.34966564  16.34007947
2888.00 -55.42600040  16.37246961
2890.00 -55.50237308  16.40489940
2892.00 -55.57878363  16.43736886
2894.00 -55.65523204  16.46987798
2896.00 -55.73171828  16.50242680
2898.00 -55.80824232  16.53501532
2900.00 -55.88480413  16.56764356
2902.00 -55.96140369  16.60031153
2904.00 -56.03804097  16.63301925
2906.00 -56.11471595  16.66576673
2908.00 -56.19142859  16.69855398
2910.00 -56.26817887  16.73138103
2912.00 -56.34496677  16.76424787
2914.00 -56.42179226  16.79715454
2916.00 -56.49865530  16.83010104
2918.00 -56.57555588  16.86308738
2920.00 -56.65249396  16.89611358
2922.00 -56.72946953  16.92917966
2924.00 -56.80648255  16.96228562
2926.00 -56.88353299  16.99543149
2928.00 -56.96062084  17.02861727
2930.00 -57.03774606  17.06184298
2932.00 -57.11490862  17.09510863
2934.00 -57.19210850  17.12841425
2936.00 -57.26934568  17.16175983
2938.00 -57.34662012  17.19514540
2940.00 -57.42393180  17.22857097
2942.00 -57.50128069  17.26203655
2944.00 -57.57866677  17.29554216
2946.00 -57.65609001  17.32908781
2948.00 -57.73355038  17.36267351
2950.00 -57.81104785  17.39629928
2952.00 -57.88858240  17.42996514
2954.00 -57.96615400  17.46367108
2956.00 -58.04376263  17.49741714
2958.00 -58.12140825  17.53120332
2960.00 -58.19909085  17.56502964
2962.00 -58.27681039  17.59889610
2964.00 -58.35456684  17.63280273
2966.00 -58.43236019  17.66674954
2968.00 -58.51019039  17.70073653
2970.00 -58.58805744  17.73476374
2972.00 -58.66596129  17.76883115
2974.00 -58.74390193  17.80293880
2976.00 -58.82187932  17.83708670
2978.00 -58.89989344  17.87127485
2980.00 -58.97794426  17.90550327
2982.00 -59.05603176  17.93977198
2984.00 -59.13415590  17.97408099
2986.00 -59.21231667  18.00843030
2988.00 -59.29051403  18.04281994
2990.00 -59.36874796  18.07724992
2992.00 -59.44701843  18.11172025
2994.00 -59.52532541  18.14623095
2996.00 -59.60366888  18.18078202
2998.00 -59.68204880  18.21537349
3000.00 -59.76046516  18.25000535
3002.00 -59.83891793  18.28467764
3004.00 -59.91740707  18.31939035
3006.00 -59.99593257  18.35414351
3008.00 -60.07449439  18.38893713
3010.00 -60.15309251  18.42377121
3012.00 -60.23172690  18.45864578
3014.00 -60.31039753  18.49356084
3016.00 -60.38910438  18.52851642
3018.00 -60.46784742  18.56351251
3020.00 -60.54662662  18.59854914
3022.00 -60.62544196  18.63362631
3024.00 -60.70429341  18.66874405
3026.00 -60.78318094  18.70390236
3028.00 -60.86210453  18.73910126
3030.00 -60.94106414  18.77434075
3032.00 -61.02005976  18.80962086
3034.00 -61.09909134  18.84494159
3036.00 -61.17815888  18.88030296
3038.00 -61.25726234  18.91570498
3040.00 -61.33640168  18.95114767
3042.00 -61.41557690  18.98663102
3044.00 -61.49478795  19.02215507
3046.00 -61.57403482  19.05771982
3048.00 -61.65331747  19.09332528
3050.00 -61.73263588  19.12897147
3052.00 -61.81199002  19.16465840
3054.00 -61.89137986  19.20038608
3056.00 -61.97080538  19.23615453
3058.00 -62.05026655  19.27196375
3060.00 -62.12976335  19.30781376
3062.00 -62.20929574  19.34370457
3064.00 -62.28886369  19.37963620
3066.00 -62.36846719  19.41560866
3068.00 -62.44810621  19.45162195
3070.00 -62.52778071  19.48767610
3072.00 -62.60749067  19.52377110
3074.00 -62.68723607  19.55990699
3076.00 -62.76701687  19.59608377
3078.00 -62.84683305  19.63230144
3080.00 -62.92668458  19.66856003
3082.00 -63.00657144  19.70485955
3084.00 -63.08649360  19.74120000
3086.00 -63.16645102  19.77758141
3088.00 -63.24644369  19.81400377
3090.00 -63.32647158  19.85046711
3092.00 -63.40653466  19.88697144
3094.00 -63.48663290  19.92351677
3096.00 -63.56676627  19.96010311
3098.00 -63.64693476  19.99673047
3100.00 -63.72713832  20.03339887
3102.00 -63.80737694  20.07010832
3104.00 -63.88765058  20.10685882
3106.00 -63.96795923  20.14365040
3108.00 -64.04830285  20.18048306
3110.00 -64.12868141  20.21735682
3112.00 -64.20909489  20.25427168
3114.00 -64.28954327  20.29122766
3116.00 -64.37002651  20.32822478
3118.00 -64.45054458  20.36526304
3120.00 -64.53109747  20.40234245
3122.00 -64.61168514  20.43946303
3124.00 -64.69230756  20.47662479
3126.00 -64.77296471  20.51382775
3128.00 -64.85365657  20.55107190
3130.00 -64.93438310  20.58835727
3132.00 -65.01514427  20.62568386
3134.00 -65.09594007  20.66305170
3136.00 -65.17677046  20.70046078
3138.00 -65.25763541  20.73791112
3140.00 -65.33853490  20.77540274
3142.00 -65.41946891  20.81293564
3144.00 -65.50043740  20.85050984
3146.00 -65.58144034  20.88812534
3148.00 -65.66247772  20.92578217
3150.00 -65.74354949  20.96348032
3152.00 -65.82465565  21.00121982
3154.00 -65.90579615  21.03900067
3156.00 -65.98697097  21.07682289
3158.00 -66.06818009  21.11468649
3160.00 -66.14942348  21.15259147
3162.00 -66.23070110  21.19053785
3164.00 -66.31201294  21.22852565
3166.00 -66.39335896  21.26655486
3168.00 -66.47473914  21.30462552
3170.00 -66.55615345  21.34273761
3172.00 -66.63760186  21.38089117
3174.00 -66.71908435  21.41908619
3176.00 -66.80060089  21.45732269
3178.00 -66.88215145  21.49560068
3180.00 -66.96373601  21.53392018
3182.00 -67.04535453  21.57228118
3184.00 -67.12700700  21.61068372
3186.00 -67.20869338  21.64912778
3188.00 -67.29041364  21.68761340
3190.00 -67.37216777  21.72614057
3192.00 -67.45395572  21.76470931
3194.00 -67.53577748  21.80331963
3196.00 -67.61763302  21.84197154
3198.00 -67.69952230  21.88066505
3200.00 -67.78144531  21.91940018
3202.00 -67.86340202  21.95817693
3204.00 -67.94539239  21.99699531
3206.00 -68.02741640  22.03585534
3208.00 -68.10947403  22.07475703
3210.00 -68.19156524  22.11370039
3212.00 -68.27369002  22.15268542
3214.00 -68.35584832  22.19171215
3216.00 -68.43804013  22.23078058
3218.00 -68.52026542  22.26989071
3220.00 -68.60252416  22.30904257
3222.00 -68.68481632  22.34823616
3224.00 -68.76714188  22.38747150
3226.00 -68.84950081  22.42674859
3228.00 -68.93189307  22.46606744
3230.00 -69.01431866  22.50542807
3232.00 -69.09677752  22.54483049
3234.00 -69.17926965  22.58427471
3236.00 -69.26179501  22.62376073
3238.00 -69.34435358  22.66328857
3240.00 -69.42694532  22.70285824
3242.00 -69.50957022  22.74246975
3244.00 -69.59222824  22.78212311
3246.00 -69.67491935  22.82181834
3248.00 -69.75764353  22.86155543
3250.00 -69.84040076  22.90133440
3252.00 -69.92319099  22.94115527
3254.00 -70.00601422  22.98101804
3256.00 -70.08887040  23.02092272
3258.00 -70.17175952  23.06086933
3260.00 -70.25468155  23.10085787
3262.00 -70.33763645  23.14088835
3264.00 -70.42062420  23.18096079
3266.00 -70.50364477  23.22107520
3268.00 -70.58669814  23.26123158
3270.00 -70.66978428  23.30142994
3272.00 -70.75290316  23.34167030
3274.00 -70.83605476  23.38195267
3276.00 -70.91923904  23.42227705
3278.00 -71.00245599  23.46264346
3280.00 -71.08570556  23.50305191
3282.00 -71.16898774  23.54350240
3284.00 -71.25230250  23.58399495
3286.00 -71.33564981  23.62452957
3288.00 -71.41902964  23.66510626
3290.00 -71.50244197  23.70572504
3292.00 -71.58588676  23.74638592
3294.00 -71.66936400  23.78708891
3296.00 -71.75287365  23.82783401
3298.00 -71.83641569  23.86862124
3300.00 -71.91999009  23.90945061
3302.00 -72.00359682  23.95032212
3304.00 -72.08723585  23.99123579
3306.00 -72.17090717  24.03219163
3308.00 -72.25461073  24.07318965
3310.00 -72.33834651  24.11422985
3312.00 -72.42211450  24.15531225
3314.00 -72.50591465  24.19643685
3316.00 -72.58974694  24.23760368
3318.00 -72.67361134  24.27881272
3320.00 -72.75750783  24.32006401
3322.00 -72.84143639  24.36135753
3324.00 -72.92539697  24.40269332
3326.00 -73.00938956  24.44407137
3328.00 -73.09341412  24.48549169
3330.00 -73.17747063  24.52695429
3332.00 -73.26155907  24.56845919
3334.00 -73.34567940  24.61000640
3336.00 -73.42983161  24.65159592
3338.00 -73.51401565  24.69322775
3340.00 -73.59823150  24.73490193
3342.00 -73.68247914  24.77661844
3344.00 -73.76675854  24.81837730
3346.00 -73.85106967  24.86017853
3348.00 -73.93541251  24.90202212
3350.00 -74.01978702  24.94390809
3352.00 -74.10419318  24.98583645
3354.00 -74.18863097  25.02780722
3356.00 -74.27310035  25.06982038
3358.00 -74.35760129  25.11187597
3360.00 -74.44213378  25.15397398
3362.00 -74.52669778  25.19611443
3364.00 -74.61129327  25.23829732
3366.00 -74.69592021  25.28052266
3368.00 -74.78057858  25.32279047
3370.00 -74.86526836  25.36510075
3372.00 -74.94998952  25.40745352
3374.00 -75.03474202  25.44984877
3376.00 -75.11952585  25.49228653
3378.00 -75.20434097  25.53476679
3380.00 -75.28918736  25.57728957
3382.00 -75.37406498  25.61985488
3384.00 -75.45897382  25.66246273
3386.00 -75.54391385  25.70511312
3388.00 -75.62888503  25.74780606
3390.00 -75.71388735  25.79054157
3392.00 -75.79892076  25.83331966
3394.00 -75.88398525  25.87614032
3396.00 -75.96908080  25.91900358
3398.00 -76.05420736  25.96190943
3400.00 -76.13936491  26.00485789
3402.00 -76.22455344  26.04784897
3404.00 -76.30977290  26.09088268
3406.00 -76.39502327  26.13395902
3408.00 -76.48030453  26.17707801
3410.00 -76.56561665  26.22023964
3412.00 -76.65095959  26.26344394
3414.00 -76.73633334  26.30669091
3416.00 -76.82173787  26.34998056
3418.00 -76.90717314  26.39331290
3420.00 -76.99263913  26.43668793
3422.00 -77.07813582  26.48010567
3424.00 -77.16366317  26.52356612
3426.00 -77.24922116  26.56706929
3428.00 -77.33480977  26.61061519
3430.00 -77.42042895  26.65420384
3432.00 -77.50607870  26.69783523
3434.00 -77.59175897  26.74150938
3436.00 -77.67746975  26.78522629
3438.00 -77.76321100  26.82898598
3440.00 -77.84898269  26.87278845
3442.00 -77.93478481  26.91663371
3444.00 -78.02061732  26.96052177
3446.00 -78.10648020  27.00445264
3448.00 -78.19237342  27.04842632
3450.00 -78.27829694  27.09244283
3452.00 -78.36425075  27.13650217
3454.00 -78.45023482  27.18060435
3456.00 -78.53624911  27.22474938
3458.00 -78.62229361  27.26893727
3460.00 -78.70836828  27.31316803
3462.00 -78.79447310  27.35744166
3464.00 -78.88060804  27.40175817
3466.00 -78.96677307  27.44611757
3468.00 -79.05296817  27.49051987
3470.00 -79.13919330  27.53496508
3472.00 -79.22544844  27.57945321
3474.00 -79.31173357  27.62398425
3476.00 -79.39804865  27.66855823
3478.00 -79.48439367  27.71317515
3480.00 -79.57076858  27.75783502
3482.00 -79.65717337  27.80253784
3484.00 -79.74360800  27.84728363
3486.00 -79.83007246  27.89207239
3488.00 -79.91656670  27.93690412
3490.00 -80.00309071  27.98177885
3492.00 -80.08964446  28.02669657
3494.00 -80.17622792  28.07165730
3496.00 -80.26284106  28.11666103
3498.00 -80.34948386  28.16170779
3500.00 -80.43615628  28.20679757
3502.00 -80.52285831  28.25193039
3504.00 -80.60958991  28.29710625
3506.00 -80.69635105  28.34232517
3508.00 -80.78314172  28.38758714
3510.00 -80.86996188  28.43289218
3512.00 -80.95681150  28.47824029
3514.00 -81.04369056  28.52363149
3516.00 -81.13059903  28.56906577
3518.00 -81.21753688  28.61454315
3520.00 -81.30450409  28.66006364
3522.00 -81.39150062  28.70562724
3524.00 -81.47852646  28.75123396
3526.00 -81.56558157  28.79688380
3528.00 -81.65266592  28.84257679
3530.00 -81.73977950  28.88831291
3532.00 -81.82692226  28.93409219
3534.00 -81.91409419  28.97991462
3536.00 -82.00129526  29.02578022
3538.00 -82.08852544  29.07168900
3540.00 -82.17578470  29.11764095
3542.00 -82.26307301  29.16363609
3544.00 -82.35039036  29.20967443
3546.00 -82.43773670  29.25575597
3548.00 -82.52511202  29.30188072
3550.00 -82.61251628  29.34804869
3552.00 -82.69994947  29.39425988
3554.00 -82.78741154  29.44051430
3556.00 -82.87490248  29.48681197
3558.00 -82.96242225  29.53315288
3560.00 -83.04997084  29.57953704
3562.00 -83.13754821  29.62596447
3564.00 -83.22515433  29.67243517
3566.00 -83.31278918  29.71894914
3568.00 -83.40045274  29.76550639
3570.00 -83.48814496  29.81210693
3572.00 -83.57586583  29.85875078
3574.00 -83.66361532  29.90543792
3576.00 -83.75139341  29.95216838
3578.00 -83.83920005  29.99894215
3580.00 -83.92703524  30.04575925
3582.00 -84.01489893  30.09261969
3584.00 -84.10279111  30.13952346
3586.00 -84.19071174  30.18647058
3588.00 -84.27866081  30.23346105
3590.00 -84.36663827  30.28049488
3592.00 -84.45464410  30.32757209
3594.00 -84.54267829  30.37469266
3596.00 -84.63074079  30.42185662
3598.00 -84.71883158  30.46906396
3600.00 -84.80695064  30.51631470
3602.00 -84.89509794  30.56360884
3604.00 -84.98327344  30.61094639
3606.00 -85.07147713  30.65832736
3608.00 -85.15970898  30.70575175
3610.00 -85.24796895  30.75321956
3612.00 -85.33625703  30.80073081
3614.00 -85.42457318  30.84828551
3616.00 -85.51291738  30.89588365
3618.00 -85.60128960  30.94352525
3620.00 -85.68968981  30.99121031
3622.00 -85.77811798  31.03893884
3624.00 -85.86657409  31.08671085
3626.00 -85.95505812  31.13452634
3628.00 -86.04357003  31.18238531
3630.00 -86.13210979  31.23028779
3632.00 -86.22067738  31.27823376
3634.00 -86.30927278  31.32622324
3636.00 -86.39789595  31.37425624
3638.00 -86.48654687  31.42233276
3640.00 -86.57522551  31.47045281
3642.00 -86.66393184  31.51861639
3644.00 -86.75266584  31.56682351
3646.00 -86.84142748  31.61507418
3648.00 -86.93021673  31.66336840
3650.00 -87.01903356  31.71170618
3652.00 -87.10787795  31.76008753
3654.00 -87.19674988  31.80851245
3656.00 -87.28564930  31.85698095
3658.00 -87.37457620  31.90549303
3660.00 -87.46353055  31.95404871
3662.00 -87.55251232  32.00264798
3664.00 -87.64152149  32.05129085
3666.00 -87.73055802  32.09997734
3668.00 -87.81962189  32.14870744
3670.00 -87.90871308  32.19748116
3672.00 -87.99783155  32.24629852
3674.00 -88.08697728  32.29515950
3676.00 -88.17615024  32.34406413
3678.00 -88.26535040  32.39301240
3680.00 -88.35457775  32.44200433
3682.00 -88.44383224  32.49103991
3684.00 -88.53311385  32.54011916
3686.00 -88.62242256  32.58924208
3688.00 -88.71175834  32.63840868
3690.00 -88.80112116  32.68761896
3692.00 -88.89051100  32.73687292
3694.00 -88.97992782  32.78617058
3696.00 -89.06937160  32.83551195
3698.00 -89.15884232  32.88489701
3700.00 -89.24833994  32.93432579
3702.00 -89.33786444  32.98379829
3704.00 -89.42741579  33.03331451
3706.00 -89.51699396  33.08287446
3708.00 -89.60659893  33.13247815
3710.00 -89.69623067  33.18212557
3712.00 -89.78588916  33.23181675
3714.00 -89.87557436  33.28155167
3716.00 -89.96528625  33.33133036
3718.00 -90.05502480  33.38115280
3720.00 -90.14478998  33.43101902
3722.00 -90.23458178  33.48092901
3724.00 -90.32440015  33.53088278
3726.00 -90.41424508  33.58088034
3728.00 -90.50411653  33.63092169
3730.00 -90.59401448  33.68100684
3732.00 -90.68393891  33.73113579
3734.00 -90.77388978  33.78130855
3736.00 -90.86386706  33.83152512
3738.00 -90.95387074  33.88178551
3740.00 -91.04390078  33.93208973
3742.00 -91.13395716  33.98243778
3744.00 -91.22403984  34.03282966
3746.00 -91.31414881  34.08326539
3748.00 -91.40428404  34.13374496
3750.00 -91.49444549  34.18426838
3752.00 -91.58463315  34.23483566
3754.00 -91.67484698  34.28544680
3756.00 -91.76508695  34.33610181
3758.00 -91.85535305  34.38680069
3760.00 -91.94564524  34.43754345
3762.00 -92.03596349  34.48833010
3764.00 -92.12630779  34.53916063
3766.00 -92.21667810  34.59003506
3768.00 -92.30707439  34.64095338
3770.00 -92.39749664  34.69191561
3772.00 -92.48794482  34.74292175
3774.00 -92.57841890  34.79397181
3776.00 -92.66891886  34.84506578
3778.00 -92.75944467  34.89620368
3780.00 -92.84999631  34.94738551
3782.00 -92.94057374  34.99861127
3784.00 -93.03117694  35.04988098
3786.00 -93.12180588  35.10119462
3788.00 -93.21246053  35.15255222
3790.00 -93.30314087  35.20395378
3792.00 -93.39384688  35.25539929
3794.00 -93.48457851  35.30688877
3796.00 -93.57533576  35.35842221
3798.00 -93.66611858  35.40999963
3800.00 -93.75692696  35.46162103
3802.00 -93.84776086  35.51328642
3804.00 -93.93862027  35.56499579
3806.00 -94.02950514  35.61674916
3808.00 -94.12041546  35.66854653
3810.00 -94.21135119  35.72038790
3812.00 -94.30231232  35.77227328
3814.00 -94.39329881  35.82420267
3816.00 -94.48431064  35.87617608
3818.00 -94.57534778  35.92819351
3820.00 -94.66641021  35.98025497
3822.00 -94.75749789  36.03236046
3824.00 -94.84861079  36.08450998
3826.00 -94.93974890  36.13670355
3828.00 -95.03091219  36.18894116
3830.00 -95.12210063  36.24122282
3832.00 -95.21331418  36.29354854
3834.00 -95.30455283  36.34591832
3836.00 -95.39581655  36.39833216
3838.00 -95.48710531  36.45079006
3840.00 -95.57841909  36.50329204
3842.00 -95.66975785  36.55583810
3844.00 -95.76112157  36.60842824
3846.00 -95.85251022  36.66106247
3848.00 -95.94392378  36.71374078
3850.00 -96.03536222  36.76646319
3852.00 -96.12682552  36.81922970
3854.00 -96.21831363  36.87204032
3856.00 -96.30982655  36.92489504
3858.00 -96.40136424  36.97779387
3860.00 -96.49292668  37.03073682
3862.00 -96.58451383  37.08372389
3864.00 -96.67612567  37.13675509
3866.00 -96.76776218  37.18983041
3868.00 -96.85942333  37.24294987
3870.00 -96.95110908  37.29611347
3872.00 -97.04281942  37.34932120
3874.00 -97.13455432  37.40257309
3876.00 -97.22631375  37.45586912
3878.00 -97.31809768  37.50920931
3880.00 -97.40990609  37.56259366
3882.00 -97.50173894  37.61602216
3884.00 -97.59359622  37.66949484
3886.00 -97.68547790  37.72301168
3888.00 -97.77738395  37.77657270
3890.00 -97.86931433  37.83017790
3892.00 -97.96126904  37.88382728
3894.00 -98.05324803  37.93752085
3896.00 -98.14525128  37.99125861
3898.00 -98.23727877  38.04504056
3900.00 -98.32933047  38.09886671
3902.00 -98.42140635  38.15273706
3904.00 -98.51350639  38.20665162
3906.00 -98.60563055  38.26061039
3908.00 -98.69777881  38.31461337
3910.00 -98.78995115  38.36866057
3912.00 -98.88214754  38.42275199
3914.00 -98.97436794  38.47688764
3916.00 -99.06661234  38.53106751
3918.00 -99.15888071  38.58529162
3920.00 -99.25117302  38.63955996
3922.00 -99.34348924  38.69387255
3924.00 -99.43582935  38.74822937
3926.00 -99.52819332  38.80263045
3928.00 -99.62058113  38.85707577
3930.00 -99.71299274  38.91156535
3932.00 -99.80542813  38.96609919
3934.00 -99.89788728  39.02067729
3936.00 -99.99037015  39.07529966
3938.00 -100.08287672  39.12996629
3940.00 -100.17540696  39.18467720
3942.00 -100.26796086  39.23943238
3944.00 -100.36053837  39.29423184
3946.00 -100.45313947  39.34907559
3948.00 -100.54576414  39.40396362
3950.00 -100.63841235  39.45889594
3952.00 -100.73108408  39.51387256
3954.00 -100.82377929  39.56889347
3956.00 -100.91649796  39.62395868
3958.00 -101.00924006  39.67906819
3960.00 -101.10200557  39.73422201
3962.00 -101.19479447  39.78942015
3964.00 -101.28760671  39.84466259
3966.00 -101.38044228  39.89994935
3968.00 -101.47330115  39.95528043
3970.00 -101.56618329  40.01065584
3972.00 -101.65908868  40.06607557
3974.00 -101.75201729  40.12153963
3976.00 -101.84496909  40.17704802
3978.00 -101.93794406  40.23260075
3980.00 -102.03094217  40.28819782
3982.00 -102.12396339  40.34383923
3984.00 -102.21700770  40.39952499
3986.00 -102.31007507  40.45525509
3988.00 -102.40316548  40.51102955
3990.00 -102.49627889  40.56684836
3992.00 -102.58941528  40.62271153
3994.00 -102.68257462  40.67861906
3996.00 -102.77575690  40.73457095
3998.00 -102.86896207  40.79056721
4000.00 -102.96219012  40.84660784
4002.00 -103.05544101  40.90269285
4004.00 -103.14871473  40.95882222
4006.00 -103.24201124  41.01499598
4008.00 -103.33533051  41.07121412
4010.00 -103.42867253  41.12747664
4012.00 -103.52203727  41.18378355
4014.00 -103.61542469  41.24013485
4016.00 -103.70883477  41.29653054
4018.00 -103.80226749  41.35297063
4020.00 -103.89572282  41.40945512
4022.00 -103.98920073  41.46598400
4024.00 -104.08270119  41.52255730
4026.00 -104.17622419  41.57917499
4028.00 -104.26976968  41.63583710
4030.00 -104.36333766  41.69254362
4032.00 -104.45692808  41.74929456
4034.00 -104.55054093  41.80608991
4036.00 -104.64417617  41.86292968
4038.00 -104.73783378  41.91981387
4040.00 -104.83151374  41.97674249
4042.00 -104.92521601  42.03371554
4044.00 -105.01894057  42.09073302
4046.00 -105.11268740  42.14779493
4048.00 -105.20645647  42.20490128
4050.00 -105.30024774  42.26205206
4052.00 -105.39406121  42.31924729
4054.00 -105.48789683  42.37648696
4056.00 -105.58175458  42.43377107
4058.00 -105.67563444  42.49109963
4060.00 -105.76953638  42.54847264
4062.00 -105.86346037  42.60589011
4064.00 -105.95740638  42.66335203
4066.00 -106.05137440  42.72085841
4068.00 -106.14536439  42.77840924
4070.00 -106.23937633  42.83600454
4072.00 -106.33341018  42.89364431
4074.00 -106.42746594  42.95132854
4076.00 -106.52154356  43.00905724
4078.00 -106.61564302  43.06683041
4080.00 -106.70976429  43.12464805
4082.00 -106.80390736  43.18251018
4084.00 -106.89807219  43.24041677
4086.00 -106.99225875  43.29836785
4088.00 -107.08646703  43.35636341
4090.00 -107.18069698  43.41440346
4092.00 -107.27494860  43.47248799
4094.00 -107.36922184  43.53061701
4096.00 -107.46351669  43.58879052
4098.00 -107.55783312  43.64700853
4100.00 -107.65217110  43.70527103
4102.00 -107.74653061  43.76357803
4104.00 -107.84091161  43.82192952
4106.00 -107.93531409  43.88032552
4108.00 -108.02973801  43.93876602
4110.00 -108.12418336  43.99725102
4112.00 -108.21865010  44.05578054
4114.00 -108.31313820  44.11435456
4116.00 -108.40764765  44.17297309
4118.00 -108.50217841  44.23163613
4120.00 -108.59673046  44.29034369
4122.00 -108.69130378  44.34909577
4124.00 -108.78589833  44.40789236
4126.00 -108.88051409  44.46673348
4128.00 -108.97515104  44.52561911
4130.00 -109.06980914  44.58454927
4132.00 -109.16448837  44.64352396
4134.00 -109.25918871  44.70254317
4136.00 -109.35391013  44.76160691
4138.00 -109.44865260  44.82071518
4140.00 -109.54341610  44.87986799
4142.00 -109.63820060  44.93906533
4144.00 -109.73300607  44.99830720
4146.00 -109.82783249  45.05759361
4148.00 -109.92267983  45.11692457
4150.00 -110.01754807  45.17630006
4152.00 -110.11243718  45.23572009
4154.00 -110.20734713  45.29518467
4156.00 -110.30227789  45.35469379
4158.00 -110.39722945  45.41424746
4160.00 -110.49220178  45.47384568
4162.00 -110.58719484  45.53348845
4164.00 -110.68220861  45.59317577
4166.00 -110.77724308  45.65290765
4168.00 -110.87229820  45.71268407
4170.00 -110.96737395  45.77250506
4172.00 -111.06247032  45.83237060
4174.00 -111.15758726  45.89228070
4176.00 -111.25272477  45.95223536
4178.00 -111.34788280  46.01223458
4180.00 -111.44306133  46.07227836
4182.00 -111.53826035  46.13236671
4184.00 -111.63347981  46.19249962
4186.00 -111.72871970  46.25267711
4188.00 -111.82397999  46.31289915
4190.00 -111.91926066  46.37316577
4192.00 -112.01456167  46.43347696
4194.00 -112.10988300  46.49383272
4196.00 -112.20522462  46.55423305
4198.00 -112.30058652  46.61467796
4200.00 -112.39596866  46.67516744
4202.00 -112.49137102  46.73570150
4204.00 -112.58679356  46.79628014
4206.00 -112.68223628  46.85690335
4208.00 -112.77769913  46.91757115
4210.00 -112.87318209  46.97828352
4212.00 -112.96868514  47.03904048
4214.00 -113.06420826  47.09984202
4216.00 -113.15975141  47.16068815
4218.00 -113.25531456  47.22157886
4220.00 -113.35089770  47.28251416
4222.00 -113.44650080  47.34349404
4224.00 -113.54212383  47.40451851
4226.00 -113.63776677  47.46558757
4228.00 -113.73342958  47.52670122
4230.00 -113.82911225  47.58785946
4232.00 -113.92481474  47.64906230
4234.00 -114.02053704  47.71030972
4236.00 -114.11627911  47.77160174
4238.00 -114.21204093  47.83293836
4240.00 -114.30782248  47.89431957
4242.00 -114.40362372  47.95574537
4244.00 -114.49944464  48.01721577
4246.00 -114.59528520  48.07873077
4248.00 -114.69114538  48.14029037
4250.00 -114.78702516  48.20189457
4252.00 -114.88292451  48.26354336
4254.00 -114.97884340  48.32523676
4256.00 -115.07478180  48.38697476
4258.00 -115.17073970  48.44875736
4260.00 -115.26671706  48.51058456
4262.00 -115.36271386  48.57245637
4264.00 -115.45873007  48.63437278
4266.00 -115.55476568  48.69633379
4268.00 -115.65082064  48.75833941
4270.00 -115.74689494  48.82038963
4272.00 -115.84298855  48.88248446
4274.00 -115.93910145  48.94462390
4276.00 -116.03523360  49.00680795
4278.00 -116.13138499  49.06903660
4280.00 -116.22755558  49.13130986
4282.00 -116.32374536  49.19362773
4284.00 -116.41995429  49.25599021
4286.00 -116.51618235  49.31839729
4288.00 -116.61242951  49.38084899
4290.00 -116.70869576  49.44334530
4292.00 -116.80498105  49.50588622
4294.00 -116.90128537  49.56847174
4296.00 -116.99760870  49.63110189
4298.00 -117.09395100  49.69377664
4300.00 -117.19031225  49.75649600
4302.00 -117.28669242  49.81925998
4304.00 -117.38309149  49.88206857
4306.00 -117.47950944  49.94492177
4308.00 -117.57594623  50.00781959
4310.00 -117.67240184  50.07076202
4312.00 -117.76887625  50.13374906
4314.00 -117.86536943  50.19678072
4316.00 -117.96188135  50.25985699
4318.00 -118.05841199  50.32297787
4320.00 -118.15496133  50.38614337
4322.00 -118.25152933  50.44935348
4324.00 -118.34811597  50.51260821
4326.00 -118.44472123  50.57590755
4328.00 -118.54134508  50.63925151
4330.00 -118.63798750  50.70264008
4332.00 -118.73464845  50.76607327
4334.00 -118.83132792  50.82955107
4336.00 -118.92802588  50.89307349
4338.00 -119.02474230  50.95664052
4340.00 -119.12147716  51.02025216
4342.00 -119.21823043  51.08390843
4344.00 -119.31500208  51.14760930
4346.00 -119.41179209  51.21135479
4348.00 -119.50860044  51.27514490
4350.00 -119.60542710  51.33897962
4352.00 -119.70227204  51.40285895
4354.00 -119.79913524  51.46678290
4356.00 -119.89601668  51.53075146
4358.00 -119.99291632  51.59476464
4360.00 -120.08983414  51.65882243
4362.00 -120.18677012  51.72292483
4364.00 -120.28372423  51.78707185
4366.00 -120.38069644  51.85126348
4368.00 -120.47768674  51.91549972
4370.00 -120.57469508  51.97978058
4372.00 -120.67172146  52.04410605
4374.00 -120.76876584  52.10847612
4376.00 -120.86582820  52.17289082
4378.00 -120.96290851  52.23735012
4380.00 -121.06000675  52.30185403
4382.00 -121.15712289  52.36640256
4384.00 -121.25425690  52.43099569
4386.00 -121.35140877  52.49563344
4388.00 -121.44857846  52.56031579
4390.00 -121.54576596  52.62504275
4392.00 -121.64297122  52.68981432
4394.00 -121.74019424  52.75463050
4396.00 -121.83743498  52.81949129
4398.00 -121.93469342  52.88439668
4400.00 -122.03196953  52.94934668
4402.00 -122.12926329  53.01434129
4404.00 -122.22657467  53.07938050
4406.00 -122.32390365  53.14446432
4408.00 -122.42125020  53.20959274
4410.00 -122.51861430  53.27476576
4412.00 -122.61599592  53.33998339
4414.00 -122.71339503  53.40524562
4416.00 -122.81081162  53.47055246
4418.00 -122.90824565  53.53590389
4420.00 -123.00569710  53.60129992
4422.00 -123.10316594  53.66674056
4424.00 -123.20065215  53.73222579
4426.00 -123.29815571  53.79775562
4428.00 -123.39567659  53.86333005
4430.00 -123.49321476  53.92894908
4432.00 -123.59077020  53.99461270
4434.00 -123.68834288  54.06032092
4436.00 -123.78593278  54.12607373
4438.00 -123.88353988  54.19187113
4440.00 -123.98116414  54.25771313
4442.00 -124.07880554  54.32359972
4444.00 -124.17646406  54.38953090
4446.00 -124.27413967  54.45550667
4448.00 -124.37183235  54.52152704
4450.00 -124.46954207  54.58759199
4452.00 -124.56726881  54.65370152
4454.00 -124.66501254  54.71985565
4456.00 -124.76277323  54.78605435
4458.00 -124.86055086  54.85229765
4460.00 -124.95834541  54.91858553
4462.00 -125.05615686  54.98491798
4464.00 -125.15398516  55.05129503
4466.00 -125.25183031  55.11771665
4468.00 -125.34969227  55.18418285
4470.00 -125.44757103  55.25069363
4472.00 -125.54546654  55.31724898
4474.00 -125.64337880  55.38384892
4476.00 -125.74130778  55.45049343
4478.00 -125.83925344  55.51718251
4480.00 -125.93721577  55.58391616
4482.00 -126.03519473  55.65069439
4484.00 -126.13319032  55.71751718
4486.00 -126.23120249  55.78438455
4488.00 -126.32923123  55.85129648
4490.00 -126.42727650  55.91825298
4492.00 -126.52533829  55.98525405
4494.00 -126.62341658  56.05229968
4496.00 -126.72151132  56.11938987
4498.00 -126.81962251  56.18652462
4500.00 -126.91775011  56.25370394
4502.00 -127.01589410  56.32092781
4504.00 -127.11405445  56.38819624
4506.00 -127.21223114  56.45550923
4508.00 -127.31042415  56.52286677
4510.00 -127.40863345  56.59026886
4512.00 -127.50685902  56.65771551
4514.00 -127.60510082  56.72520671
4516.00 -127.70335884  56.79274245
4518.00 -127.80163305  56.86032275
4520.00 -127.89992342  56.92794759
4522.00 -127.99822994  56.99561697
4524.00 -128.09655257  57.06333090
4526.00 -128.19489129  57.13108937
4528.00 -128.29324607  57.19889238
4530.00 -128.39161690  57.26673993
4532.00 -128.49000375  57.33463201
4534.00 -128.58840658  57.40256864
4536.00 -128.68682538  57.47054979
4538.00 -128.78526012  57.53857548
4540.00 -128.88371078  57.60664570
4542.00 -128.98217733  57.67476044
4544.00 -129.08065975  57.74291972
4546.00 -129.17915801  57.81112352
4548.00 -129.27767209  57.87937184
4550.00 -129.37620196  57.94766468
4552.00 -129.47474760  58.01600205
4554.00 -129.57330898  58.08438394
4556.00 -129.67188608  58.15281034
4558.00 -129.77047887  58.22128125
4560.00 -129.86908733  58.28979669
4562.00 -129.96771144  58.35835663
4564.00 -130.06635117  58.42696108
4566.00 -130.16500649  58.49561004
4568.00 -130.26367738  58.56430351
4570.00 -130.36236381  58.63304148
4572.00 -130.46106577  58.70182395
4574.00 -130.55978322  58.77065092
4576.00 -130.65851614  58.83952239
4578.00 -130.75726451  58.90843836
4580.00 -130.85602830  58.97739883
4582.00 -130.95480749  59.04640378
4584.00 -131.05360205  59.11545323
4586.00 -131.15241196  59.18454716
4588.00 -131.25123720  59.25368559
4590.00 -131.35007773  59.32286849
4592.00 -131.44893353  59.39209589
4594.00 -131.54780459  59.46136776
4596.00 -131.64669087  59.53068411
4598.00 -131.74559234  59.60004493
4600.00 -131.84450900  59.66945023
4602.00 -131.94344081  59.73890001
4604.00 -132.04238774  59.80839425
4606.00 -132.14134977  59.87793296
4608.00 -132.24032689  59.94751614
4610.00 -132.33931905  60.01714378
4612.00 -132.43832624  60.08681588
4614.00 -132.53734844  60.15653245
4616.00 -132.63638562  60.22629347
4618.00 -132.73543775  60.29609894
4620.00 -132.83450481  60.36594887
4622.00 -132.93358678  60.43584325
4624.00 -133.03268363  60.50578207
4626.00 -133.13179533  60.57576535
4628.00 -133.23092187  60.64579306
4630.00 -133.33006322  60.71586522
4632.00 -133.42921934  60.78598182
4634.00 -133.52839023  60.85614285
4636.00 -133.62757586  60.92634832
4638.00 -133.72677619  60.99659822
4640.00 -133.82599121  61.06689255
4642.00 -133.92522089  61.13723130
4644.00 -134.02446521  61.20761448
4646.00 -134.12372413  61.27804209
4648.00 -134.22299765  61.34851411
4650.00 -134.32228573  61.41903055
4652.00 -134.42158836  61.48959141
4654.00 -134.52090549  61.56019667
4656.00 -134.62023712  61.63084635
4658.00 -134.71958321  61.70154044
4660.00 -134.81894375  61.77227893
4662.00 -134.91831870  61.84306182
4664.00 -135.01770805  61.91388911
4666.00 -135.11711176  61.98476080
4668.00 -135.21652982  62.05567688
4670.00 -135.31596221  62.12663736
4672.00 -135.41540888  62.19764222
4674.00 -135.51486983  62.26869147
4676.00 -135.61434503  62.33978511
4678.00 -135.71383445  62.41092312
4680.00 -135.81333807  62.48210552
4682.00 -135.91285587  62.55333229
4684.00 -136.01238781  62.62460343
4686.00 -136.11193388  62.69591895
4688.00 -136.21149406  62.76727883
4690.00 -136.31106831  62.83868308
4692.00 -136.41065662  62.91013169
4694.00 -136.51025895  62.98162466
4696.00 -136.60987530  63.05316198
4698.00 -136.70950562  63.12474366
4700.00 -136.80914990  63.19636969
4702.00 -136.90880812  63.26804007
4704.00 -137.00848024  63.33975479
4706.00 -137.10816625  63.41151386
4708.00 -137.20786611  63.48331726
4710.00 -137.30757982  63.55516500
4712.00 -137.40730734  63.62705708
4714.00 -137.50704864  63.69899349
4716.00 -137.60680371  63.77097422
4718.00 -137.70657253  63.84299928
4720.00 -137.80635505  63.91506866
4722.00 -137.90615127  63.98718236
4724.00 -138.00596116  64.05934037
4726.00 -138.10578469  64.13154270
4728.00 -138.20562184  64.20378934
4730.00 -138.30547259  64.27608028
4732.00 -138.40533691  64.34841553
4734.00 -138.50521477  64.42079508
4736.00 -138.60510617  64.49321892
4738.00 -138.70501106  64.56568706
4740.00 -138.80492942  64.63819949
4742.00 -138.90486124  64.71075621
4744.00 -139.00480649  64.78335722
4746.00 -139.10476514  64.85600250
4748.00 -139.20473717  64.92869207
4750.00 -139.30472256  65.00142591
4752.00 -139.40472128  65.07420402
4754.00 -139.50473331  65.14702640
4756.00 -139.60475862  65.21989305
4758.00 -139.70479719  65.29280396
4760.00 -139.80484900  65.36575912
4762.00 -139.90491402  65.43875855
4764.00 -140.00499223  65.51180223
4766.00 -140.10508361  65.58489015
4768.00 -140.20518813  65.65802232
4770.00 -140.30530576  65.73119874
4772.00 -140.40543649  65.80441939
4774.00 -140.50558029  65.87768428
4776.00 -140.60573713  65.95099341
4778.00 -140.70590700  66.02434676
4780.00 -140.80608986  66.09774434
4782.00 -140.90628570  66.17118614
4784.00 -141.00649449  66.24467216
4786.00 -141.10671620  66.31820239
4788.00 -141.20695082  66.39177684
4790.00 -141.30719832  66.46539549
4792.00 -141.40745867  66.53905835
4794.00 -141.50773186  66.61276541
4796.00 -141.60801785  66.68651667
4798.00 -141.70831663  66.76031213
4800.00 -141.80862817  66.83415177
4802.00 -141.90895244  66.90803560
4804.00 -142.00928943  66.98196362
4806.00 -142.10963911  67.05593582
4808.00 -142.21000145  67.12995219
4810.00 -142.31037644  67.20401274
4812.00 -142.41076404  67.27811745
4814.00 -142.51116424  67.35226633
4816.00 -142.61157701  67.42645938
4818.00 -142.71200233  67.50069658
4820.00 -142.81244018  67.57497793
4822.00 -142.91289052  67.64930344
4824.00 -143.01335334  67.72367310
4826.00 -143.11382861  67.79808689
4828.00 -143.21431632  67.87254483
4830.00 -143.31481643  67.94704691
4832.00 -143.41532892  68.02159311
4834.00 -143.51585377  68.09618345
4836.00 -143.61639095  68.17081791
4838.00 -143.71694045  68.24549649
4840.00 -143.81750224  68.32021919
4842.00 -143.91807629  68.39498600
4844.00 -144.01866258  68.46979692
4846.00 -144.11926109  68.54465194
4848.00 -144.21987180  68.61955107
4850.00 -144.32049467  68.69449430
4852.00 -144.42112969  68.76948162
4854.00 -144.52177684  68.84451303
4856.00 -144.62243609  68.91958852
4858.00 -144.72310741  68.99470810
4860.00 -144.82379079  69.06987175
4862.00 -144.92448620  69.14507948
4864.00 -145.02519361  69.22033128
4866.00 -145.12591301  69.29562715
4868.00 -145.22664437  69.37096708
4870.00 -145.32738766  69.44635106
4872.00 -145.42814287  69.52177910
4874.00 -145.52890996  69.59725119
4876.00 -145.62968893  69.67276733
4878.00 -145.73047973  69.74832751
4880.00 -145.83128236  69.82393172
4882.00 -145.93209678  69.89957997
4884.00 -146.03292298  69.97527225
4886.00 -146.13376092  70.05100856
4888.00 -146.23461060  70.12678888
4890.00 -146.33547197  70.20261322
4892.00 -146.43634503  70.27848158
4894.00 -146.53722974  70.35439394
4896.00 -146.63812608  70.43035031
4898.00 -146.73903404  70.50635068
4900.00 -146.83995358  70.58239505
4902.00 -146.94088469  70.65848341
4904.00 -147.04182733  70.73461575
4906.00 -147.14278149  70.81079208
4908.00 -147.24374715  70.88701239
4910.00 -147.34472428  70.96327667
4912.00 -147.44571285  71.03958492
4914.00 -147.54671285  71.11593714
4916.00 -147.64772425  71.19233332
4918.00 -147.74874703  71.26877346
4920.00 -147.84978116  71.34525755
4922.00 -147.95082663  71.42178559
4924.00 -148.05188340  71.49835757
4926.00 -148.15295146  71.57497349
4928.00 -148.25403078  71.65163335
4930.00 -148.35512135  71.72833714
4932.00 -148.45622312  71.80508486
4934.00 -148.55733609  71.88187650
4936.00 -148.65846023  71.95871206
4938.00 -148.75959552  72.03559153
4940.00 -148.86074193  72.11251491
4942.00 -148.96189944  72.18948219
4944.00 -149.06306803  72.26649337
4946.00 -149.16424767  72.34354845
4948.00 -149.26543835  72.42064742
4950.00 -149.36664004  72.49779027
4952.00 -149.46785271  72.57497701
4954.00 -149.56907634  72.65220762
4956.00 -149.67031091  72.72948211
4958.00 -149.77155640  72.80680046
4960.00 -149.87281278  72.88416267
4962.00 -149.97408004  72.96156875
4964.00 -150.07535814  73.03901868
4966.00 -150.17664707  73.11651245
4968.00 -150.27794680  73.19405008
4970.00 -150.37925731  73.27163154
4972.00 -150.48057857  73.34925683
4974.00 -150.58191057  73.42692596
4976.00 -150.68325328  73.50463891
4978.00 -150.78460667  73.58239569
4980.00 -150.88597073  73.66019628
4982.00 -150.98734544  73.73804068
4984.00 -151.08873076  73.81592889
4986.00 -151.19012668  73.89386090
4988.00 -151.29153317  73.97183670
4990.00 -151.39295021  74.04985630
4992.00 -151.49437778  74.12791969
4994.00 -151.59581586  74.20602685
4996.00 -151.69726441  74.28417780
4998.00 -151.79872343  74.36237252
5000.00 -151.90019288  74.44061101
