wavelength(nm)         real         imag
100.00   3.69954589   0.00191552
102.00   3.69144832   0.00203276
104.00   3.68319045   0.00215468
106.00   3.67477231   0.00228139
108.00   3.66619388   0.00241297
110.00   3.65745518   0.00254951
112.00   3.64855621   0.00269111
114.00   3.63949697   0.00283785
116.00   3.63027747   0.00298983
118.00   3.62089770   0.00314715
120.00   3.61135768   0.00330989
122.00   3.60165741   0.00347814
124.00   3.59179689   0.00365200
126.00   3.58177613   0.00383156
128.00   3.57159513   0.00401690
130.00   3.56125390   0.00420813
132.00   3.55075244   0.00440534
134.00   3.54009075   0.00460861
136.00   3.52926884   0.00481803
138.00   3.51828672   0.00503371
140.00   3.50714439   0.00525573
142.00   3.49584185   0.00548418
144.00   3.48437911   0.00571915
146.00   3.47275617   0.00596075
148.00   3.46097304   0.00620905
150.00   3.44902973   0.00646415
152.00   3.43692624   0.00672614
154.00   3.42466257   0.00699511
156.00   3.41223873   0.00727116
158.00   3.39965473   0.00755438
160.00   3.38691057   0.00784486
162.00   3.37400626   0.00814268
164.00   3.36094180   0.00844795
166.00   3.34771719   0.00876076
168.00   3.33433246   0.00908118
170.00   3.32078759   0.00940933
172.00   3.30708259   0.00974529
174.00   3.29321748   0.01008914
176.00   3.27919226   0.01044099
178.00   3.26500693   0.01080092
180.00   3.25066150   0.01116903
182.00   3.23615598   0.01154541
184.00   3.22149037   0.01193015
186.00   3.20666468   0.01232333
188.00   3.19167892   0.01272506
190.00   3.17653309   0.01313543
192.00   3.16122719   0.01355452
194.00   3.14576125   0.01398243
196.00   3.13013525   0.01441924
198.00   3.11434922   0.01486506
200.00   3.09840315   0.01531997
202.00   3.08229705   0.01578407
204.00   3.06603094   0.01625744
206.00   3.04960481   0.01674017
208.00   3.03301868   0.01723237
210.00   3.01627254   0.01773412
212.00   2.99936642   0.01824551
214.00   2.98230032   0.01876663
216.00   2.96507424   0.01929758
218.00   2.94768819   0.01983844
220.00   2.93014217   0.02038932
222.00   2.91243621   0.02095029
224.00   2.89457030   0.02152146
226.00   2.87654445   0.02210290
228.00   2.85835868   0.02269473
230.00   2.84001298   0.02329702
232.00   2.82150737   0.02390986
234.00   2.80284185   0.02453336
236.00   2.78401644   0.02516760
238.00   2.76503113   0.02581266
240.00   2.74588595   0.02646866
242.00   2.72658089   0.02713566
244.00   2.70711597   0.02781378
246.00   2.68749119   0.02850309
248.00   2.66770657   0.02920369
250.00   2.64776211   0.02991567
252.00   2.62765782   0.03063913
254.00   2.60739371   0.03137415
256.00   2.58696978   0.03212082
258.00   2.56638606   0.03287924
260.00   2.54564253   0.03364950
262.00   2.52473923   0.03443169
264.00   2.50367615   0.03522589
266.00   2.48245330   0.03603221
268.00   2.46107070   0.03685074
270.00   2.43952834   0.03768156
272.00   2.41782625   0.03852476
274.00   2.39596443   0.03938044
276.00   2.37394289   0.04024869
278.00   2.35176164   0.04112961
280.00   2.32942069   0.04202327
282.00   2.30692005   0.04292978
284.00   2.28425973   0.04384921
286.00   2.26143974   0.04478168
288.00   2.23846009   0.04572726
290.00   2.21532079   0.04668605
292.00   2.19202185   0.04765814
294.00   2.16856328   0.04864362
296.00   2.14494509   0.04964258
298.00   2.12116729   0.05065512
300.00   2.09722989   0.05168131
302.00   2.07313290   0.05272127
304.00   2.04887633   0.05377507
306.00   2.02446019   0.05484280
308.00   1.99988450   0.05592457
310.00   1.97514926   0.05702046
312.00   1.95025449   0.05813055
314.00   1.92520019   0.05925495
316.00   1.89998638   0.06039375
318.00   1.87461307   0.06154702
320.00   1.84908026   0.06271488
322.00   1.82338798   0.06389740
324.00   1.79753622   0.06509468
326.00   1.77152501   0.06630680
328.00   1.74535435   0.06753387
330.00   1.71902426   0.06877597
332.00   1.69253474   0.07003319
334.00   1.66588581   0.07130562
336.00   1.63907748   0.07259336
338.00   1.61210977   0.07389649
340.00   1.58498267   0.07521511
342.00   1.55769621   0.07654931
344.00   1.53025040   0.07789917
346.00   1.50264525   0.07926479
348.00   1.47488077   0.08064627
350.00   1.44695697   0.08204368
352.00   1.41887387   0.08345713
354.00   1.39063147   0.08488670
356.00   1.36222980   0.08633248
358.00   1.33366885   0.08779457
360.00   1.30494866   0.08927305
362.00   1.27606922   0.09076802
364.00   1.24703055   0.09227957
366.00   1.21783266   0.09380779
368.00   1.18847557   0.09535276
370.00   1.15895929   0.09691459
372.00   1.12928382   0.09849335
374.00   1.09944920   0.10008915
376.00   1.06945542   0.10170207
378.00   1.03930250   0.10333220
380.00   1.00899045   0.10497963
382.00   0.97851929   0.10664446
384.00   0.94788903   0.10832678
386.00   0.91709968   0.11002667
388.00   0.88615127   0.11174423
390.00   0.85504379   0.11347955
392.00   0.82377726   0.11523271
394.00   0.79235170   0.11700381
396.00   0.76076713   0.11879295
398.00   0.72902355   0.12060020
400.00   0.69712097   0.12242566
402.00   0.66505943   0.12426943
404.00   0.63283891   0.12613158
406.00   0.60045945   0.12801222
408.00   0.56792106   0.12991143
410.00   0.53522374   0.13182931
412.00   0.50236751   0.13376594
414.00   0.46935240   0.13572142
416.00   0.43617841   0.13769583
418.00   0.40284555   0.13968926
420.00   0.36935384   0.14170182
422.00   0.33570330   0.14373358
424.00   0.30189394   0.14578463
426.00   0.26792578   0.14785508
428.00   0.23379883   0.14994500
430.00   0.19951310   0.15205449
432.00   0.16506861   0.15418365
434.00   0.13046538   0.15633255
436.00   0.09570341   0.15850129
438.00   0.06078273   0.16068996
440.00   0.02570336   0.16289865
442.00  -0.00953471   0.16512745
444.00  -0.04493144   0.16737645
446.00  -0.08048682   0.16964575
448.00  -0.11620085   0.17193543
450.00  -0.15207349   0.17424558
452.00  -0.18810474   0.17657629
454.00  -0.22429458   0.17892765
456.00  -0.26064300   0.18129976
458.00  -0.29714998   0.18369270
460.00  -0.33381550   0.18610657
462.00  -0.37063955   0.18854144
464.00  -0.40762211   0.19099742
466.00  -0.44476317   0.19347460
468.00  -0.48206270   0.19597306
470.00  -0.51952070   0.19849289
472.00  -0.55713714   0.20103419
474.00  -0.59491202   0.20359705
476.00  -0.63284530   0.20618154
478.00  -0.67093699   0.20878777
480.00  -0.70918706   0.21141583
482.00  -0.74759549   0.21406580
484.00  -0.78616226   0.21673778
486.00  -0.82488737   0.21943185
488.00  -0.86377079   0.22214811
490.00  -0.90281251   0.22488664
492.00  -0.94201251   0.22764753
494.00  -0.98137077   0.23043088
496.00  -1.02088728   0.23323677
498.00  -1.06056201   0.23606530
500.00  -1.10039496   0.23891656
502.00  -1.14038610   0.24179062
504.00  -1.18053541   0.24468760
506.00  -1.22084288   0.24760756
508.00  -1.26130850   0.25055061
510.00  -1.30193224   0.25351683
512.00  -1.34271408   0.25650632
514.00  -1.38365402   0.25951916
516.00  -1.42475202   0.26255544
518.00  -1.46600808   0.26561526
520.00  -1.50742217   0.26869869
522.00  -1.54899427   0.27180584
524.00  -1.59072438   0.27493679
526.00  -1.63261246   0.27809164
528.00  -1.67465851   0.28127046
530.00  -1.71686250   0.28447336
532.00  -1.75922442   0.28770041
534.00  -1.80174424   0.29095172
536.00  -1.84442196   0.29422736
538.00  -1.88725754   0.29752744
540.00  -1.93025097   0.30085203
542.00  -1.97340224   0.30420123
544.00  -2.01671132   0.30757513
546.00  -2.06017819   0.31097381
548.00  -2.10380285   0.31439738
550.00  -2.14758525   0.31784591
552.00  -2.19152540   0.32131949
554.00  -2.23562327   0.32481822
556.00  -2.27987883   0.32834219
558.00  -2.32429208   0.33189147
560.00  -2.36886298   0.33546618
562.00  -2.41359153   0.33906638
564.00  -2.45847771   0.34269218
566.00  -2.50352148   0.34634365
568.00  -2.54872284   0.35002090
570.00  -2.59408176   0.35372401
572.00  -2.63959823   0.35745307
574.00  -2.68527222   0.36120816
576.00  -2.73110371   0.36498939
578.00  -2.77709269   0.36879683
580.00  -2.82323914   0.37263057
582.00  -2.86954302   0.37649072
584.00  -2.91600434   0.38037734
586.00  -2.96262306   0.38429054
588.00  -3.00939916   0.38823040
590.00  -3.05633262   0.39219702
592.00  -3.10342343   0.39619047
594.00  -3.15067156   0.40021085
596.00  -3.19807700   0.40425826
598.00  -3.24563971   0.40833277
600.00  -3.29335969   0.41243448
602.00  -3.34123690   0.41656347
604.00  -3.38927134   0.42071984
606.00  -3.43746298   0.42490367
608.00  -3.48581179   0.42911505
610.00  -3.53431776   0.43335408
612.00  -3.58298087   0.43762084
614.00  -3.63180109   0.44191541
616.00  -3.68077840   0.44623789
618.00  -3.72991279   0.45058838
620.00  -3.77920423   0.45496694
622.00  -3.82865270   0.45937368
624.00  -3.87825817   0.46380869
626.00  -3.92802063   0.46827204
628.00  -3.97794006   0.47276384
630.00  -4.02801643   0.47728416
632.00  -4.07824973   0.48183311
634.00  -4.12863992   0.48641076
636.00  -4.17918699   0.49101720
638.00  -4.22989092   0.49565253
640.00  -4.28075168   0.50031684
642.00  -4.33176925   0.50501020
644.00  -4.38294362   0.50973271
646.00  -4.43427475   0.51448446
648.00  -4.48576263   0.51926554
650.00  -4.53740723   0.52407604
652.00  -4.58920853   0.52891603
654.00  -4.64116651   0.53378562
656.00  -4.69328115   0.53868489
658.00  -4.74555242   0.54361393
660.00  -4.79798030   0.54857282
662.00  -4.85056477   0.55356166
664.00  -4.90330580   0.55858054
666.00  -4.95620338   0.56362954
668.00  -5.00925747   0.56870874
670.00  -5.06246806   0.57381825
672.00  -5.11583513   0.57895815
674.00  -5.16935865   0.58412851
676.00  -5.22303859   0.58932945
678.00  -5.27687494   0.59456103
680.00  -5.33086767   0.59982335
682.00  -5.38501675   0.60511651
684.00  -5.43932217   0.61044058
686.00  -5.49378390   0.61579565
688.00  -5.54840192   0.62118181
690.00  -5.60317620   0.62659916
692.00  -5.65810672   0.63204777
694.00  -5.71319346   0.63752774
696.00  -5.76843639   0.64303915
698.00  -5.82383548   0.64858210
700.00  -5.87939072   0.65415667
702.00  -5.93510208   0.65976294
704.00  -5.99096954   0.66540101
706.00  -6.04699307   0.67107097
708.00  -6.10317264   0.67677289
710.00  -6.15950824   0.68250688
712.00  -6.21599984   0.68827301
714.00  -6.27264741   0.69407138
716.00  -6.32945093   0.69990207
718.00  -6.38641038   0.70576517
720.00  -6.44352573   0.71166078
722.00  -6.50079695   0.71758896
724.00  -6.55822403   0.72354982
726.00  -6.61580693   0.72954344
728.00  -6.67354564   0.73556991
730.00  -6.73144012   0.74162932
732.00  -6.78949035   0.74772175
734.00  -6.84769631   0.75384729
736.00  -6.90605797   0.76000604
738.00  -6.96457531   0.76619806
740.00  -7.02324830   0.77242347
742.00  -7.08207692   0.77868233
744.00  -7.14106113   0.78497474
746.00  -7.20020092   0.79130079
748.00  -7.25949626   0.79766057
750.00  -7.31894712   0.80405415
752.00  -7.37855349   0.81048163
754.00  -7.43831532   0.81694310
756.00  -7.49823260   0.82343864
758.00  -7.55830530   0.82996835
760.00  -7.61853340   0.83653230
762.00  -7.67891686   0.84313058
764.00  -7.73945567   0.84976328
766.00  -7.80014979   0.85643050
768.00  -7.86099921   0.86313231
770.00  -7.92200389   0.86986881
772.00  -7.98316380   0.87664007
774.00  -8.04447893   0.88344619
776.00  -8.10594925   0.89028726
778.00  -8.16757472   0.89716336
780.00  -8.22935532   0.90407457
782.00  -8.29129103   0.91102100
784.00  -8.35338182   0.91800271
786.00  -8.41562766   0.92501980
788.00  -8.47802853   0.93207236
790.00  -8.54058439   0.93916047
792.00  -8.60329522   0.94628423
794.00  -8.66616100   0.95344371
796.00  -8.72918170   0.96063900
798.00  -8.79235729   0.96787019
800.00  -8.85568773   0.97513737
802.00  -8.91917302   0.98244062
804.00  -8.98281311   0.98978003
806.00  -9.04660799   0.99715569
808.00  -9.11055761   1.00456769
810.00  -9.17466197   1.01201610
812.00  -9.23892102   1.01950102
814.00  -9.30333474   1.02702253
816.00  -9.36790310   1.03458073
818.00  -9.43262608   1.04217569
820.00  -9.49750365   1.04980750
822.00  -9.56253577   1.05747625
824.00  -9.62772243   1.06518202
826.00  -9.69306359   1.07292491
828.00  -9.75855922   1.08070500
830.00  -9.82420931   1.08852237
832.00  -9.89001381   1.09637711
834.00  -9.95597270   1.10426931
836.00 -10.02208595   1.11219906
838.00 -10.08835354   1.12016643
840.00 -10.15477543   1.12817152
842.00 -10.22135160   1.13621441
844.00 -10.28808201   1.14429519
846.00 -10.35496665   1.15241394
848.00 -10.42200547   1.16057075
850.00 -10.48919846   1.16876571
852.00 -10.55654558   1.17699890
854.00 -10.62404681   1.18527042
856.00 -10.69170210   1.19358033
858.00 -10.75951145   1.20192874
860.00 -10.82747481   1.21031572
862.00 -10.89559216   1.21874136
864.00 -10.96386347   1.22720576
866.00 -11.03228870   1.23570898
868.00 -11.10086784   1.24425113
870.00 -11.16960084   1.25283228
872.00 -11.23848769   1.26145253
874.00 -11.30752834   1.27011195
876.00 -11.37672278   1.27881063
878.00 -11.44607097   1.28754866
880.00 -11.51557288   1.29632613
882.00 -11.58522849   1.30514312
884.00 -11.65503775   1.31399971
886.00 -11.72500065   1.32289599
888.00 -11.79511715   1.33183205
890.00 -11.86538722   1.34080797
892.00 -11.93581083   1.34982384
894.00 -12.00638796   1.35887974
896.00 -12.07711857   1.36797576
898.00 -12.14800262   1.37711198
900.00 -12.21904010   1.38628850
902.00 -12.29023097   1.39550538
904.00 -12.36157520   1.40476273
906.00 -12.43307276   1.41406062
908.00 -12.50472362   1.42339914
910.00 -12.57652774   1.43277838
912.00 -12.64848510   1.44219842
914.00 -12.72059567   1.45165934
916.00 -12.79285941   1.46116124
918.00 -12.86527630   1.47070419
920.00 -12.93784630   1.48028828
922.00 -13.01056938   1.48991360
924.00 -13.08344552   1.49958023
926.00 -13.15647467   1.50928826
928.00 -13.22965681   1.51903777
930.00 -13.30299191   1.52882884
932.00 -13.37647994   1.53866157
934.00 -13.45012086   1.54853603
936.00 -13.52391464   1.55845231
938.00 -13.59786126   1.56841050
940.00 -13.67196067   1.57841068
942.00 -13.74621286   1.58845293
944.00 -13.82061778   1.59853734
946.00 -13.89517540   1.60866400
948.00 -13.96988569   1.61883299
950.00 -14.04474863   1.62904439
952.00 -14.11976418   1.63929829
954.00 -14.19493230   1.64959477
956.00 -14.27025296   1.65993392
958.00 -14.34572614   1.67031582
960.00 -14.42135180   1.68074056
962.00 -14.49712991   1.69120822
964.00 -14.57306043   1.70171889
966.00 -14.64914333   1.71227264
968.00 -14.72537858   1.72286957
970.00 -14.80176616   1.73350976
972.00 -14.87830601   1.74419329
974.00 -14.95499812   1.75492025
976.00 -15.03184245   1.76569071
978.00 -15.10883896   1.77650478
980.00 -15.18598763   1.78736252
982.00 -15.26328842   1.79826403
984.00 -15.34074130   1.80920939
986.00 -15.41834623   1.82019868
988.00 -15.49610319   1.83123198
990.00 -15.57401213   1.84230939
992.00 -15.65207303   1.85343097
994.00 -15.73028585   1.86459683
996.00 -15.80865056   1.87580704
998.00 -15.88716712   1.88706169
1000.00 -15.96583551   1.89836085
1002.00 -16.04465568   1.90970462
1004.00 -16.12362761   1.92109308
1006.00 -16.20275126   1.93252630
1008.00 -16.28202660   1.94400438
1010.00 -16.36145359   1.95552741
1012.00 -16.44103220   1.96709545
1014.00 -16.52076239   1.97870860
1016.00 -16.60064414   1.99036694
1018.00 -16.68067740   2.00207055
1020.00 -16.76086215   2.01381952
1022.00 -16.84119835   2.02561393
1024.00 -16.92168596   2.03745386
1026.00 -17.00232495   2.04933940
1028.00 -17.08311529   2.06127063
1030.00 -17.16405695   2.07324764
1032.00 -17.24514987   2.08527050
1034.00 -17.32639405   2.09733930
1036.00 -17.40778943   2.10945413
1038.00 -17.48933598   2.12161506
1040.00 -17.57103367   2.13382219
1042.00 -17.65288247   2.14607558
1044.00 -17.73488234   2.15837534
1046.00 -17.81703324   2.17072153
1048.00 -17.89933514   2.18311425
1050.00 -17.98178801   2.19555358
1052.00 -18.06439180   2.20803959
1054.00 -18.14714649   2.22057237
1056.00 -18.23005204   2.23315201
1058.00 -18.31310842   2.24577859
1060.00 -18.39631558   2.25845219
1062.00 -18.47967350   2.27117290
1064.00 -18.56318213   2.28394079
1066.00 -18.64684145   2.29675595
1068.00 -18.73065141   2.30961846
1070.00 -18.81461198   2.32252840
1072.00 -18.89872313   2.33548587
1074.00 -18.98298482   2.34849093
1076.00 -19.06739701   2.36154368
1078.00 -19.15195968   2.37464419
1080.00 -19.23667277   2.38779255
1082.00 -19.32153626   2.40098885
1084.00 -19.40655011   2.41423315
1086.00 -19.49171429   2.42752555
1088.00 -19.57702875   2.44086613
1090.00 -19.66249347   2.45425497
1092.00 -19.74810840   2.46769215
1094.00 -19.83387351   2.48117776
1096.00 -19.91978876   2.49471187
1098.00 -20.00585412   2.50829458
1100.00 -20.09206955   2.52192595
1102.00 -20.17843501   2.53560608
1104.00 -20.26495047   2.54933505
1106.00 -20.35161589   2.56311293
1108.00 -20.43843123   2.57693982
1110.00 -20.52539646   2.59081578
1112.00 -20.61251154   2.60474092
1114.00 -20.69977644   2.61871530
1116.00 -20.78719110   2.63273900
1118.00 -20.87475551   2.64681212
1120.00 -20.96246962   2.66093473
1122.00 -21.05033339   2.67510691
1124.00 -21.13834679   2.68932875
1126.00 -21.22650978   2.70360033
1128.00 -21.31482233   2.71792173
1130.00 -21.40328439   2.73229303
1132.00 -21.49189592   2.74671431
1134.00 -21.58065690   2.76118565
1136.00 -21.66956728   2.77570715
1138.00 -21.75862703   2.79027887
1140.00 -21.84783610   2.80490090
1142.00 -21.93719446   2.81957331
1144.00 -22.02670207   2.83429621
1146.00 -22.11635890   2.84906965
1148.00 -22.20616491   2.86389373
1150.00 -22.29612005   2.87876853
1152.00 -22.38622429   2.89369412
1154.00 -22.47647760   2.90867060
1156.00 -22.56687993   2.92369803
1158.00 -22.65743124   2.93877650
1160.00 -22.74813151   2.95390610
1162.00 -22.83898068   2.96908690
1164.00 -22.92997872   2.98431899
1166.00 -23.02112560   2.99960244
1168.00 -23.11242127   3.01493734
1170.00 -23.20386569   3.03032377
1172.00 -23.29545883   3.04576180
1174.00 -23.38720065   3.06125153
1176.00 -23.47909111   3.07679303
1178.00 -23.57113017   3.09238637
1180.00 -23.66331779   3.10803165
1182.00 -23.75565393   3.12372895
1184.00 -23.84813856   3.13947834
1186.00 -23.94077163   3.15527990
1188.00 -24.03355311   3.17113372
1190.00 -24.12648295   3.18703987
1192.00 -24.21956113   3.20299844
1194.00 -24.31278759   3.21900951
1196.00 -24.40616229   3.23507315
1198.00 -24.49968521   3.25118946
1200.00 -24.59335630   3.26735850
1202.00 -24.68717552   3.28358036
1204.00 -24.78114283   3.29985512
1206.00 -24.87525819   3.31618286
1208.00 -24.96952157   3.33256366
1210.00 -25.06393291   3.34899761
1212.00 -25.15849219   3.36548477
1214.00 -25.25319936   3.38202523
1216.00 -25.34805439   3.39861907
1218.00 -25.44305722   3.41526638
1220.00 -25.53820783   3.43196722
1222.00 -25.63350617   3.44872169
1224.00 -25.72895221   3.46552986
1226.00 -25.82454589   3.48239181
1228.00 -25.92028719   3.49930762
1230.00 -26.01617606   3.51627737
1232.00 -26.11221247   3.53330114
1234.00 -26.20839636   3.55037902
1236.00 -26.30472771   3.56751107
1238.00 -26.40120646   3.58469739
1240.00 -26.49783259   3.60193804
1242.00 -26.59460604   3.61923311
1244.00 -26.69152678   3.63658269
1246.00 -26.78859477   3.65398684
1248.00 -26.88580997   3.67144565
1250.00 -26.98317233   3.68895920
1252.00 -27.08068182   3.70652756
1254.00 -27.17833840   3.72415083
1256.00 -27.27614201   3.74182907
1258.00 -27.37409263   3.75956236
1260.00 -27.47219021   3.77735079
1262.00 -27.57043471   3.79519444
1264.00 -27.66882609   3.81309337
1266.00 -27.76736431   3.83104769
1268.00 -27.86604932   3.84905745
1270.00 -27.96488108   3.86712274
1272.00 -28.06385956   3.88524365
1274.00 -28.16298472   3.90342024
1276.00 -28.26225650   3.92165260
1278.00 -28.36167487   3.93994081
1280.00 -28.46123979   3.95828495
1282.00 -28.56095121   3.97668509
1284.00 -28.66080909   3.99514131
1286.00 -28.76081340   4.01365370
1288.00 -28.86096409   4.03222233
1290.00 -28.96126111   4.05084728
1292.00 -29.06170443   4.06952863
1294.00 -29.16229400   4.08826646
1296.00 -29.26302979   4.10706084
1298.00 -29.36391174   4.12591186
1300.00 -29.46493982   4.14481959
1302.00 -29.56611399   4.16378412
1304.00 -29.66743420   4.18280551
1306.00 -29.76890041   4.20188385
1308.00 -29.87051257   4.22101923
1310.00 -29.97227065   4.24021170
1312.00 -30.07417461   4.25946136
1314.00 -30.17622439   4.27876829
1316.00 -30.27841996   4.29813255
1318.00 -30.38076128   4.31755424
1320.00 -30.48324829   4.33703342
1322.00 -30.58588097   4.35657017
1324.00 -30.68865926   4.37616458
1326.00 -30.79158312   4.39581672
1328.00 -30.89465252   4.41552667
1330.00 -30.99786740   4.43529451
1332.00 -31.10122773   4.45512031
1334.00 -31.20473345   4.47500416
1336.00 -31.30838454   4.49494612
1338.00 -31.41218093   4.51494629
1340.00 -31.51612260   4.53500473
1342.00 -31.62020950   4.55512153
1344.00 -31.72444158   4.57529676
1346.00 -31.82881880   4.59553049
1348.00 -31.93334112   4.61582282
1350.00 -32.03800849   4.63617381
1352.00 -32.14282087   4.65658354
1354.00 -32.24777822   4.67705209
1356.00 -32.35288049   4.69757954
1358.00 -32.45812763   4.71816597
1360.00 -32.56351962   4.73881144
1362.00 -32.66905639   4.75951605
1364.00 -32.77473791   4.78027986
1366.00 -32.88056413   4.80110296
1368.00 -32.98653501   4.82198541
1370.00 -33.09265051   4.84292731
1372.00 -33.19891057   4.86392872
1374.00 -33.30531517   4.88498972
1376.00 -33.41186424   4.90611039
1378.00 -33.51855775   4.92729081
1380.00 -33.62539566   4.94853106
1382.00 -33.73237791   4.96983120
1384.00 -33.83950446   4.99119132
1386.00 -33.94677528   5.01261149
1388.00 -34.05419031   5.03409180
1390.00 -34.16174951   5.05563231
1392.00 -34.26945284   5.07723311
1394.00 -34.37730025   5.09889427
1396.00 -34.48529169   5.12061586
1398.00 -34.59342712   5.14239797
1400.00 -34.70170650   5.16424067
1402.00 -34.81012979   5.18614404
1404.00 -34.91869692   5.20810815
1406.00 -35.02740787   5.23013309
1408.00 -35.13626258   5.25221891
1410.00 -35.24526102   5.27436572
1412.00 -35.35440313   5.29657357
1414.00 -35.46368887   5.31884254
1416.00 -35.57311819   5.34117272
1418.00 -35.68269106   5.36356418
1420.00 -35.79240741   5.38601698
1422.00 -35.90226722   5.40853122
1424.00 -36.01227043   5.43110697
1426.00 -36.12241699   5.45374430
1428.00 -36.23270687   5.47644328
1430.00 -36.34314001   5.49920400
1432.00 -36.45371637   5.52202653
1434.00 -36.56443591   5.54491095
1436.00 -36.67529857   5.56785732
1438.00 -36.78630432   5.59086574
1440.00 -36.89745310   5.61393626
1442.00 -37.00874487   5.63706898
1444.00 -37.12017959   5.66026396
1446.00 -37.23175721   5.68352128
1448.00 -37.34347767   5.70684101
1450.00 -37.45534094   5.73022324
1452.00 -37.56734698   5.75366803
1454.00 -37.67949572   5.77717547
1456.00 -37.79178713   5.80074562
1458.00 -37.90422116   5.82437856
1460.00 -38.01679776   5.84807437
1462.00 -38.12951690   5.87183312
1464.00 -38.24237851   5.89565490
1466.00 -38.35538255   5.91953976
1468.00 -38.46852898   5.94348779
1470.00 -38.58181776   5.96749907
1472.00 -38.69524882   5.99157367
1474.00 -38.80882213   6.01571166
1476.00 -38.92253765   6.03991311
1478.00 -39.03639531   6.06417811
1480.00 -39.15039508   6.08850673
1482.00 -39.26453691   6.11289904
1484.00 -39.37882075   6.13735512
1486.00 -39.49324655   6.16187505
1488.00 -39.60781427   6.18645889
1490.00 -39.72252386   6.21110672
1492.00 -39.83737528   6.23581861
1494.00 -39.95236847   6.26059465
1496.00 -40.06750338   6.28543491
1498.00 -40.18277998   6.31033945
1500.00 -40.29819821   6.33530836
1502.00 -40.41375802   6.36034170
1504.00 -40.52945937   6.38543956
1506.00 -40.64530221   6.41060201
1508.00 -40.76128650   6.43582912
1510.00 -40.87741217   6.46112096
1512.00 -40.99367920   6.48647762
1514.00 -41.11008752   6.51189916
1516.00 -41.22663709   6.53738565
1518.00 -41.34332787   6.56293718
1520.00 -41.46015980   6.58855382
1522.00 -41.57713283   6.61423563
1524.00 -41.69424693   6.63998270
1526.00 -41.81150203   6.66579509
1528.00 -41.92889810   6.69167289
1530.00 -42.04643508   6.71761617
1532.00 -42.16411292   6.74362499
1534.00 -42.28193159   6.76969943
1536.00 -42.39989102   6.79583958
1538.00 -42.51799117   6.82204549
1540.00 -42.63623199   6.84831724
1542.00 -42.75461344   6.87465491
1544.00 -42.87313546   6.90105858
1546.00 -42.99179800   6.92752830
1548.00 -43.11060102   6.95406417
1550.00 -43.22954447   6.98066624
1552.00 -43.34862830   7.00733460
1554.00 -43.46785246   7.03406932
1556.00 -43.58721690   7.06087046
1558.00 -43.70672158   7.08773811
1560.00 -43.82636643   7.11467234
1562.00 -43.94615143   7.14167321
1564.00 -44.06607650   7.16874081
1566.00 -44.18614162   7.19587520
1568.00 -44.30634672   7.22307646
1570.00 -44.42669175   7.25034466
1572.00 -44.54717668   7.27767988
1574.00 -44.66780144   7.30508218
1576.00 -44.78856600   7.33255165
1578.00 -44.90947029   7.36008834
1580.00 -45.03051427   7.38769234
1582.00 -45.15169790   7.41536372
1584.00 -45.27302112   7.44310255
1586.00 -45.39448387   7.47090890
1588.00 -45.51608612   7.49878284
1590.00 -45.63782782   7.52672446
1592.00 -45.75970890   7.55473381
1594.00 -45.88172933   7.58281098
1596.00 -46.00388905   7.61095603
1598.00 -46.12618801   7.63916903
1600.00 -46.24862617   7.66745007
1602.00 -46.37120346   7.69579920
1604.00 -46.49391985   7.72421651
1606.00 -46.61677529   7.75270207
1608.00 -46.73976971   7.78125594
1610.00 -46.86290308   7.80987820
1612.00 -46.98617534   7.83856892
1614.00 -47.10958644   7.86732818
1616.00 -47.23313633   7.89615604
1618.00 -47.35682496   7.92505257
1620.00 -47.48065228   7.95401786
1622.00 -47.60461824   7.98305196
1624.00 -47.72872279   8.01215496
1626.00 -47.85296588   8.04132692
1628.00 -47.97734745   8.07056791
1630.00 -48.10186746   8.09987801
1632.00 -48.22652586   8.12925729
1634.00 -48.35132259   8.15870582
1636.00 -48.47625761   8.18822367
1638.00 -48.60133086   8.21781091
1640.00 -48.72654230   8.24746761
1642.00 -48.85189186   8.27719384
1644.00 -48.97737951   8.30698969
1646.00 -49.10300518   8.33685521
1648.00 -49.22876884   8.36679047
1650.00 -49.35467042   8.39679556
1652.00 -49.48070988   8.42687053
1654.00 -49.60688716   8.45701547
1656.00 -49.73320221   8.48723044
1658.00 -49.85965499   8.51751551
1660.00 -49.98624543   8.54787075
1662.00 -50.11297350   8.57829624
1664.00 -50.23983913   8.60879204
1666.00 -50.36684228   8.63935823
1668.00 -50.49398290   8.66999487
1670.00 -50.62126092   8.70070204
1672.00 -50.74867631   8.73147981
1674.00 -50.87622900   8.76232824
1676.00 -51.00391896   8.79324741
1678.00 -51.13174612   8.82423739
1680.00 -51.25971043   8.85529825
1682.00 -51.38781184   8.88643006
1684.00 -51.51605031   8.91763289
1686.00 -51.64442577   8.94890681
1688.00 -51.77293818   8.98025188
1690.00 -51.90158748   9.01166819
1692.00 -52.03037362   9.04315580
1694.00 -52.15929655   9.07471477
1696.00 -52.28835622   9.10634519
1698.00 -52.41755257   9.13804711
1700.00 -52.54688555   9.16982062
1702.00 -52.67635512   9.20166577
1704.00 -52.80596121   9.23358265
1706.00 -52.93570378   9.26557131
1708.00 -53.06558277   9.29763183
1710.00 -53.19559812   9.32976428
1712.00 -53.32574980   9.36196872
1714.00 -53.45603774   9.39424524
1716.00 -53.58646189   9.42659389
1718.00 -53.71702220   9.45901474
1720.00 -53.84771862   9.49150788
1722.00 -53.97855109   9.52407335
1724.00 -54.10951956   9.55671124
1726.00 -54.24062398   9.58942162
1728.00 -54.37186429   9.62220454
1730.00 -54.50324045   9.65506009
1732.00 -54.63475239   9.68798833
1734.00 -54.76640007   9.72098933
1736.00 -54.89818343   9.75406316
1738.00 -55.03010242   9.78720989
1740.00 -55.16215698   9.82042958
1742.00 -55.29434707   9.85372231
1744.00 -55.42667263   9.88708814
1746.00 -55.55913360   9.92052715
1748.00 -55.69172993   9.95403939
1750.00 -55.82446157   9.98762495
1752.00 -55.95732847  10.02128389
1754.00 -56.09033057  10.05501628
1756.00 -56.22346782  10.08882218
1758.00 -56.35674016  10.12270167
1760.00 -56.49014754  10.15665480
1762.00 -56.62368991  10.19068167
1764.00 -56.75736722  10.22478232
1766.00 -56.89117940  10.25895683
1768.00 -57.02512641  10.29320526
1770.00 -57.15920818  10.32752769
1772.00 -57.29342468  10.36192419
1774.00 -57.42777584  10.39639481
1776.00 -57.56226161  10.43093963
1778.00 -57.69688194  10.46555872
1780.00 -57.83163676  10.50025215
1782.00 -57.96652604  10.53501998
1784.00 -58.10154970  10.56986227
1786.00 -58.23670771  10.60477911
1788.00 -58.37200000  10.63977055
1790.00 -58.50742651  10.67483667
1792.00 -58.64298721  10.70997753
1794.00 -58.77868202  10.74519319
1796.00 -58.91451091  10.78048374
1798.00 -59.05047380  10.81584922
1800.00 -59.18657065  10.85128972
1802.00 -59.32280141  10.88680530
1804.00 -59.45916601  10.92239602
1806.00 -59.59566441  10.95806196
1808.00 -59.73229654  10.99380318
1810.00 -59.86906236  11.02961974
1812.00 -60.00596181  11.06551172
1814.00 -60.14299483  11.10147919
1816.00 -60.28016137  11.13752220
1818.00 -60.41746138  11.17364083
1820.00 -60.55489480  11.20983514
1822.00 -60.69246157  11.24610520
1824.00 -60.83016164  11.28245108
1826.00 -60.96799495  11.31887285
1828.00 -61.10596145  11.35537056
1830.00 -61.24406109  11.39194429
1832.00 -61.38229380  11.42859411
1834.00 -61.52065954  11.46532007
1836.00 -61.65915825  11.50212226
1838.00 -61.79778987  11.53900072
1840.00 -61.93655434  11.57595554
1842.00 -62.07545162  11.61298677
1844.00 -62.21448165  11.65009449
1846.00 -62.35364436  11.68727876
1848.00 -62.49293971  11.72453964
1850.00 -62.63236764  11.76187720
1852.00 -62.77192809  11.79929151
1854.00 -62.91162101  11.83678264
1856.00 -63.05144634  11.87435064
1858.00 -63.19140403  11.91199559
1860.00 -63.33149402  11.94971755
1862.00 -63.47171625  11.98751659
1864.00 -63.61207068  12.02539278
1866.00 -63.75255723  12.06334617
1868.00 -63.89317587  12.10137684
1870.00 -64.03392652  12.13948485
1872.00 -64.17480914  12.17767027
1874.00 -64.31582366  12.21593316
1876.00 -64.45697004  12.25427358
1878.00 -64.59824822  12.29269161
1880.00 -64.73965813  12.33118731
1882.00 -64.88119973  12.36976075
1884.00 -65.02287295  12.40841198
1886.00 -65.16467775  12.44714108
1888.00 -65.30661406  12.48594811
1890.00 -65.44868183  12.52483313
1892.00 -65.59088100  12.56379622
1894.00 -65.73321151  12.60283743
1896.00 -65.87567332  12.64195683
1898.00 -66.01826635  12.68115448
1900.00 -66.16099056  12.72043046
1902.00 -66.30384589  12.75978482
1904.00 -66.44683228  12.79921764
1906.00 -66.58994968  12.83872896
1908.00 -66.73319802  12.87831887
1910.00 -66.87657726  12.91798743
1912.00 -67.02008732  12.95773469
1914.00 -67.16372817  12.99756072
1916.00 -67.30749974  13.03746560
1918.00 -67.45140197  13.07744938
1920.00 -67.59543480  13.11751212
1922.00 -67.73959819  13.15765390
1924.00 -67.88389206  13.19787477
1926.00 -68.02831638  13.23817481
1928.00 -68.17287107  13.27855406
1930.00 -68.31755608  13.31901261
1932.00 -68.46237135  13.35955051
1934.00 -68.60731683  13.40016783
1936.00 -68.75239245  13.44086463
1938.00 -68.89759817  13.48164097
1940.00 -69.04293392  13.52249692
1942.00 -69.18839965  13.56343255
1944.00 -69.33399530  13.60444791
1946.00 -69.47972080  13.64554308
1948.00 -69.62557611  13.68671810
1950.00 -69.77156117  13.72797306
1952.00 -69.91767591  13.76930801
1954.00 -70.06392028  13.81072301
1956.00 -70.21029423  13.85221813
1958.00 -70.35679769  13.89379343
1960.00 -70.50343060  13.93544898
1962.00 -70.65019292  13.97718484
1964.00 -70.79708458  14.01900107
1966.00 -70.94410551  14.06089774
1968.00 -71.09125568  14.10287490
1970.00 -71.23853501  14.14493263
1972.00 -71.38594345  14.18707098
1974.00 -71.53348094  14.22929002
1976.00 -71.68114742  14.27158981
1978.00 -71.82894284  14.31397042
1980.00 -71.97686713  14.35643190
1982.00 -72.12492024  14.39897432
1984.00 -72.27310211  14.44159774
1986.00 -72.42141268  14.48430223
1988.00 -72.56985190  14.52708785
1990.00 -72.71841969  14.56995466
1992.00 -72.86711602  14.61290272
1994.00 -73.01594081  14.65593210
1996.00 -73.16489401  14.69904286
1998.00 -73.31397556  14.74223506
2000.00 -73.46318540  14.78550876
2002.00 -73.61252348  14.82886402
2004.00 -73.76198973  14.87230092
2006.00 -73.91158409  14.91581950
2008.00 -74.06130651  14.95941984
2010.00 -74.21115693  15.00310199
2012.00 -74.36113529  15.04686602
2014.00 -74.51124153  15.09071198
2016.00 -74.66147559  15.13463995
2018.00 -74.81183741  15.17864998
2020.00 -74.96232693  15.22274213
2022.00 -75.11294410  15.26691647
2024.00 -75.26368886  15.31117306
2026.00 -75.41456114  15.35551195
2028.00 -75.56556088  15.39993322
2030.00 -75.71668804  15.44443692
2032.00 -75.86794254  15.48902311
2034.00 -76.01932434  15.53369186
2036.00 -76.17083336  15.57844323
2038.00 -76.32246955  15.62327728
2040.00 -76.47423286  15.66819406
2042.00 -76.62612322  15.71319365
2044.00 -76.77814057  15.75827610
2046.00 -76.93028485  15.80344148
2048.00 -77.08255601  15.84868983
2050.00 -77.23495398  15.89402124
2052.00 -77.38747870  15.93943575
2054.00 -77.54013012  15.98493343
2056.00 -77.69290818  16.03051434
2058.00 -77.84581281  16.07617854
2060.00 -77.99884395  16.12192608
2062.00 -78.15200155  16.16775704
2064.00 -78.30528555  16.21367148
2066.00 -78.45869589  16.25966944
2068.00 -78.61223250  16.30575100
2070.00 -78.76589533  16.35191621
2072.00 -78.91968431  16.39816514
2074.00 -79.07359939  16.44449784
2076.00 -79.22764051  16.49091437
2078.00 -79.38180760  16.53741480
2080.00 -79.53610061  16.58399919
2082.00 -79.69051948  16.63066759
2084.00 -79.84506414  16.67742007
2086.00 -79.99973454  16.72425669
2088.00 -80.15453061  16.77117750
2090.00 -80.30945230  16.81818257
2092.00 -80.46449955  16.86527195
2094.00 -80.61967229  16.91244572
2096.00 -80.77497047  16.95970391
2098.00 -80.93039401  17.00704661
2100.00 -81.08594288  17.05447386
2102.00 -81.24161699  17.10198572
2104.00 -81.39741630  17.14958226
2106.00 -81.55334074  17.19726353
2108.00 -81.70939026  17.24502960
2110.00 -81.86556478  17.29288052
2112.00 -82.02186425  17.34081636
2114.00 -82.17828862  17.38883717
2116.00 -82.33483781  17.43694301
2118.00 -82.49151177  17.48513394
2120.00 -82.64831044  17.53341002
2122.00 -82.80523375  17.58177131
2124.00 -82.96228165  17.63021787
2126.00 -83.11945408  17.67874976
2128.00 -83.27675096  17.72736703
2130.00 -83.43417226  17.77606975
2132.00 -83.59171789  17.82485797
2134.00 -83.74938781  17.87373176
2136.00 -83.90718194  17.92269117
2138.00 -84.06510023  17.97173626
2140.00 -84.22314263  18.02086709
2142.00 -84.38130905  18.07008372
2144.00 -84.53959946  18.11938620
2146.00 -84.69801377  18.16877460
2148.00 -84.85655194  18.21824898
2150.00 -85.01521390  18.26780939
2152.00 -85.17399960  18.31745588
2154.00 -85.33290896  18.36718853
2156.00 -85.49194192  18.41700738
2158.00 -85.65109844  18.46691250
2160.00 -85.81037844  18.51690394
2162.00 -85.96978186  18.56698177
2164.00 -86.12930864  18.61714603
2166.00 -86.28895872  18.66739679
2168.00 -86.44873205  18.71773411
2170.00 -86.60862854  18.76815804
2172.00 -86.76864816  18.81866864
2174.00 -86.92879082  18.86926597
2176.00 -87.08905648  18.91995009
2178.00 -87.24944507  18.97072105
2180.00 -87.40995653  19.02157892
2182.00 -87.57059079  19.07252374
2184.00 -87.73134780  19.12355558
2186.00 -87.89222748  19.17467450
2188.00 -88.05322979  19.22588055
2190.00 -88.21435466  19.27717378
2192.00 -88.37560203  19.32855427
2194.00 -88.53697183  19.38002205
2196.00 -88.69846400  19.43157720
2198.00 -88.86007848  19.48321977
2200.00 -89.02181521  19.53494981
2202.00 -89.18367413  19.58676738
2204.00 -89.34565517  19.63867255
2206.00 -89.50775828  19.69066535
2208.00 -89.66998338  19.74274587
2210.00 -89.83233042  19.79491414
2212.00 -89.99479933  19.84717023
2214.00 -90.15739006  19.89951419
2216.00 -90.32010254  19.95194608
2218.00 -90.48293671  20.00446596
2220.00 -90.64589250  20.05707388
2222.00 -90.80896985  20.10976990
2224.00 -90.97216871  20.16255407
2226.00 -91.13548900  20.21542646
2228.00 -91.29893067  20.26838711
2230.00 -91.46249365  20.32143609
2232.00 -91.62617788  20.37457346
2234.00 -91.78998330  20.42779925
2236.00 -91.95390984  20.48111355
2238.00 -92.11795744  20.53451639
2240.00 -92.28212605  20.58800783
2242.00 -92.44641559  20.64158794
2244.00 -92.61082600  20.69525676
2246.00 -92.77535723  20.74901436
2248.00 -92.94000920  20.80286079
2250.00 -93.10478186  20.85679609
2252.00 -93.26967514  20.91082034
2254.00 -93.43468898  20.96493359
2256.00 -93.59982332  21.01913588
2258.00 -93.76507808  21.07342729
2260.00 -93.93045322  21.12780785
2262.00 -94.09594867  21.18227763
2264.00 -94.26156436  21.23683669
2266.00 -94.42730023  21.29148507
2268.00 -94.59315622  21.34622283
2270.00 -94.75913226  21.40105004
2272.00 -94.92522829  21.45596673
2274.00 -95.09144425  21.51097298
2276.00 -95.25778008  21.56606883
2278.00 -95.42423571  21.62125433
2280.00 -95.59081107  21.67652955
2282.00 -95.75750611  21.73189454
2284.00 -95.92432076  21.78734935
2286.00 -96.09125496  21.84289404
2288.00 -96.25830864  21.89852866
2290.00 -96.42548174  21.95425327
2292.00 -96.59277420  22.01006791
2294.00 -96.76018595  22.06597266
2296.00 -96.92771693  22.12196755
2298.00 -97.09536708  22.17805265
2300.00 -97.26313633  22.23422801
2302.00 -97.43102462  22.29049368
2304.00 -97.59903189  22.34684972
2306.00 -97.76715806  22.40329618
2308.00 -97.93540309  22.45983312
2310.00 -98.10376690  22.51646059
2312.00 -98.27224942  22.57317864
2314.00 -98.44085061  22.62998733
2316.00 -98.60957038  22.68688671
2318.00 -98.77840869  22.74387683
2320.00 -98.94736545  22.80095776
2322.00 -99.11644062  22.85812953
2324.00 -99.28563413  22.91539222
2326.00 -99.45494590  22.97274586
2328.00 -99.62437589  23.03019052
2330.00 -99.79392402  23.08772625
2332.00 -99.96359023  23.14535310
2334.00 -100.13337445  23.20307112
2336.00 -100.30327663  23.26088037
2338.00 -100.47329669  23.31878090
2340.00 -100.64343458  23.37677276
2342.00 -100.81369023  23.43485601
2344.00 -100.98406357  23.49303070
2346.00 -101.15455454  23.55129689
2348.00 -101.32516308  23.60965462
2350.00 -101.49588912  23.66810395
2352.00 -101.66673259  23.72664493
2354.00 -101.83769344  23.78527762
2356.00 -102.00877160  23.84400206
2358.00 -102.17996700  23.90281832
2360.00 -102.35127958  23.96172644
2362.00 -102.52270927  24.02072648
2364.00 -102.69425602  24.07981848
2366.00 -102.86591975  24.13900251
2368.00 -103.03770040  24.19827860
2370.00 -103.20959791  24.25764683
2372.00 -103.38161221  24.31710723
2374.00 -103.55374323  24.37665986
2376.00 -103.72599092  24.43630478
2378.00 -103.89835521  24.49604203
2380.00 -104.07083603  24.55587167
2382.00 -104.24343331  24.61579374
2384.00 -104.41614700  24.67580831
2386.00 -104.58897703  24.73591542
2388.00 -104.76192333  24.79611513
2390.00 -104.93498584  24.85640748
2392.00 -105.10816449  24.91679253
2394.00 -105.28145922  24.97727033
2396.00 -105.45486996  25.03784093
2398.00 -105.62839665  25.09850439
2400.00 -105.80203922  25.15926075
2402.00 -105.97579762  25.22011007
2404.00 -106.14967176  25.28105239
2406.00 -106.32366159  25.34208778
2408.00 -106.49776705  25.40321627
2410.00 -106.67198806  25.46443793
2412.00 -106.84632457  25.52575280
2414.00 -107.02077650  25.58716094
2416.00 -107.19534379  25.64866239
2418.00 -107.37002638  25.71025721
2420.00 -107.54482421  25.77194544
2422.00 -107.71973719  25.83372715
2424.00 -107.89476528  25.89560237
2426.00 -108.06990840  25.95757116
2428.00 -108.24516649  26.01963358
2430.00 -108.42053949  26.08178966
2432.00 -108.59602732  26.14403947
2434.00 -108.77162993  26.20638305
2436.00 -108.94734725  26.26882045
2438.00 -109.12317920  26.33135173
2440.00 -109.29912574  26.39397694
2442.00 -109.47518678  26.45669611
2444.00 -109.65136227  26.51950932
2446.00 -109.82765214  26.58241660
2448.00 -110.00405632  26.64541800
2450.00 -110.18057475  26.70851358
2452.00 -110.35720737  26.77170339
2454.00 -110.53395410  26.83498747
2456.00 -110.71081488  26.89836588
2458.00 -110.88778964  26.96183866
2460.00 -111.06487833  27.02540587
2462.00 -111.24208087  27.08906755
2464.00 -111.41939719  27.15282377
2466.00 -111.59682724  27.21667455
2468.00 -111.77437094  27.28061996
2470.00 -111.95202823  27.34466005
2472.00 -112.12979905  27.40879485
2474.00 -112.30768332  27.47302444
2476.00 -112.48568099  27.53734884
2478.00 -112.66379198  27.60176812
2480.00 -112.84201623  27.66628231
2482.00 -113.02035367  27.73089148
2484.00 -113.19880424  27.79559567
2486.00 -113.37736787  27.86039493
2488.00 -113.55604450  27.92528931
2490.00 -113.73483405  27.99027885
2492.00 -113.91373647  28.05536361
2494.00 -114.09275168  28.12054363
2496.00 -114.27187963  28.18581897
2498.00 -114.45112023  28.25118967
2500.00 -114.63047344  28.31665578
2502.00 -114.80993917  28.38221736
2504.00 -114.98951737  28.44787444
2506.00 -115.16920797  28.51362708
2508.00 -115.34901090  28.57947532
2510.00 -115.52892610  28.64541922
2512.00 -115.70895349  28.71145882
2514.00 -115.88909302  28.77759418
2516.00 -116.06934461  28.84382533
2518.00 -116.24970820  28.91015233
2520.00 -116.43018372  28.97657522
2522.00 -116.61077111  29.04309407
2524.00 -116.79147030  29.10970890
2526.00 -116.97228123  29.17641977
2528.00 -117.15320382  29.24322673
2530.00 -117.33423801  29.31012983
2532.00 -117.51538373  29.37712911
2534.00 -117.69664092  29.44422462
2536.00 -117.87800950  29.51141641
2538.00 -118.05948942  29.57870453
2540.00 -118.24108061  29.64608902
2542.00 -118.42278299  29.71356994
2544.00 -118.60459651  29.78114732
2546.00 -118.78652109  29.84882123
2548.00 -118.96855668  29.91659169
2550.00 -119.15070319  29.98445877
2552.00 -119.33296057  30.05242251
2554.00 -119.51532874  30.12048296
2556.00 -119.69780765  30.18864015
2558.00 -119.88039722  30.25689415
2560.00 -120.06309738  30.32524500
2562.00 -120.24590808  30.39369274
2564.00 -120.42882924  30.46223743
2566.00 -120.61186079  30.53087910
2568.00 -120.79500268  30.59961781
2570.00 -120.97825482  30.66845359
2572.00 -121.16161716  30.73738651
2574.00 -121.34508963  30.80641661
2576.00 -121.52867215  30.87554392
2578.00 -121.71236467  30.94476851
2580.00 -121.89616712  31.01409041
2582.00 -122.08007942  31.08350967
2584.00 -122.26410151  31.15302634
2586.00 -122.44823333  31.22264047
2588.00 -122.63247480  31.29235209
2590.00 -122.81682586  31.36216126
2592.00 -123.00128645  31.43206803
2594.00 -123.18585648  31.50207243
2596.00 -123.37053591  31.57217452
2598.00 -123.55532465  31.64237434
2600.00 -123.74022265  31.71267194
2602.00 -123.92522983  31.78306736
2604.00 -124.11034613  31.85356065
2606.00 -124.29557147  31.92415185
2608.00 -124.48090580  31.99484101
2610.00 -124.66634905  32.06562818
2612.00 -124.85190114  32.13651340
2614.00 -125.03756201  32.20749672
2616.00 -125.22333159  32.27857818
2618.00 -125.40920981  32.34975783
2620.00 -125.59519661  32.42103571
2622.00 -125.78129193  32.49241187
2624.00 -125.96749568  32.56388635
2626.00 -126.15380780  32.63545920
2628.00 -126.34022823  32.70713047
2630.00 -126.52675690  32.77890019
2632.00 -126.71339374  32.85076842
2634.00 -126.90013868  32.92273519
2636.00 -127.08699165  32.99480057
2638.00 -127.27395259  33.06696458
2640.00 -127.46102143  33.13922727
2642.00 -127.64819811  33.21158869
2644.00 -127.83548254  33.28404889
2646.00 -128.02287467  33.35660790
2648.00 -128.21037442  33.42926577
2650.00 -128.39798174  33.50202255
2652.00 -128.58569655  33.57487828
2654.00 -128.77351878  33.64783301
2656.00 -128.96144836  33.72088678
2658.00 -129.14948523  33.79403963
2660.00 -129.33762932  33.86729161
2662.00 -129.52588057  33.94064276
2664.00 -129.71423889  34.01409313
2666.00 -129.90270423  34.08764276
2668.00 -130.09127652  34.16129169
2670.00 -130.27995568  34.23503997
2672.00 -130.46874166  34.30888765
2674.00 -130.65763438  34.38283476
2676.00 -130.84663377  34.45688135
2678.00 -131.03573977  34.53102746
2680.00 -131.22495230  34.60527314
2682.00 -131.41427131  34.67961843
2684.00 -131.60369672  34.75406338
2686.00 -131.79322845  34.82860802
2688.00 -131.98286646  34.90325241
2690.00 -132.17261066  34.97799658
2692.00 -132.36246098  35.05284058
2694.00 -132.55241737  35.12778445
2696.00 -132.74247975  35.20282823
2698.00 -132.93264805  35.27797197
2700.00 -133.12292220  35.35321571
2702.00 -133.31330214  35.42855950
2704.00 -133.50378780  35.50400337
2706.00 -133.69437910  35.57954737
2708.00 -133.88507599  35.65519155
2710.00 -134.07587839  35.73093594
2712.00 -134.26678623  35.80678058
2714.00 -134.45779945  35.88272553
2716.00 -134.64891797  35.95877082
2718.00 -134.84014173  36.03491650
2720.00 -135.03147066  36.11116260
2722.00 -135.22290468  36.18750918
2724.00 -135.41444374  36.26395627
2726.00 -135.60608777  36.34050391
2728.00 -135.79783669  36.41715215
2730.00 -135.98969043  36.49390103
2732.00 -136.18164893  36.57075060
2734.00 -136.37371212  36.64770088
2736.00 -136.56587992  36.72475194
2738.00 -136.75815228  36.80190380
2740.00 -136.95052912  36.87915651
2742.00 -137.14301038  36.95651012
2744.00 -137.33559597  37.03396465
2746.00 -137.52828585  37.11152017
2748.00 -137.72107993  37.18917670
2750.00 -137.91397815  37.26693429
2752.00 -138.10698043  37.34479298
2754.00 -138.30008672  37.42275281
2756.00 -138.49329694  37.50081383
2758.00 -138.68661102  37.57897607
2760.00 -138.88002889  37.65723958
2762.00 -139.07355048  37.73560439
2764.00 -139.26717574  37.81407056
2766.00 -139.46090458  37.89263811
2768.00 -139.65473693  37.97130710
2770.00 -139.84867273  38.05007756
2772.00 -140.04271192  38.12894953
2774.00 -140.23685441  38.20792305
2776.00 -140.43110015  38.28699818
2778.00 -140.62544905  38.36617493
2780.00 -140.81990106  38.44545337
2782.00 -141.01445610  38.52483352
2784.00 -141.20911411  38.60431543
2786.00 -141.40387501  38.68389914
2788.00 -141.59873874  38.76358469
2790.00 -141.79370523  38.84337212
2792.00 -141.98877440  38.92326146
2794.00 -142.18394619  39.00325277
2796.00 -142.37922053  39.08334609
2798.00 -142.57459735  39.16354144
2800.00 -142.77007659  39.24383887
2802.00 -142.96565816  39.32423843
2804.00 -143.16134201  39.40474015
2806.00 -143.35712805  39.48534407
2808.00 -143.55301624  39.56605023
2810.00 -143.74900648  39.64685867
2812.00 -143.94509873  39.72776944
2814.00 -144.14129289  39.80878257
2816.00 -144.33758892  39.88989810
2818.00 -144.53398673  39.97111607
2820.00 -144.73048625  40.05243652
2822.00 -144.92708743  40.13385949
2824.00 -145.12379018  40.21538502
2826.00 -145.32059444  40.29701315
2828.00 -145.51750015  40.37874392
2830.00 -145.71450722  40.46057737
2832.00 -145.91161559  40.54251354
2834.00 -146.10882519  40.62455246
2836.00 -146.30613596  40.70669418
2838.00 -146.50354782  40.78893873
2840.00 -146.70106069  40.87128616
2842.00 -146.89867453  40.95373650
2844.00 -147.09638924  41.03628979
2846.00 -147.29420477  41.11894607
2848.00 -147.49212104  41.20170539
2850.00 -147.69013799  41.28456777
2852.00 -147.88825554  41.36753326
2854.00 -148.08647362  41.45060190
2856.00 -148.28479217  41.53377372
2858.00 -148.48321112  41.61704876
2860.00 -148.68173039  41.70042707
2862.00 -148.88034992  41.78390868
2864.00 -149.07906964  41.86749362
2866.00 -149.27788947  41.95118194
2868.00 -149.47680935  42.03497368
2870.00 -149.67582920  42.11886887
2872.00 -149.87494896  42.20286756
2874.00 -150.07416856  42.28696977
2876.00 -150.27348793  42.37117555
2878.00 -150.47290700  42.45548494
2880.00 -150.67242569  42.53989797
2882.00 -150.87204394  42.62441468
2884.00 -151.07176168  42.70903511
2886.00 -151.27157884  42.79375930
2888.00 -151.47149535  42.87858728
2890.00 -151.67151113  42.96351910
2892.00 -151.87162613  43.04855479
2894.00 -152.07184026  43.13369438
2896.00 -152.27215346  43.21893792
2898.00 -152.47256566  43.30428545
2900.00 -152.67307679  43.38973699
2902.00 -152.87368678  43.47529259
2904.00 -153.07439556  43.56095228
2906.00 -153.27520305  43.64671611
2908.00 -153.47610920  43.73258411
2910.00 -153.67711392  43.81855631
2912.00 -153.87821715  43.90463276
2914.00 -154.07941882  43.99081348
2916.00 -154.28071886  44.07709852
2918.00 -154.48211720  44.16348792
2920.00 -154.68361376  44.24998171
2922.00 -154.88520849  44.33657992
2924.00 -155.08690130  44.42328260
2926.00 -155.28869213  44.51008978
2928.00 -155.49058091  44.59700149
2930.00 -155.69256756  44.68401778
2932.00 -155.89465203  44.77113869
2934.00 -156.09683423  44.85836423
2936.00 -156.29911410  44.94569446
2938.00 -156.50149156  45.03312941
2940.00 -156.70396655  45.12066912
2942.00 -156.90653900  45.20831361
2944.00 -157.10920884  45.29606294
2946.00 -157.31197599  45.38391713
2948.00 -157.51484038  45.47187621
2950.00 -157.71780195  45.55994024
2952.00 -157.92086063  45.64810923
2954.00 -158.12401634  45.73638324
2956.00 -158.32726902  45.82476228
2958.00 -158.53061859  45.91324641
2960.00 -158.73406498  46.00183565
2962.00 -158.93760813  46.09053004
2964.00 -159.14124796  46.17932962
2966.00 -159.34498440  46.26823442
2968.00 -159.54881739  46.35724447
2970.00 -159.75274685  46.44635982
2972.00 -159.95677271  46.53558049
2974.00 -160.16089490  46.62490653
2976.00 -160.36511335  46.71433796
2978.00 -160.56942799  46.80387483
2980.00 -160.77383875  46.89351717
2982.00 -160.97834556  46.98326501
2984.00 -161.18294836  47.07311838
2986.00 -161.38764705  47.16307733
2988.00 -161.59244159  47.25314189
2990.00 -161.79733190  47.34331209
2992.00 -162.00231790  47.43358797
2994.00 -162.20739953  47.52396956
2996.00 -162.41257671  47.61445690
2998.00 -162.61784938  47.70505002
3000.00 -162.82321747  47.79574896
3002.00 -163.02868089  47.88655374
3004.00 -163.23423960  47.97746441
3006.00 -163.43989350  48.06848100
3008.00 -163.64564254  48.15960354
3010.00 -163.85148664  48.25083208
3012.00 -164.05742573  48.34216663
3014.00 -164.26345975  48.43360724
3016.00 -164.46958861  48.52515394
3018.00 -164.67581225  48.61680676
3020.00 -164.88213061  48.70856574
3022.00 -165.08854360  48.80043091
3024.00 -165.29505115  48.89240231
3026.00 -165.50165321  48.98447997
3028.00 -165.70834969  49.07666392
3030.00 -165.91514052  49.16895420
3032.00 -166.12202565  49.26135084
3034.00 -166.32900498  49.35385387
3036.00 -166.53607846  49.44646333
3038.00 -166.74324601  49.53917926
3040.00 -166.95050756  49.63200167
3042.00 -167.15786305  49.72493062
3044.00 -167.36531239  49.81796612
3046.00 -167.57285553  49.91110822
3048.00 -167.78049238  50.00435695
3050.00 -167.98822288  50.09771234
3052.00 -168.19604696  50.19117442
3054.00 -168.40396455  50.28474323
3056.00 -168.61197557  50.37841879
3058.00 -168.82007995  50.47220115
3060.00 -169.02827763  50.56609034
3062.00 -169.23656854  50.66008638
3064.00 -169.44495259  50.75418932
3066.00 -169.65342973  50.84839917
3068.00 -169.86199988  50.94271599
3070.00 -170.07066296  51.03713979
3072.00 -170.27941892  51.13167061
3074.00 -170.48826768  51.22630849
3076.00 -170.69720916  51.32105345
3078.00 -170.90624330  51.41590553
3080.00 -171.11537002  51.51086476
3082.00 -171.32458926  51.60593117
3084.00 -171.53390094  51.70110480
3086.00 -171.74330499  51.79638567
3088.00 -171.95280135  51.89177383
3090.00 -172.16238993  51.98726929
3092.00 -172.37207068  52.08287210
3094.00 -172.58184351  52.17858228
3096.00 -172.79170836  52.27439987
3098.00 -173.00166516  52.37032489
3100.00 -173.21171384  52.46635739
3102.00 -173.42185432  52.56249738
3104.00 -173.63208653  52.65874491
3106.00 -173.84241041  52.75510001
3108.00 -174.05282587  52.85156270
3110.00 -174.26333286  52.94813301
3112.00 -174.47393130  53.04481099
3114.00 -174.68462112  53.14159666
3116.00 -174.89540224  53.23849004
3118.00 -175.10627460  53.33549118
3120.00 -175.31723813  53.43260011
3122.00 -175.52829275  53.52981684
3124.00 -175.73943840  53.62714143
3126.00 -175.95067499  53.72457389
3128.00 -176.16200247  53.82211425
3130.00 -176.37342076  53.91976256
3132.00 -176.58492979  54.01751884
3134.00 -176.79652948  54.11538311
3136.00 -177.00821977  54.21335542
3138.00 -177.22000059  54.31143578
3140.00 -177.43187186  54.40962424
3142.00 -177.64383352  54.50792082
3144.00 -177.85588549  54.60632555
3146.00 -178.06802770  54.70483847
3148.00 -178.28026008  54.80345960
3150.00 -178.49258255  54.90218897
3152.00 -178.70499506  55.00102662
3154.00 -178.91749752  55.09997257
3156.00 -179.13008987  55.19902686
3158.00 -179.34277203  55.29818951
3160.00 -179.55554393  55.39746055
3162.00 -179.76840551  55.49684002
3164.00 -179.98135668  55.59632794
3166.00 -180.19439739  55.69592434
3168.00 -180.40752755  55.79562926
3170.00 -180.62074711  55.89544273
3172.00 -180.83405597  55.99536476
3174.00 -181.04745408  56.09539540
3176.00 -181.26094137  56.19553467
3178.00 -181.47451775  56.29578260
3180.00 -181.68818317  56.39613923
3182.00 -181.90193755  56.49660457
3184.00 -182.11578081  56.59717867
3186.00 -182.32971289  56.69786154
3188.00 -182.54373372  56.79865322
3190.00 -182.75784322  56.89955374
3192.00 -182.97204132  57.00056312
3194.00 -183.18632796  57.10168140
3196.00 -183.40070306  57.20290861
3198.00 -183.61516654  57.30424477
3200.00 -183.82971835  57.40568991
3202.00 -184.04435840  57.50724406
3204.00 -184.25908662  57.60890725
3206.00 -184.47390295  57.71067951
3208.00 -184.68880732  57.81256087
3210.00 -184.90379964  57.91455136
3212.00 -185.11887986  58.01665100
3214.00 -185.33404789  58.11885982
3216.00 -185.54930367  58.22117785
3218.00 -185.76464713  58.32360512
3220.00 -185.98007819  58.42614166
3222.00 -186.19559678  58.52878750
3224.00 -186.41120284  58.63154266
3226.00 -186.62689628  58.73440718
3228.00 -186.84267705  58.83738107
3230.00 -187.05854506  58.94046438
3232.00 -187.27450026  59.04365712
3234.00 -187.49054255  59.14695932
3236.00 -187.70667188  59.25037102
3238.00 -187.92288817  59.35389224
3240.00 -188.13919136  59.45752301
3242.00 -188.35558136  59.56126335
3244.00 -188.57205811  59.66511329
3246.00 -188.78862154  59.76907287
3248.00 -189.00527157  59.87314211
3250.00 -189.22200814  59.97732103
3252.00 -189.43883117  60.08160967
3254.00 -189.65574059  60.18600804
3256.00 -189.87273633  60.29051619
3258.00 -190.08981832  60.39513413
3260.00 -190.30698648  60.49986189
3262.00 -190.52424076  60.60469950
3264.00 -190.74158106  60.70964699
3266.00 -190.95900733  60.81470438
3268.00 -191.17651949  60.91987171
3270.00 -191.39411747  61.02514899
3272.00 -191.61180119  61.13053626
3274.00 -191.82957060  61.23603354
3276.00 -192.04742561  61.34164085
3278.00 -192.26536615  61.44735823
3280.00 -192.48339216  61.55318571
3282.00 -192.70150355  61.65912330
3284.00 -192.91970027  61.76517103
3286.00 -193.13798224  61.87132894
3288.00 -193.35634938  61.97759705
3290.00 -193.57480162  62.08397538
3292.00 -193.79333890  62.19046395
3294.00 -194.01196115  62.29706281
3296.00 -194.23066828  62.40377197
3298.00 -194.44946023  62.51059146
3300.00 -194.66833693  62.61752130
3302.00 -194.88729831  62.72456152
3304.00 -195.10634429  62.83171215
3306.00 -195.32547480  62.93897322
3308.00 -195.54468978  63.04634474
3310.00 -195.76398914  63.15382675
3312.00 -195.98337283  63.26141926
3314.00 -196.20284076  63.36912232
3316.00 -196.42239287  63.47693593
3318.00 -196.64202908  63.58486013
3320.00 -196.86174933  63.69289495
3322.00 -197.08155353  63.80104040
3324.00 -197.30144163  63.90929652
3326.00 -197.52141355  64.01766333
3328.00 -197.74146921  64.12614085
3330.00 -197.96160854  64.23472911
3332.00 -198.18183148  64.34342813
3334.00 -198.40213796  64.45223795
3336.00 -198.62252789  64.56115858
3338.00 -198.84300121  64.67019005
3340.00 -199.06355785  64.77933239
3342.00 -199.28419774  64.88858561
3344.00 -199.50492080  64.99794975
3346.00 -199.72572696  65.10742483
3348.00 -199.94661616  65.21701088
3350.00 -200.16758831  65.32670791
3352.00 -200.38864335  65.43651596
3354.00 -200.60978121  65.54643505
3356.00 -200.83100182  65.65646520
3358.00 -201.05230510  65.76660644
3360.00 -201.27369098  65.87685879
3362.00 -201.49515939  65.98722227
3364.00 -201.71671026  66.09769692
3366.00 -201.93834352  66.20828275
3368.00 -202.16005910  66.31897979
3370.00 -202.38185692  66.42978807
3372.00 -202.60373691  66.54070760
3374.00 -202.82569901  66.65173841
3376.00 -203.04774313  66.76288053
3378.00 -203.26986921  66.87413398
3380.00 -203.49207718  66.98549878
3382.00 -203.71436697  67.09697496
3384.00 -203.93673850  67.20856253
3386.00 -204.15919170  67.32026154
3388.00 -204.38172650  67.43207199
3390.00 -204.60434283  67.54399391
3392.00 -204.82704062  67.65602733
3394.00 -205.04981980  67.76817227
3396.00 -205.27268028  67.88042875
3398.00 -205.49562202  67.99279680
3400.00 -205.71864492  68.10527643
3402.00 -205.94174892  68.21786768
3404.00 -206.16493395  68.33057056
3406.00 -206.38819994  68.44338510
3408.00 -206.61154682  68.55631133
3410.00 -206.83497450  68.66934926
3412.00 -207.05848293  68.78249891
3414.00 -207.28207203  68.89576032
3416.00 -207.50574173  69.00913350
3418.00 -207.72949196  69.12261848
3420.00 -207.95332264  69.23621528
3422.00 -208.17723371  69.34992391
3424.00 -208.40122509  69.46374442
3426.00 -208.62529671  69.57767681
3428.00 -208.84944850  69.69172111
3430.00 -209.07368039  69.80587735
3432.00 -209.29799230  69.92014554
3434.00 -209.52238417  70.03452570
3436.00 -209.74685593  70.14901787
3438.00 -209.97140749  70.26362206
3440.00 -210.19603880  70.37833829
3442.00 -210.42074977  70.49316659
3444.00 -210.64554035  70.60810698
3446.00 -210.87041045  70.72315948
3448.00 -211.09536000  70.83832411
3450.00 -211.32038894  70.95360089
3452.00 -211.54549718  71.06898986
3454.00 -211.77068467  71.18449102
3456.00 -211.99595132  71.30010440
3458.00 -212.22129708  71.41583002
3460.00 -212.44672185  71.53166791
3462.00 -212.67222558  71.64761808
3464.00 -212.89780820  71.76368056
3466.00 -213.12346962  71.87985537
3468.00 -213.34920978  71.99614253
3470.00 -213.57502861  72.11254206
3472.00 -213.80092604  72.22905398
3474.00 -214.02690199  72.34567832
3476.00 -214.25295639  72.46241509
3478.00 -214.47908917  72.57926432
3480.00 -214.70530027  72.69622602
3482.00 -214.93158960  72.81330023
3484.00 -215.15795710  72.93048695
3486.00 -215.38440270  73.04778622
3488.00 -215.61092632  73.16519805
3490.00 -215.83752789  73.28272246
3492.00 -216.06420734  73.40035947
3494.00 -216.29096460  73.51810911
3496.00 -216.51779960  73.63597140
3498.00 -216.74471227  73.75394635
3500.00 -216.97170253  73.87203398
3502.00 -217.19877031  73.99023433
3504.00 -217.42591555  74.10854740
3506.00 -217.65313816  74.22697321
3508.00 -217.88043809  74.34551180
3510.00 -218.10781525  74.46416318
3512.00 -218.33526958  74.58292736
3514.00 -218.56280100  74.70180437
3516.00 -218.79040945  74.82079424
3518.00 -219.01809485  74.93989697
3520.00 -219.24585713  75.05911259
3522.00 -219.47369621  75.17844112
3524.00 -219.70161204  75.29788259
3526.00 -219.92960453  75.41743700
3528.00 -220.15767361  75.53710438
3530.00 -220.38581922  75.65688475
3532.00 -220.61404128  75.77677813
3534.00 -220.84233971  75.89678453
3536.00 -221.07071446  76.01690399
3538.00 -221.29916544  76.13713651
3540.00 -221.52769259  76.25748212
3542.00 -221.75629584  76.37794084
3544.00 -221.98497510  76.49851269
3546.00 -222.21373032  76.61919768
3548.00 -222.44256142  76.73999583
3550.00 -222.67146832  76.86090717
3552.00 -222.90045096  76.98193171
3554.00 -223.12950927  77.10306948
3556.00 -223.35864317  77.22432049
3558.00 -223.58785260  77.34568476
3560.00 -223.81713747  77.46716231
3562.00 -224.04649773  77.58875315
3564.00 -224.27593329  77.71045732
3566.00 -224.50544410  77.83227482
3568.00 -224.73503006  77.95420568
3570.00 -224.96469113  78.07624991
3572.00 -225.19442721  78.19840754
3574.00 -225.42423825  78.32067857
3576.00 -225.65412416  78.44306304
3578.00 -225.88408489  78.56556096
3580.00 -226.11412035  78.68817234
3582.00 -226.34423048  78.81089721
3584.00 -226.57441521  78.93373558
3586.00 -226.80467445  79.05668747
3588.00 -227.03500815  79.17975291
3590.00 -227.26541623  79.30293190
3592.00 -227.49589862  79.42622447
3594.00 -227.72645525  79.54963064
3596.00 -227.95708604  79.67315042
3598.00 -228.18779093  79.79678383
3600.00 -228.41856985  79.92053088
3602.00 -228.64942271  80.04439161
3604.00 -228.88034946  80.16836602
3606.00 -229.11135002  80.29245413
3608.00 -229.34242432  80.41665597
3610.00 -229.57357228  80.54097154
3612.00 -229.80479384  80.66540086
3614.00 -230.03608893  80.78994396
3616.00 -230.26745747  80.91460085
3618.00 -230.49889939  81.03937155
3620.00 -230.73041462  81.16425608
3622.00 -230.96200309  81.28925444
3624.00 -231.19366473  81.41436667
3626.00 -231.42539947  81.53959277
3628.00 -231.65720724  81.66493277
3630.00 -231.88908796  81.79038668
3632.00 -232.12104156  81.91595453
3634.00 -232.35306797  82.04163631
3636.00 -232.58516713  82.16743206
3638.00 -232.81733895  82.29334179
3640.00 -233.04958338  82.41936552
3642.00 -233.28190033  82.54550325
3644.00 -233.51428974  82.67175502
3646.00 -233.74675153  82.79812084
3648.00 -233.97928564  82.92460072
3650.00 -234.21189198  83.05119468
3652.00 -234.44457050  83.17790274
3654.00 -234.67732112  83.30472491
3656.00 -234.91014377  83.43166122
3658.00 -235.14303838  83.55871167
3660.00 -235.37600487  83.68587628
3662.00 -235.60904318  83.81315507
3664.00 -235.84215324  83.94054805
3666.00 -236.07533496  84.06805525
3668.00 -236.30858829  84.19567668
3670.00 -236.54191315  84.32341235
3672.00 -236.77530947  84.45126228
3674.00 -237.00877718  84.57922648
3676.00 -237.24231620  84.70730498
3678.00 -237.47592647  84.83549778
3680.00 -237.70960792  84.96380491
3682.00 -237.94336047  85.09222638
3684.00 -238.17718405  85.22076220
3686.00 -238.41107860  85.34941240
3688.00 -238.64504404  85.47817698
3690.00 -238.87908029  85.60705596
3692.00 -239.11318730  85.73604936
3694.00 -239.34736498  85.86515719
3696.00 -239.58161327  85.99437947
3698.00 -239.81593210  86.12371622
3700.00 -240.05032138  86.25316744
3702.00 -240.28478107  86.38273316
3704.00 -240.51931107  86.51241339
3706.00 -240.75391133  86.64220815
3708.00 -240.98858177  86.77211744
3710.00 -241.22332231  86.90214129
3712.00 -241.45813290  87.03227971
3714.00 -241.69301345  87.16253271
3716.00 -241.92796390  87.29290031
3718.00 -242.16298417  87.42338253
3720.00 -242.39807420  87.55397938
3722.00 -242.63323391  87.68469087
3724.00 -242.86846324  87.81551702
3726.00 -243.10376210  87.94645785
3728.00 -243.33913044  88.07751336
3730.00 -243.57456817  88.20868358
3732.00 -243.81007524  88.33996851
3734.00 -244.04565156  88.47136818
3736.00 -244.28129707  88.60288259
3738.00 -244.51701169  88.73451176
3740.00 -244.75279536  88.86625570
3742.00 -244.98864801  88.99811444
3744.00 -245.22456955  89.13008798
3746.00 -245.46055993  89.26217633
3748.00 -245.69661908  89.39437952
3750.00 -245.93274691  89.52669755
3752.00 -246.16894336  89.65913045
3754.00 -246.40520836  89.79167821
3756.00 -246.64154184  89.92434086
3758.00 -246.87794372  90.05711842
3760.00 -247.11441395  90.19001088
3762.00 -247.35095243  90.32301828
3764.00 -247.58755912  90.45614062
3766.00 -247.82423392  90.58937792
3768.00 -248.06097678  90.72273018
3770.00 -248.29778762  90.85619743
3772.00 -248.53466638  90.98977967
3774.00 -248.77161297  91.12347692
3776.00 -249.00862734  91.25728920
3778.00 -249.24570940  91.39121651
3780.00 -249.48285909  91.52525887
3782.00 -249.72007634  91.65941630
3784.00 -249.95736108  91.79368880
3786.00 -250.19471324  91.92807639
3788.00 -250.43213273  92.06257908
3790.00 -250.66961951  92.19719689
3792.00 -250.90717349  92.33192983
3794.00 -251.14479460  92.46677791
3796.00 -251.38248277  92.60174114
3798.00 -251.62023794  92.73681954
3800.00 -251.85806003  92.87201311
3802.00 -252.09594897  93.00732188
3804.00 -252.33390469  93.14274586
3806.00 -252.57192712  93.27828505
3808.00 -252.81001619  93.41393947
3810.00 -253.04817183  93.54970914
3812.00 -253.28639396  93.68559406
3814.00 -253.52468252  93.82159424
3816.00 -253.76303744  93.95770971
3818.00 -254.00145865  94.09394047
3820.00 -254.23994607  94.23028653
3822.00 -254.47849963  94.36674791
3824.00 -254.71711927  94.50332462
3826.00 -254.95580491  94.64001667
3828.00 -255.19455649  94.77682407
3830.00 -255.43337393  94.91374684
3832.00 -255.67225716  95.05078498
3834.00 -255.91120611  95.18793851
3836.00 -256.15022072  95.32520744
3838.00 -256.38930090  95.46259178
3840.00 -256.62844660  95.60009155
3842.00 -256.86765773  95.73770676
3844.00 -257.10693423  95.87543741
3846.00 -257.34627604  96.01328351
3848.00 -257.58568307  96.15124509
3850.00 -257.82515526  96.28932216
3852.00 -258.06469253  96.42751471
3854.00 -258.30429483  96.56582277
3856.00 -258.54396207  96.70424634
3858.00 -258.78369418  96.84278545
3860.00 -259.02349111  96.98144009
3862.00 -259.26335277  97.12021028
3864.00 -259.50327909  97.25909603
3866.00 -259.74327001  97.39809735
3868.00 -259.98332545  97.53721426
3870.00 -260.22344535  97.67644676
3872.00 -260.46362963  97.81579487
3874.00 -260.70387822  97.95525859
3876.00 -260.94419106  98.09483793
3878.00 -261.18456807  98.23453292
3880.00 -261.42500918  98.37434355
3882.00 -261.66551433  98.51426984
3884.00 -261.90608344  98.65431181
3886.00 -262.14671644  98.79446945
3888.00 -262.38741326  98.93474278
3890.00 -262.62817383  99.07513181
3892.00 -262.86899809  99.21563656
3894.00 -263.10988595  99.35625702
3896.00 -263.35083736  99.49699322
3898.00 -263.59185223  99.63784516
3900.00 -263.83293051  99.77881286
3902.00 -264.07407212  99.91989631
3904.00 -264.31527699 100.06109554
3906.00 -264.55654504 100.20241055
3908.00 -264.79787622 100.34384136
3910.00 -265.03927045 100.48538797
3912.00 -265.28072765 100.62705039
3914.00 -265.52224777 100.76882864
3916.00 -265.76383072 100.91072272
3918.00 -266.00547645 101.05273264
3920.00 -266.24718487 101.19485841
3922.00 -266.48895593 101.33710004
3924.00 -266.73078954 101.47945755
3926.00 -266.97268564 101.62193094
3928.00 -267.21464416 101.76452022
3930.00 -267.45666503 101.90722540
3932.00 -267.69874818 102.05004649
3934.00 -267.94089354 102.19298350
3936.00 -268.18310103 102.33603643
3938.00 -268.42537060 102.47920531
3940.00 -268.66770216 102.62249013
3942.00 -268.91009566 102.76589091
3944.00 -269.15255101 102.90940765
3946.00 -269.39506816 103.05304037
3948.00 -269.63764702 103.19678907
3950.00 -269.88028753 103.34065377
3952.00 -270.12298962 103.48463446
3954.00 -270.36575322 103.62873117
3956.00 -270.60857827 103.77294389
3958.00 -270.85146468 103.91727265
3960.00 -271.09441239 104.06171744
3962.00 -271.33742133 104.20627828
3964.00 -271.58049143 104.35095517
3966.00 -271.82362263 104.49574812
3968.00 -272.06681484 104.64065714
3970.00 -272.31006801 104.78568225
3972.00 -272.55338206 104.93082344
3974.00 -272.79675692 105.07608073
3976.00 -273.04019252 105.22145413
3978.00 -273.28368879 105.36694364
3980.00 -273.52724567 105.51254927
3982.00 -273.77086308 105.65827103
3984.00 -274.01454095 105.80410893
3986.00 -274.25827921 105.95006297
3988.00 -274.50207780 106.09613317
3990.00 -274.74593665 106.24231953
3992.00 -274.98985568 106.38862206
3994.00 -275.23383482 106.53504077
3996.00 -275.47787401 106.68157567
3998.00 -275.72197317 106.82822676
4000.00 -275.96613224 106.97499405
4002.00 -276.21035115 107.12187756
4004.00 -276.45462982 107.26887728
4006.00 -276.69896819 107.41599322
4008.00 -276.94336619 107.56322540
4010.00 -277.18782374 107.71057381
4012.00 -277.43234079 107.85803848
4014.00 -277.67691725 108.00561940
4016.00 -277.92155307 108.15331658
4018.00 -278.16624816 108.30113003
4020.00 -278.41100246 108.44905976
4022.00 -278.65581591 108.59710577
4024.00 -278.90068843 108.74526807
4026.00 -279.14561995 108.89354667
4028.00 -279.39061040 109.04194158
4030.00 -279.63565972 109.19045280
4032.00 -279.88076783 109.33908034
4034.00 -280.12593466 109.48782421
4036.00 -280.37116016 109.63668441
4038.00 -280.61644423 109.78566096
4040.00 -280.86178683 109.93475384
4042.00 -281.10718787 110.08396309
4044.00 -281.35264729 110.23328869
4046.00 -281.59816502 110.38273066
4048.00 -281.84374099 110.53228901
4050.00 -282.08937512 110.68196374
4052.00 -282.33506736 110.83175485
4054.00 -282.58081763 110.98166236
4056.00 -282.82662587 111.13168627
4058.00 -283.07249200 111.28182658
4060.00 -283.31841595 111.43208331
4062.00 -283.56439765 111.58245646
4064.00 -283.81043704 111.73294603
4066.00 -284.05653405 111.88355203
4068.00 -284.30268861 112.03427448
4070.00 -284.54890064 112.18511336
4072.00 -284.79517009 112.33606870
4074.00 -285.04149687 112.48714049
4076.00 -285.28788093 112.63832874
4078.00 -285.53432218 112.78963347
4080.00 -285.78082057 112.94105466
4082.00 -286.02737602 113.09259234
4084.00 -286.27398847 113.24424650
4086.00 -286.52065785 113.39601715
4088.00 -286.76738408 113.54790430
4090.00 -287.01416709 113.69990795
4092.00 -287.26100683 113.85202811
4094.00 -287.50790322 114.00426478
4096.00 -287.75485618 114.15661798
4098.00 -288.00186566 114.30908769
4100.00 -288.24893159 114.46167394
4102.00 -288.49605388 114.61437672
4104.00 -288.74323248 114.76719604
4106.00 -288.99046732 114.92013191
4108.00 -289.23775833 115.07318433
4110.00 -289.48510543 115.22635330
4112.00 -289.73250856 115.37963884
4114.00 -289.97996766 115.53304094
4116.00 -290.22748265 115.68655962
4118.00 -290.47505345 115.84019487
4120.00 -290.72268002 115.99394670
4122.00 -290.97036227 116.14781512
4124.00 -291.21810014 116.30180013
4126.00 -291.46589355 116.45590173
4128.00 -291.71374245 116.61011994
4130.00 -291.96164675 116.76445475
4132.00 -292.20960640 116.91890617
4134.00 -292.45762132 117.07347421
4136.00 -292.70569145 117.22815886
4138.00 -292.95381671 117.38296014
4140.00 -293.20199704 117.53787804
4142.00 -293.45023237 117.69291258
4144.00 -293.69852263 117.84806376
4146.00 -293.94686775 118.00333157
4148.00 -294.19526766 118.15871603
4150.00 -294.44372230 118.31421714
4152.00 -294.69223159 118.46983491
4154.00 -294.94079547 118.62556933
4156.00 -295.18941388 118.78142042
4158.00 -295.43808673 118.93738817
4160.00 -295.68681396 119.09347259
4162.00 -295.93559551 119.24967368
4164.00 -296.18443130 119.40599145
4166.00 -296.43332127 119.56242591
4168.00 -296.68226535 119.71897705
4170.00 -296.93126346 119.87564488
4172.00 -297.18031555 120.03242940
4174.00 -297.42942154 120.18933062
4176.00 -297.67858137 120.34634854
4178.00 -297.92779496 120.50348316
4180.00 -298.17706225 120.66073449
4182.00 -298.42638317 120.81810253
4184.00 -298.67575766 120.97558729
4186.00 -298.92518563 121.13318877
4188.00 -299.17466703 121.29090696
4190.00 -299.42420179 121.44874188
4192.00 -299.67378984 121.60669353
4194.00 -299.92343110 121.76476191
4196.00 -300.17312552 121.92294702
4198.00 -300.42287302 122.08124887
4200.00 -300.67267354 122.23966746
4202.00 -300.92252700 122.39820279
4204.00 -301.17243335 122.55685487
4206.00 -301.42239250 122.71562370
4208.00 -301.67240440 122.87450928
4210.00 -301.92246898 123.03351162
4212.00 -302.17258616 123.19263071
4214.00 -302.42275588 123.35186657
4216.00 -302.67297807 123.51121918
4218.00 -302.92325266 123.67068857
4220.00 -303.17357959 123.83027472
4222.00 -303.42395879 123.98997764
4224.00 -303.67439018 124.14979734
4226.00 -303.92487371 124.30973382
4228.00 -304.17540930 124.46978707
4230.00 -304.42599688 124.62995710
4232.00 -304.67663639 124.79024392
4234.00 -304.92732776 124.95064752
4236.00 -305.17807093 125.11116791
4238.00 -305.42886581 125.27180509
4240.00 -305.67971235 125.43255906
4242.00 -305.93061048 125.59342983
4244.00 -306.18156013 125.75441739
4246.00 -306.43256123 125.91552175
4248.00 -306.68361372 126.07674292
4250.00 -306.93471752 126.23808088
4252.00 -307.18587258 126.39953565
4254.00 -307.43707881 126.56110723
4256.00 -307.68833616 126.72279561
4258.00 -307.93964455 126.88460080
4260.00 -308.19100392 127.04652281
4262.00 -308.44241421 127.20856163
4264.00 -308.69387533 127.37071726
4266.00 -308.94538723 127.53298971
4268.00 -309.19694984 127.69537898
4270.00 -309.44856309 127.85788506
4272.00 -309.70022691 128.02050797
4274.00 -309.95194124 128.18324770
4276.00 -310.20370600 128.34610425
4278.00 -310.45552113 128.50907763
4280.00 -310.70738657 128.67216784
4282.00 -310.95930224 128.83537487
4284.00 -311.21126808 128.99869873
4286.00 -311.46328402 129.16213942
4288.00 -311.71534999 129.32569694
4290.00 -311.96746593 129.48937129
4292.00 -312.21963176 129.65316248
4294.00 -312.47184743 129.81707050
4296.00 -312.72411286 129.98109536
4298.00 -312.97642798 130.14523705
4300.00 -313.22879273 130.30949557
4302.00 -313.48120705 130.47387094
4304.00 -313.73367085 130.63836314
4306.00 -313.98618409 130.80297218
4308.00 -314.23874668 130.96769806
4310.00 -314.49135857 131.13254079
4312.00 -314.74401968 131.29750035
4314.00 -314.99672994 131.46257675
4316.00 -315.24948930 131.62776999
4318.00 -315.50229768 131.79308008
4320.00 -315.75515502 131.95850701
4322.00 -316.00806125 132.12405078
4324.00 -316.26101629 132.28971139
4326.00 -316.51402010 132.45548885
4328.00 -316.76707259 132.62138315
4330.00 -317.02017370 132.78739429
4332.00 -317.27332336 132.95352228
4334.00 -317.52652152 133.11976711
4336.00 -317.77976809 133.28612879
4338.00 -318.03306301 133.45260731
4340.00 -318.28640622 133.61920267
4342.00 -318.53979765 133.78591488
4344.00 -318.79323723 133.95274393
4346.00 -319.04672489 134.11968983
4348.00 -319.30026057 134.28675256
4350.00 -319.55384421 134.45393214
4352.00 -319.80747572 134.62122857
4354.00 -320.06115506 134.78864183
4356.00 -320.31488214 134.95617194
4358.00 -320.56865691 135.12381889
4360.00 -320.82247930 135.29158268
4362.00 -321.07634923 135.45946331
4364.00 -321.33026665 135.62746078
4366.00 -321.58423149 135.79557508
4368.00 -321.83824367 135.96380623
4370.00 -322.09230314 136.13215422
4372.00 -322.34640983 136.30061904
4374.00 -322.60056366 136.46920070
4376.00 -322.85476458 136.63789919
4378.00 -323.10901252 136.80671452
4380.00 -323.36330740 136.97564668
4382.00 -323.61764917 137.14469568
4384.00 -323.87203775 137.31386150
4386.00 -324.12647309 137.48314416
4388.00 -324.38095511 137.65254365
4390.00 -324.63548375 137.82205996
4392.00 -324.89005893 137.99169310
4394.00 -325.14468060 138.16144307
4396.00 -325.39934869 138.33130986
4398.00 -325.65406313 138.50129348
4400.00 -325.90882386 138.67139392
4402.00 -326.16363081 138.84161118
4404.00 -326.41848390 139.01194526
4406.00 -326.67338308 139.18239615
4408.00 -326.92832829 139.35296387
4410.00 -327.18331944 139.52364839
4412.00 -327.43835648 139.69444973
4414.00 -327.69343935 139.86536789
4416.00 -327.94856797 140.03640285
4418.00 -328.20374227 140.20755462
4420.00 -328.45896220 140.37882319
4422.00 -328.71422768 140.55020857
4424.00 -328.96953865 140.72171076
4426.00 -329.22489505 140.89332974
4428.00 -329.48029680 141.06506552
4430.00 -329.73574385 141.23691810
4432.00 -329.99123612 141.40888748
4434.00 -330.24677355 141.58097364
4436.00 -330.50235607 141.75317660
4438.00 -330.75798361 141.92549634
4440.00 -331.01365612 142.09793288
4442.00 -331.26937353 142.27048619
4444.00 -331.52513576 142.44315629
4446.00 -331.78094275 142.61594317
4448.00 -332.03679445 142.78884682
4450.00 -332.29269077 142.96186725
4452.00 -332.54863166 143.13500445
4454.00 -332.80461704 143.30825842
4456.00 -333.06064686 143.48162915
4458.00 -333.31672105 143.65511666
4460.00 -333.57283954 143.82872092
4462.00 -333.82900226 144.00244194
4464.00 -334.08520916 144.17627972
4466.00 -334.34146016 144.35023425
4468.00 -334.59775520 144.52430554
4470.00 -334.85409421 144.69849357
4472.00 -335.11047712 144.87279835
4474.00 -335.36690388 145.04721987
4476.00 -335.62337441 145.22175812
4478.00 -335.87988866 145.39641312
4480.00 -336.13644655 145.57118485
4482.00 -336.39304801 145.74607331
4484.00 -336.64969299 145.92107849
4486.00 -336.90638142 146.09620040
4488.00 -337.16311323 146.27143904
4490.00 -337.41988836 146.44679438
4492.00 -337.67670673 146.62226645
4494.00 -337.93356830 146.79785522
4496.00 -338.19047298 146.97356070
4498.00 -338.44742072 147.14938289
4500.00 -338.70441144 147.32532178
4502.00 -338.96144509 147.50137736
4504.00 -339.21852160 147.67754964
4506.00 -339.47564090 147.85383861
4508.00 -339.73280293 148.03024426
4510.00 -339.99000762 148.20676660
4512.00 -340.24725491 148.38340562
4514.00 -340.50454473 148.56016131
4516.00 -340.76187702 148.73703367
4518.00 -341.01925171 148.91402270
4520.00 -341.27666873 149.09112840
4522.00 -341.53412802 149.26835075
4524.00 -341.79162952 149.44568977
4526.00 -342.04917316 149.62314543
4528.00 -342.30675888 149.80071774
4530.00 -342.56438661 149.97840670
4532.00 -342.82205628 150.15621229
4534.00 -343.07976783 150.33413453
4536.00 -343.33752119 150.51217339
4538.00 -343.59531631 150.69032888
4540.00 -343.85315311 150.86860099
4542.00 -344.11103153 151.04698973
4544.00 -344.36895150 151.22549507
4546.00 -344.62691297 151.40411703
4548.00 -344.88491586 151.58285560
4550.00 -345.14296011 151.76171076
4552.00 -345.40104566 151.94068252
4554.00 -345.65917243 152.11977087
4556.00 -345.91734037 152.29897581
4558.00 -346.17554941 152.47829734
4560.00 -346.43379949 152.65773544
4562.00 -346.69209054 152.83729012
4564.00 -346.95042250 153.01696136
4566.00 -347.20879529 153.19674917
4568.00 -347.46720887 153.37665353
4570.00 -347.72566315 153.55667446
4572.00 -347.98415808 153.73681193
4574.00 -348.24269360 153.91706594
4576.00 -348.50126963 154.09743650
4578.00 -348.75988612 154.27792358
4580.00 -349.01854300 154.45852720
4582.00 -349.27724020 154.63924734
4584.00 -349.53597766 154.82008401
4586.00 -349.79475532 155.00103718
4588.00 -350.05357310 155.18210686
4590.00 -350.31243096 155.36329305
4592.00 -350.57132881 155.54459573
4594.00 -350.83026660 155.72601491
4596.00 -351.08924427 155.90755058
4598.00 -351.34826174 156.08920272
4600.00 -351.60731896 156.27097135
4602.00 -351.86641586 156.45285644
4604.00 -352.12555237 156.63485800
4606.00 -352.38472844 156.81697602
4608.00 -352.64394399 156.99921049
4610.00 -352.90319896 157.18156141
4612.00 -353.16249330 157.36402877
4614.00 -353.42182692 157.54661257
4616.00 -353.68119978 157.72931280
4618.00 -353.94061180 157.91212946
4620.00 -354.20006293 158.09506254
4622.00 -354.45955309 158.27811202
4624.00 -354.71908222 158.46127792
4626.00 -354.97865027 158.64456022
4628.00 -355.23825715 158.82795891
4630.00 -355.49790283 159.01147400
4632.00 -355.75758721 159.19510546
4634.00 -356.01731025 159.37885331
4636.00 -356.27707188 159.56271752
4638.00 -356.53687204 159.74669810
4640.00 -356.79671065 159.93079504
4642.00 -357.05658767 160.11500833
4644.00 -357.31650301 160.29933797
4646.00 -357.57645663 160.48378394
4648.00 -357.83644845 160.66834625
4650.00 -358.09647841 160.85302489
4652.00 -358.35654646 161.03781984
4654.00 -358.61665251 161.22273111
4656.00 -358.87679652 161.40775869
4658.00 -359.13697841 161.59290256
4660.00 -359.39719813 161.77816273
4662.00 -359.65745560 161.96353919
4664.00 -359.91775077 162.14903193
4666.00 -360.17808358 162.33464094
4668.00 -360.43845395 162.52036622
4670.00 -360.69886182 162.70620776
4672.00 -360.95930714 162.89216555
4674.00 -361.21978984 163.07823958
4676.00 -361.48030984 163.26442986
4678.00 -361.74086710 163.45073637
4680.00 -362.00146155 163.63715910
4682.00 -362.26209312 163.82369805
4684.00 -362.52276175 164.01035321
4686.00 -362.78346738 164.19712458
4688.00 -363.04420994 164.38401214
4690.00 -363.30498937 164.57101589
4692.00 -363.56580560 164.75813583
4694.00 -363.82665858 164.94537194
4696.00 -364.08754824 165.13272421
4698.00 -364.34847452 165.32019265
4700.00 -364.60943735 165.50777724
4702.00 -364.87043667 165.69547797
4704.00 -365.13147241 165.88329484
4706.00 -365.39254452 166.07122785
4708.00 -365.65365293 166.25927697
4710.00 -365.91479758 166.44744221
4712.00 -366.17597841 166.63572356
4714.00 -366.43719534 166.82412100
4716.00 -366.69844832 167.01263454
4718.00 -366.95973729 167.20126416
4720.00 -367.22106217 167.39000986
4722.00 -367.48242292 167.57887163
4724.00 -367.74381946 167.76784945
4726.00 -368.00525174 167.95694333
4728.00 -368.26671969 168.14615326
4730.00 -368.52822324 168.33547922
4732.00 -368.78976234 168.52492121
4734.00 -369.05133692 168.71447922
4736.00 -369.31294691 168.90415324
4738.00 -369.57459226 169.09394327
4740.00 -369.83627291 169.28384930
4742.00 -370.09798879 169.47387131
4744.00 -370.35973983 169.66400930
4746.00 -370.62152598 169.85426326
4748.00 -370.88334716 170.04463319
4750.00 -371.14520333 170.23511907
4752.00 -371.40709442 170.42572090
4754.00 -371.66902035 170.61643866
4756.00 -371.93098108 170.80727236
4758.00 -372.19297654 170.99822197
4760.00 -372.45500667 171.18928750
4762.00 -372.71707139 171.38046894
4764.00 -372.97917066 171.57176626
4766.00 -373.24130441 171.76317948
4768.00 -373.50347257 171.95470857
4770.00 -373.76567509 172.14635353
4772.00 -374.02791190 172.33811435
4774.00 -374.29018293 172.52999102
4776.00 -374.55248813 172.72198354
4778.00 -374.81482744 172.91409189
4780.00 -375.07720079 173.10631606
4782.00 -375.33960811 173.29865605
4784.00 -375.60204936 173.49111185
4786.00 -375.86452446 173.68368344
4788.00 -376.12703335 173.87637082
4790.00 -376.38957597 174.06917399
4792.00 -376.65215226 174.26209292
4794.00 -376.91476215 174.45512762
4796.00 -377.17740559 174.64827806
4798.00 -377.44008251 174.84154425
4800.00 -377.70279285 175.03492618
4802.00 -377.96553655 175.22842382
4804.00 -378.22831354 175.42203719
4806.00 -378.49112377 175.61576625
4808.00 -378.75396717 175.80961102
4810.00 -379.01684367 176.00357147
4812.00 -379.27975323 176.19764760
4814.00 -379.54269576 176.39183939
4816.00 -379.80567123 176.58614685
4818.00 -380.06867955 176.78056995
4820.00 -380.33172068 176.97510869
4822.00 -380.59479454 177.16976306
4824.00 -380.85790108 177.36453305
4826.00 -381.12104023 177.55941865
4828.00 -381.38421193 177.75441985
4830.00 -381.64741613 177.94953663
4832.00 -381.91065276 178.14476900
4834.00 -382.17392175 178.34011694
4836.00 -382.43722305 178.53558044
4838.00 -382.70055659 178.73115949
4840.00 -382.96392231 178.92685408
4842.00 -383.22732016 179.12266420
4844.00 -383.49075006 179.31858984
4846.00 -383.75421197 179.51463099
4848.00 -384.01770581 179.71078764
4850.00 -384.28123152 179.90705978
4852.00 -384.54478905 180.10344739
4854.00 -384.80837832 180.29995048
4856.00 -385.07199929 180.49656903
4858.00 -385.33565189 180.69330302
4860.00 -385.59933606 180.89015246
4862.00 -385.86305173 181.08711732
4864.00 -386.12679885 181.28419759
4866.00 -386.39057735 181.48139328
4868.00 -386.65438717 181.67870436
4870.00 -386.91822825 181.87613083
4872.00 -387.18210054 182.07367267
4874.00 -387.44600396 182.27132988
4876.00 -387.70993846 182.46910244
4878.00 -387.97390398 182.66699034
4880.00 -388.23790045 182.86499358
4882.00 -388.50192782 183.06311213
4884.00 -388.76598601 183.26134600
4886.00 -389.03007498 183.45969517
4888.00 -389.29419467 183.65815963
4890.00 -389.55834500 183.85673937
4892.00 -389.82252592 184.05543437
4894.00 -390.08673737 184.25424463
4896.00 -390.35097928 184.45317014
4898.00 -390.61525160 184.65221088
4900.00 -390.87955427 184.85136684
4902.00 -391.14388722 185.05063801
4904.00 -391.40825040 185.25002439
4906.00 -391.67264373 185.44952596
4908.00 -391.93706717 185.64914270
4910.00 -392.20152065 185.84887462
4912.00 -392.46600411 186.04872168
4914.00 -392.73051749 186.24868390
4916.00 -392.99506073 186.44876125
4918.00 -393.25963377 186.64895371
4920.00 -393.52423655 186.84926129
4922.00 -393.78886900 187.04968397
4924.00 -394.05353107 187.25022174
4926.00 -394.31822270 187.45087458
4928.00 -394.58294382 187.65164249
4930.00 -394.84769437 187.85252545
4932.00 -395.11247430 188.05352345
4934.00 -395.37728355 188.25463648
4936.00 -395.64212205 188.45586453
4938.00 -395.90698974 188.65720759
4940.00 -396.17188656 188.85866564
4942.00 -396.43681246 189.06023867
4944.00 -396.70176737 189.26192668
4946.00 -396.96675123 189.46372964
4948.00 -397.23176398 189.66564755
4950.00 -397.49680556 189.86768039
4952.00 -397.76187592 190.06982816
4954.00 -398.02697498 190.27209084
4956.00 -398.29210270 190.47446842
4958.00 -398.55725900 190.67696089
4960.00 -398.82244384 190.87956823
4962.00 -399.08765714 191.08229043
4964.00 -399.35289886 191.28512748
4966.00 -399.61816893 191.48807938
4968.00 -399.88346728 191.69114610
4970.00 -400.14879387 191.89432763
4972.00 -400.41414863 192.09762396
4974.00 -400.67953149 192.30103509
4976.00 -400.94494241 192.50456099
4978.00 -401.21038132 192.70820165
4980.00 -401.47584816 192.91195707
4982.00 -401.74134286 193.11582723
4984.00 -402.00686538 193.31981211
4986.00 -402.27241565 193.52391171
4988.00 -402.53799361 193.72812601
4990.00 -402.80359921 193.93245500
4992.00 -403.06923237 194.13689866
4994.00 -403.33489305 194.34145699
4996.00 -403.60058118 194.54612997
4998.00 -403.86629670 194.75091759
5000.00 -404.13203955 194.95581984
