wavelength(nm)         real         imag
100.00   3.86948519   0.00029160
102.00   3.86825250   0.00030944
104.00   3.86699542   0.00032800
106.00   3.86571394   0.00034729
108.00   3.86440806   0.00036732
110.00   3.86307778   0.00038811
112.00   3.86172311   0.00040966
114.00   3.86034403   0.00043200
116.00   3.85894056   0.00045514
118.00   3.85751269   0.00047909
120.00   3.85606043   0.00050386
122.00   3.85458378   0.00052947
124.00   3.85308272   0.00055594
126.00   3.85155728   0.00058327
128.00   3.85000744   0.00061149
130.00   3.84843321   0.00064060
132.00   3.84683459   0.00067062
134.00   3.84521158   0.00070156
136.00   3.84356418   0.00073344
138.00   3.84189239   0.00076627
140.00   3.84019621   0.00080007
142.00   3.83847564   0.00083485
144.00   3.83673068   0.00087062
146.00   3.83496134   0.00090739
148.00   3.83316761   0.00094519
150.00   3.83134950   0.00098403
152.00   3.82950701   0.00102391
154.00   3.82764013   0.00106485
156.00   3.82574887   0.00110688
158.00   3.82383322   0.00114999
160.00   3.82189320   0.00119421
162.00   3.81992880   0.00123955
164.00   3.81794001   0.00128602
166.00   3.81592685   0.00133364
168.00   3.81388932   0.00138241
170.00   3.81182740   0.00143237
172.00   3.80974111   0.00148351
174.00   3.80763045   0.00153585
176.00   3.80549541   0.00158942
178.00   3.80333600   0.00164421
180.00   3.80115222   0.00170024
182.00   3.79894406   0.00175754
184.00   3.79671154   0.00181611
186.00   3.79445465   0.00187596
188.00   3.79217339   0.00193712
190.00   3.78986776   0.00199959
192.00   3.78753777   0.00206338
194.00   3.78518342   0.00212852
196.00   3.78280469   0.00219502
198.00   3.78040161   0.00226288
200.00   3.77797417   0.00233214
202.00   3.77552236   0.00240278
204.00   3.77304620   0.00247484
206.00   3.77054567   0.00254833
208.00   3.76802079   0.00262326
210.00   3.76547155   0.00269964
212.00   3.76289796   0.00277748
214.00   3.76030001   0.00285681
216.00   3.75767771   0.00293764
218.00   3.75503106   0.00301998
220.00   3.75236006   0.00310383
222.00   3.74966471   0.00318923
224.00   3.74694501   0.00327618
226.00   3.74420097   0.00336469
228.00   3.74143257   0.00345478
230.00   3.73863984   0.00354647
232.00   3.73582276   0.00363976
234.00   3.73298133   0.00373467
236.00   3.73011557   0.00383122
238.00   3.72722547   0.00392942
240.00   3.72431103   0.00402928
242.00   3.72137225   0.00413082
244.00   3.71840913   0.00423405
246.00   3.71542168   0.00433898
248.00   3.71240990   0.00444563
250.00   3.70937379   0.00455402
252.00   3.70631334   0.00466415
254.00   3.70322857   0.00477604
256.00   3.70011947   0.00488970
258.00   3.69698604   0.00500516
260.00   3.69382828   0.00512241
262.00   3.69064621   0.00524148
264.00   3.68743981   0.00536238
266.00   3.68420909   0.00548513
268.00   3.68095405   0.00560973
270.00   3.67767469   0.00573620
272.00   3.67437101   0.00586456
274.00   3.67104302   0.00599482
276.00   3.66769072   0.00612700
278.00   3.66431410   0.00626110
280.00   3.66091317   0.00639714
282.00   3.65748793   0.00653513
284.00   3.65403839   0.00667510
286.00   3.65056454   0.00681705
288.00   3.64706638   0.00696099
290.00   3.64354392   0.00710694
292.00   3.63999716   0.00725492
294.00   3.63642610   0.00740494
296.00   3.63283074   0.00755701
298.00   3.62921108   0.00771115
300.00   3.62556713   0.00786737
302.00   3.62189888   0.00802568
304.00   3.61820634   0.00818609
306.00   3.61448951   0.00834863
308.00   3.61074839   0.00851331
310.00   3.60698299   0.00868013
312.00   3.60319329   0.00884912
314.00   3.59937932   0.00902029
316.00   3.59554106   0.00919365
318.00   3.59167852   0.00936921
320.00   3.58779170   0.00954699
322.00   3.58388060   0.00972700
324.00   3.57994523   0.00990926
326.00   3.57598559   0.01009378
328.00   3.57200167   0.01028058
330.00   3.56799348   0.01046966
332.00   3.56396102   0.01066104
334.00   3.55990430   0.01085474
336.00   3.55582331   0.01105077
338.00   3.55171805   0.01124915
340.00   3.54758854   0.01144988
342.00   3.54343476   0.01165298
344.00   3.53925673   0.01185847
346.00   3.53505444   0.01206636
348.00   3.53082790   0.01227666
350.00   3.52657710   0.01248938
352.00   3.52230205   0.01270455
354.00   3.51800276   0.01292217
356.00   3.51367922   0.01314226
358.00   3.50933143   0.01336483
360.00   3.50495940   0.01358990
362.00   3.50056313   0.01381747
364.00   3.49614261   0.01404757
366.00   3.49169787   0.01428021
368.00   3.48722888   0.01451540
370.00   3.48273566   0.01475316
372.00   3.47821822   0.01499349
374.00   3.47367654   0.01523641
376.00   3.46911063   0.01548195
378.00   3.46452050   0.01573010
380.00   3.45990614   0.01598089
382.00   3.45526757   0.01623432
384.00   3.45060477   0.01649042
386.00   3.44591776   0.01674919
388.00   3.44120653   0.01701065
390.00   3.43647108   0.01727481
392.00   3.43171143   0.01754170
394.00   3.42692757   0.01781131
396.00   3.42211950   0.01808366
398.00   3.41728722   0.01835878
400.00   3.41243074   0.01863667
402.00   3.40755006   0.01891734
404.00   3.40264518   0.01920081
406.00   3.39771611   0.01948710
408.00   3.39276284   0.01977621
410.00   3.38778538   0.02006817
412.00   3.38278373   0.02036298
414.00   3.37775789   0.02066066
416.00   3.37270786   0.02096122
418.00   3.36763365   0.02126468
420.00   3.36253526   0.02157105
422.00   3.35741270   0.02188034
424.00   3.35226595   0.02219257
426.00   3.34709503   0.02250775
428.00   3.34189994   0.02282589
430.00   3.33668067   0.02314702
432.00   3.33143724   0.02347113
434.00   3.32616965   0.02379826
436.00   3.32087789   0.02412840
438.00   3.31556197   0.02446158
440.00   3.31022189   0.02479781
442.00   3.30485765   0.02513709
444.00   3.29946926   0.02547946
446.00   3.29405672   0.02582491
448.00   3.28862003   0.02617346
450.00   3.28315920   0.02652513
452.00   3.27767422   0.02687993
454.00   3.27216509   0.02723788
456.00   3.26663183   0.02759898
458.00   3.26107443   0.02796325
460.00   3.25549290   0.02833071
462.00   3.24988723   0.02870137
464.00   3.24425743   0.02907524
466.00   3.23860351   0.02945234
468.00   3.23292546   0.02983267
470.00   3.22722329   0.03021626
472.00   3.22149699   0.03060312
474.00   3.21574658   0.03099326
476.00   3.20997206   0.03138669
478.00   3.20417342   0.03178344
480.00   3.19835067   0.03218350
482.00   3.19250382   0.03258690
484.00   3.18663286   0.03299365
486.00   3.18073779   0.03340377
488.00   3.17481863   0.03381726
490.00   3.16887537   0.03423414
492.00   3.16290802   0.03465443
494.00   3.15691657   0.03507813
496.00   3.15090104   0.03550527
498.00   3.14486141   0.03593585
500.00   3.13879771   0.03636989
502.00   3.13270992   0.03680741
504.00   3.12659805   0.03724841
506.00   3.12046211   0.03769291
508.00   3.11430209   0.03814093
510.00   3.10811800   0.03859247
512.00   3.10190985   0.03904756
514.00   3.09567762   0.03950620
516.00   3.08942134   0.03996840
518.00   3.08314099   0.04043419
520.00   3.07683659   0.04090358
522.00   3.07050813   0.04137658
524.00   3.06415563   0.04185320
526.00   3.05777907   0.04233345
528.00   3.05137846   0.04281736
530.00   3.04495382   0.04330493
532.00   3.03850513   0.04379618
534.00   3.03203240   0.04429112
536.00   3.02553564   0.04478977
538.00   3.01901485   0.04529214
540.00   3.01247002   0.04579823
542.00   3.00590117   0.04630808
544.00   2.99930830   0.04682168
546.00   2.99269141   0.04733906
548.00   2.98605049   0.04786022
550.00   2.97938557   0.04838518
552.00   2.97269663   0.04891396
554.00   2.96598368   0.04944657
556.00   2.95924672   0.04998302
558.00   2.95248576   0.05052332
560.00   2.94570080   0.05106749
562.00   2.93889185   0.05161554
564.00   2.93205890   0.05216749
566.00   2.92520195   0.05272335
568.00   2.91832102   0.05328313
570.00   2.91141610   0.05384685
572.00   2.90448720   0.05441452
574.00   2.89753432   0.05498615
576.00   2.89055747   0.05556176
578.00   2.88355664   0.05614136
580.00   2.87653183   0.05672497
582.00   2.86948307   0.05731259
584.00   2.86241033   0.05790425
586.00   2.85531364   0.05849995
588.00   2.84819299   0.05909971
590.00   2.84104838   0.05970354
592.00   2.83387982   0.06031145
594.00   2.82668731   0.06092347
596.00   2.81947085   0.06153960
598.00   2.81223046   0.06215986
600.00   2.80496612   0.06278425
602.00   2.79767785   0.06341280
604.00   2.79036564   0.06404552
606.00   2.78302950   0.06468242
608.00   2.77566944   0.06532351
610.00   2.76828545   0.06596881
612.00   2.76087754   0.06661833
614.00   2.75344572   0.06727209
616.00   2.74598998   0.06793010
618.00   2.73851032   0.06859236
620.00   2.73100677   0.06925890
622.00   2.72347930   0.06992974
624.00   2.71592794   0.07060487
626.00   2.70835268   0.07128432
628.00   2.70075352   0.07196810
630.00   2.69313047   0.07265622
632.00   2.68548354   0.07334870
634.00   2.67781272   0.07404555
636.00   2.67011802   0.07474678
638.00   2.66239944   0.07545241
640.00   2.65465698   0.07616245
642.00   2.64689066   0.07687691
644.00   2.63910046   0.07759581
646.00   2.63128641   0.07831916
648.00   2.62344849   0.07904698
650.00   2.61558671   0.07977927
652.00   2.60770108   0.08051606
654.00   2.59979160   0.08125735
656.00   2.59185827   0.08200316
658.00   2.58390109   0.08275350
660.00   2.57592008   0.08350838
662.00   2.56791523   0.08426783
664.00   2.55988654   0.08503184
666.00   2.55183403   0.08580044
668.00   2.54375769   0.08657364
670.00   2.53565752   0.08735145
672.00   2.52753354   0.08813389
674.00   2.51938574   0.08892097
676.00   2.51121412   0.08971270
678.00   2.50301870   0.09050909
680.00   2.49479947   0.09131017
682.00   2.48655644   0.09211594
684.00   2.47828961   0.09292641
686.00   2.46999899   0.09374161
688.00   2.46168457   0.09456153
690.00   2.45334637   0.09538621
692.00   2.44498438   0.09621564
694.00   2.43659861   0.09704985
696.00   2.42818907   0.09788884
698.00   2.41975575   0.09873264
700.00   2.41129866   0.09958125
702.00   2.40281781   0.10043468
704.00   2.39431320   0.10129295
706.00   2.38578482   0.10215608
708.00   2.37723269   0.10302408
710.00   2.36865681   0.10389695
712.00   2.36005719   0.10477472
714.00   2.35143381   0.10565740
716.00   2.34278670   0.10654500
718.00   2.33411586   0.10743753
720.00   2.32542128   0.10833501
722.00   2.31670297   0.10923744
724.00   2.30796093   0.11014486
726.00   2.29919518   0.11105726
728.00   2.29040571   0.11197466
730.00   2.28159252   0.11289707
732.00   2.27275562   0.11382451
734.00   2.26389502   0.11475699
736.00   2.25501072   0.11569453
738.00   2.24610271   0.11663713
740.00   2.23717102   0.11758481
742.00   2.22821563   0.11853759
744.00   2.21923655   0.11949548
746.00   2.21023380   0.12045848
748.00   2.20120736   0.12142662
750.00   2.19215725   0.12239990
752.00   2.18308347   0.12337835
754.00   2.17398601   0.12436197
756.00   2.16486490   0.12535078
758.00   2.15572013   0.12634478
760.00   2.14655170   0.12734400
762.00   2.13735962   0.12834845
764.00   2.12814389   0.12935813
766.00   2.11890452   0.13037307
768.00   2.10964151   0.13139328
770.00   2.10035486   0.13241877
772.00   2.09104458   0.13344955
774.00   2.08171068   0.13448563
776.00   2.07235315   0.13552704
778.00   2.06297200   0.13657377
780.00   2.05356723   0.13762586
782.00   2.04413886   0.13868330
784.00   2.03468687   0.13974611
786.00   2.02521129   0.14081432
788.00   2.01571210   0.14188792
790.00   2.00618932   0.14296693
792.00   1.99664295   0.14405137
794.00   1.98707299   0.14514124
796.00   1.97747945   0.14623657
798.00   1.96786233   0.14733736
800.00   1.95822163   0.14844363
802.00   1.94855737   0.14955540
804.00   1.93886953   0.15067266
806.00   1.92915814   0.15179545
808.00   1.91942319   0.15292377
810.00   1.90966468   0.15405763
812.00   1.89988263   0.15519704
814.00   1.89007703   0.15634203
816.00   1.88024789   0.15749260
818.00   1.87039521   0.15864877
820.00   1.86051900   0.15981055
822.00   1.85061926   0.16097795
824.00   1.84069600   0.16215099
826.00   1.83074922   0.16332968
828.00   1.82077892   0.16451403
830.00   1.81078511   0.16570406
832.00   1.80076779   0.16689977
834.00   1.79072697   0.16810119
836.00   1.78066266   0.16930832
838.00   1.77057485   0.17052118
840.00   1.76046355   0.17173978
842.00   1.75032876   0.17296414
844.00   1.74017049   0.17419426
846.00   1.72998875   0.17543017
848.00   1.71978353   0.17667187
850.00   1.70955485   0.17791937
852.00   1.69930270   0.17917270
854.00   1.68902710   0.18043186
856.00   1.67872804   0.18169686
858.00   1.66840553   0.18296773
860.00   1.65805957   0.18424447
862.00   1.64769018   0.18552709
864.00   1.63729734   0.18681561
866.00   1.62688107   0.18811004
868.00   1.61644138   0.18941040
870.00   1.60597826   0.19071670
872.00   1.59549173   0.19202894
874.00   1.58498178   0.19334715
876.00   1.57444841   0.19467134
878.00   1.56389165   0.19600152
880.00   1.55331148   0.19733770
882.00   1.54270792   0.19867989
884.00   1.53208096   0.20002812
886.00   1.52143062   0.20138238
888.00   1.51075690   0.20274271
890.00   1.50005979   0.20410910
892.00   1.48933932   0.20548157
894.00   1.47859547   0.20686013
896.00   1.46782826   0.20824481
898.00   1.45703769   0.20963560
900.00   1.44622377   0.21103253
902.00   1.43538649   0.21243560
904.00   1.42452587   0.21384483
906.00   1.41364191   0.21526023
908.00   1.40273461   0.21668182
910.00   1.39180398   0.21810961
912.00   1.38085003   0.21954361
914.00   1.36987275   0.22098383
916.00   1.35887215   0.22243029
918.00   1.34784824   0.22388300
920.00   1.33680103   0.22534197
922.00   1.32573050   0.22680721
924.00   1.31463668   0.22827875
926.00   1.30351957   0.22975659
928.00   1.29237917   0.23124074
930.00   1.28121548   0.23273122
932.00   1.27002851   0.23422804
934.00   1.25881827   0.23573121
936.00   1.24758476   0.23724075
938.00   1.23632798   0.23875667
940.00   1.22504794   0.24027899
942.00   1.21374465   0.24180770
944.00   1.20241811   0.24334284
946.00   1.19106832   0.24488440
948.00   1.17969528   0.24643241
950.00   1.16829902   0.24798688
952.00   1.15687952   0.24954781
954.00   1.14543679   0.25111523
956.00   1.13397085   0.25268914
958.00   1.12248168   0.25426956
960.00   1.11096931   0.25585650
962.00   1.09943372   0.25744998
964.00   1.08787494   0.25905000
966.00   1.07629296   0.26065658
968.00   1.06468779   0.26226974
970.00   1.05305943   0.26388948
972.00   1.04140788   0.26551581
974.00   1.02973316   0.26714876
976.00   1.01803527   0.26878833
978.00   1.00631421   0.27043454
980.00   0.99456999   0.27208740
982.00   0.98280261   0.27374692
984.00   0.97101208   0.27541311
986.00   0.95919841   0.27708599
988.00   0.94736159   0.27876558
990.00   0.93550163   0.28045187
992.00   0.92361854   0.28214489
994.00   0.91171233   0.28384466
996.00   0.89978299   0.28555117
998.00   0.88783054   0.28726445
1000.00   0.87585497   0.28898450
1002.00   0.86385630   0.29071134
1004.00   0.85183453   0.29244499
1006.00   0.83978966   0.29418545
1008.00   0.82772170   0.29593274
1010.00   0.81563065   0.29768687
1012.00   0.80351652   0.29944786
1014.00   0.79137932   0.30121571
1016.00   0.77921905   0.30299044
1018.00   0.76703571   0.30477206
1020.00   0.75482931   0.30656059
1022.00   0.74259986   0.30835604
1024.00   0.73034735   0.31015841
1026.00   0.71807181   0.31196773
1028.00   0.70577322   0.31378400
1030.00   0.69345160   0.31560724
1032.00   0.68110695   0.31743746
1034.00   0.66873927   0.31927468
1036.00   0.65634858   0.32111890
1038.00   0.64393488   0.32297014
1040.00   0.63149817   0.32482841
1042.00   0.61903845   0.32669373
1044.00   0.60655574   0.32856610
1046.00   0.59405004   0.33044554
1048.00   0.58152135   0.33233206
1050.00   0.56896968   0.33422568
1052.00   0.55639503   0.33612641
1054.00   0.54379741   0.33803426
1056.00   0.53117683   0.33994923
1058.00   0.51853329   0.34187136
1060.00   0.50586680   0.34380064
1062.00   0.49317735   0.34573709
1064.00   0.48046496   0.34768073
1066.00   0.46772964   0.34963156
1068.00   0.45497138   0.35158960
1070.00   0.44219019   0.35355486
1072.00   0.42938608   0.35552736
1074.00   0.41655906   0.35750710
1076.00   0.40370912   0.35949410
1078.00   0.39083628   0.36148837
1080.00   0.37794054   0.36348992
1082.00   0.36502190   0.36549877
1084.00   0.35208037   0.36751493
1086.00   0.33911597   0.36953841
1088.00   0.32612868   0.37156923
1090.00   0.31311852   0.37360739
1092.00   0.30008549   0.37565291
1094.00   0.28702960   0.37770580
1096.00   0.27395086   0.37976608
1098.00   0.26084926   0.38183376
1100.00   0.24772482   0.38390884
1102.00   0.23457754   0.38599134
1104.00   0.22140743   0.38808128
1106.00   0.20821449   0.39017867
1108.00   0.19499873   0.39228351
1110.00   0.18176015   0.39439583
1112.00   0.16849875   0.39651563
1114.00   0.15521456   0.39864293
1116.00   0.14190756   0.40077774
1118.00   0.12857777   0.40292006
1120.00   0.11522518   0.40506993
1122.00   0.10184982   0.40722734
1124.00   0.08845168   0.40939230
1126.00   0.07503076   0.41156484
1128.00   0.06158708   0.41374497
1130.00   0.04812064   0.41593269
1132.00   0.03463145   0.41812802
1134.00   0.02111950   0.42033097
1136.00   0.00758481   0.42254155
1138.00  -0.00597261   0.42475978
1140.00  -0.01955277   0.42698567
1142.00  -0.03315565   0.42921923
1144.00  -0.04678126   0.43146047
1146.00  -0.06042957   0.43370941
1148.00  -0.07410060   0.43596606
1150.00  -0.08779433   0.43823042
1152.00  -0.10151076   0.44050252
1154.00  -0.11524988   0.44278237
1156.00  -0.12901168   0.44506997
1158.00  -0.14279617   0.44736535
1160.00  -0.15660333   0.44966850
1162.00  -0.17043316   0.45197945
1164.00  -0.18428565   0.45429821
1166.00  -0.19816079   0.45662478
1168.00  -0.21205859   0.45895919
1170.00  -0.22597903   0.46130144
1172.00  -0.23992211   0.46365155
1174.00  -0.25388782   0.46600953
1176.00  -0.26787616   0.46837538
1178.00  -0.28188713   0.47074914
1180.00  -0.29592070   0.47313079
1182.00  -0.30997689   0.47552037
1184.00  -0.32405568   0.47791787
1186.00  -0.33815707   0.48032332
1188.00  -0.35228105   0.48273672
1190.00  -0.36642761   0.48515809
1192.00  -0.38059676   0.48758744
1194.00  -0.39478847   0.49002478
1196.00  -0.40900276   0.49247012
1198.00  -0.42323961   0.49492348
1200.00  -0.43749901   0.49738487
1202.00  -0.45178096   0.49985430
1204.00  -0.46608546   0.50233178
1206.00  -0.48041249   0.50481732
1208.00  -0.49476206   0.50731095
1210.00  -0.50913415   0.50981266
1212.00  -0.52352876   0.51232248
1214.00  -0.53794589   0.51484040
1216.00  -0.55238552   0.51736646
1218.00  -0.56684765   0.51990065
1220.00  -0.58133228   0.52244300
1222.00  -0.59583940   0.52499350
1224.00  -0.61036900   0.52755218
1226.00  -0.62492107   0.53011905
1228.00  -0.63949562   0.53269412
1230.00  -0.65409263   0.53527740
1232.00  -0.66871210   0.53786890
1234.00  -0.68335403   0.54046864
1236.00  -0.69801840   0.54307662
1238.00  -0.71270521   0.54569287
1240.00  -0.72741445   0.54831739
1242.00  -0.74214612   0.55095019
1244.00  -0.75690022   0.55359129
1246.00  -0.77167672   0.55624069
1248.00  -0.78647564   0.55889842
1250.00  -0.80129696   0.56156448
1252.00  -0.81614068   0.56423889
1254.00  -0.83100679   0.56692165
1256.00  -0.84589528   0.56961278
1258.00  -0.86080615   0.57231229
1260.00  -0.87573939   0.57502020
1262.00  -0.89069499   0.57773651
1264.00  -0.90567296   0.58046123
1266.00  -0.92067328   0.58319439
1268.00  -0.93569594   0.58593599
1270.00  -0.95074095   0.58868604
1272.00  -0.96580829   0.59144456
1274.00  -0.98089795   0.59421155
1276.00  -0.99600994   0.59698703
1278.00  -1.01114424   0.59977102
1280.00  -1.02630085   0.60256352
1282.00  -1.04147977   0.60536454
1284.00  -1.05668098   0.60817411
1286.00  -1.07190448   0.61099222
1288.00  -1.08715026   0.61381889
1290.00  -1.10241832   0.61665414
1292.00  -1.11770865   0.61949797
1294.00  -1.13302124   0.62235040
1296.00  -1.14835609   0.62521144
1298.00  -1.16371319   0.62808110
1300.00  -1.17909254   0.63095940
1302.00  -1.19449413   0.63384634
1304.00  -1.20991794   0.63674193
1306.00  -1.22536398   0.63964620
1308.00  -1.24083224   0.64255915
1310.00  -1.25632272   0.64548079
1312.00  -1.27183540   0.64841113
1314.00  -1.28737028   0.65135020
1316.00  -1.30292735   0.65429799
1318.00  -1.31850661   0.65725452
1320.00  -1.33410804   0.66021981
1322.00  -1.34973166   0.66319386
1324.00  -1.36537743   0.66617668
1326.00  -1.38104537   0.66916830
1328.00  -1.39673546   0.67216871
1330.00  -1.41244770   0.67517794
1332.00  -1.42818209   0.67819599
1334.00  -1.44393860   0.68122288
1336.00  -1.45971724   0.68425861
1338.00  -1.47551800   0.68730320
1340.00  -1.49134088   0.69035667
1342.00  -1.50718587   0.69341902
1344.00  -1.52305295   0.69649026
1346.00  -1.53894213   0.69957041
1348.00  -1.55485340   0.70265948
1350.00  -1.57078675   0.70575748
1352.00  -1.58674218   0.70886442
1354.00  -1.60271967   0.71198032
1356.00  -1.61871922   0.71510518
1358.00  -1.63474083   0.71823902
1360.00  -1.65078449   0.72138185
1362.00  -1.66685019   0.72453367
1364.00  -1.68293792   0.72769452
1366.00  -1.69904768   0.73086438
1368.00  -1.71517946   0.73404329
1370.00  -1.73133326   0.73723124
1372.00  -1.74750906   0.74042825
1374.00  -1.76370686   0.74363434
1376.00  -1.77992666   0.74684950
1378.00  -1.79616845   0.75007376
1380.00  -1.81243222   0.75330713
1382.00  -1.82871796   0.75654962
1384.00  -1.84502566   0.75980124
1386.00  -1.86135533   0.76306200
1388.00  -1.87770696   0.76633191
1390.00  -1.89408052   0.76961099
1392.00  -1.91047603   0.77289925
1394.00  -1.92689347   0.77619669
1396.00  -1.94333284   0.77950333
1398.00  -1.95979413   0.78281919
1400.00  -1.97627733   0.78614427
1402.00  -1.99278244   0.78947859
1404.00  -2.00930944   0.79282215
1406.00  -2.02585834   0.79617497
1408.00  -2.04242912   0.79953706
1410.00  -2.05902178   0.80290843
1412.00  -2.07563632   0.80628910
1414.00  -2.09227271   0.80967907
1416.00  -2.10893097   0.81307836
1418.00  -2.12561107   0.81648698
1420.00  -2.14231302   0.81990493
1422.00  -2.15903681   0.82333224
1424.00  -2.17578242   0.82676891
1426.00  -2.19254986   0.83021495
1428.00  -2.20933912   0.83367038
1430.00  -2.22615018   0.83713521
1432.00  -2.24298305   0.84060945
1434.00  -2.25983771   0.84409311
1436.00  -2.27671416   0.84758620
1438.00  -2.29361239   0.85108874
1440.00  -2.31053240   0.85460073
1442.00  -2.32747417   0.85812218
1444.00  -2.34443770   0.86165312
1446.00  -2.36142299   0.86519354
1448.00  -2.37843002   0.86874347
1450.00  -2.39545879   0.87230291
1452.00  -2.41250929   0.87587187
1454.00  -2.42958152   0.87945037
1456.00  -2.44667547   0.88303842
1458.00  -2.46379112   0.88663603
1460.00  -2.48092848   0.89024320
1462.00  -2.49808754   0.89385996
1464.00  -2.51526829   0.89748631
1466.00  -2.53247071   0.90112227
1468.00  -2.54969482   0.90476784
1470.00  -2.56694059   0.90842304
1472.00  -2.58420802   0.91208788
1474.00  -2.60149711   0.91576236
1476.00  -2.61880785   0.91944651
1478.00  -2.63614022   0.92314034
1480.00  -2.65349423   0.92684385
1482.00  -2.67086986   0.93055705
1484.00  -2.68826711   0.93427996
1486.00  -2.70568597   0.93801259
1488.00  -2.72312643   0.94175495
1490.00  -2.74058850   0.94550705
1492.00  -2.75807215   0.94926890
1494.00  -2.77557738   0.95304052
1496.00  -2.79310419   0.95682191
1498.00  -2.81065256   0.96061309
1500.00  -2.82822250   0.96441407
1502.00  -2.84581399   0.96822486
1504.00  -2.86342702   0.97204547
1506.00  -2.88106160   0.97587591
1508.00  -2.89871770   0.97971619
1510.00  -2.91639533   0.98356633
1512.00  -2.93409448   0.98742633
1514.00  -2.95181514   0.99129621
1516.00  -2.96955730   0.99517598
1518.00  -2.98732095   0.99906565
1520.00  -3.00510609   1.00296523
1522.00  -3.02291271   1.00687473
1524.00  -3.04074081   1.01079417
1526.00  -3.05859037   1.01472355
1528.00  -3.07646139   1.01866289
1530.00  -3.09435386   1.02261219
1532.00  -3.11226777   1.02657147
1534.00  -3.13020312   1.03054074
1536.00  -3.14815990   1.03452002
1538.00  -3.16613811   1.03850930
1540.00  -3.18413772   1.04250861
1542.00  -3.20215874   1.04651795
1544.00  -3.22020116   1.05053734
1546.00  -3.23826498   1.05456679
1548.00  -3.25635018   1.05860630
1550.00  -3.27445675   1.06265589
1552.00  -3.29258470   1.06671557
1554.00  -3.31073400   1.07078536
1556.00  -3.32890466   1.07486525
1558.00  -3.34709667   1.07895527
1560.00  -3.36531002   1.08305543
1562.00  -3.38354470   1.08716573
1564.00  -3.40180071   1.09128619
1566.00  -3.42007804   1.09541681
1568.00  -3.43837667   1.09955762
1570.00  -3.45669661   1.10370861
1572.00  -3.47503784   1.10786981
1574.00  -3.49340036   1.11204122
1576.00  -3.51178416   1.11622285
1578.00  -3.53018923   1.12041472
1580.00  -3.54861556   1.12461684
1582.00  -3.56706316   1.12882921
1584.00  -3.58553200   1.13305185
1586.00  -3.60402209   1.13728476
1588.00  -3.62253341   1.14152797
1590.00  -3.64106595   1.14578148
1592.00  -3.65961972   1.15004530
1594.00  -3.67819470   1.15431944
1596.00  -3.69679088   1.15860392
1598.00  -3.71540826   1.16289874
1600.00  -3.73404683   1.16720392
1602.00  -3.75270658   1.17151946
1604.00  -3.77138750   1.17584538
1606.00  -3.79008959   1.18018170
1608.00  -3.80881284   1.18452841
1610.00  -3.82755724   1.18888553
1612.00  -3.84632278   1.19325307
1614.00  -3.86510946   1.19763105
1616.00  -3.88391727   1.20201947
1618.00  -3.90274620   1.20641834
1620.00  -3.92159623   1.21082768
1622.00  -3.94046738   1.21524750
1624.00  -3.95935962   1.21967780
1626.00  -3.97827295   1.22411860
1628.00  -3.99720736   1.22856991
1630.00  -4.01616285   1.23303175
1632.00  -4.03513940   1.23750411
1634.00  -4.05413701   1.24198701
1636.00  -4.07315568   1.24648047
1638.00  -4.09219538   1.25098449
1640.00  -4.11125612   1.25549908
1642.00  -4.13033789   1.26002426
1644.00  -4.14944068   1.26456003
1646.00  -4.16856448   1.26910641
1648.00  -4.18770928   1.27366341
1650.00  -4.20687508   1.27823104
1652.00  -4.22606187   1.28280930
1654.00  -4.24526964   1.28739822
1656.00  -4.26449838   1.29199780
1658.00  -4.28374809   1.29660805
1660.00  -4.30301876   1.30122898
1662.00  -4.32231037   1.30586060
1664.00  -4.34162293   1.31050293
1666.00  -4.36095642   1.31515597
1668.00  -4.38031084   1.31981974
1670.00  -4.39968617   1.32449425
1672.00  -4.41908241   1.32917950
1674.00  -4.43849956   1.33387551
1676.00  -4.45793760   1.33858228
1678.00  -4.47739653   1.34329984
1680.00  -4.49687634   1.34802819
1682.00  -4.51637702   1.35276733
1684.00  -4.53589856   1.35751729
1686.00  -4.55544095   1.36227807
1688.00  -4.57500420   1.36704968
1690.00  -4.59458828   1.37183214
1692.00  -4.61419319   1.37662545
1694.00  -4.63381893   1.38142962
1696.00  -4.65346548   1.38624467
1698.00  -4.67313283   1.39107060
1700.00  -4.69282099   1.39590743
1702.00  -4.71252994   1.40075517
1704.00  -4.73225967   1.40561383
1706.00  -4.75201018   1.41048341
1708.00  -4.77178146   1.41536393
1710.00  -4.79157349   1.42025541
1712.00  -4.81138628   1.42515784
1714.00  -4.83121981   1.43007124
1716.00  -4.85107407   1.43499563
1718.00  -4.87094906   1.43993100
1720.00  -4.89084477   1.44487738
1722.00  -4.91076120   1.44983477
1724.00  -4.93069832   1.45480319
1726.00  -4.95065614   1.45978264
1728.00  -4.97063465   1.46477313
1730.00  -4.99063383   1.46977468
1732.00  -5.01065369   1.47478729
1734.00  -5.03069421   1.47981098
1736.00  -5.05075539   1.48484576
1738.00  -5.07083721   1.48989163
1740.00  -5.09093967   1.49494862
1742.00  -5.11106276   1.50001672
1744.00  -5.13120647   1.50509594
1746.00  -5.15137079   1.51018631
1748.00  -5.17155573   1.51528783
1750.00  -5.19176126   1.52040051
1752.00  -5.21198738   1.52552435
1754.00  -5.23223408   1.53065938
1756.00  -5.25250135   1.53580560
1758.00  -5.27278919   1.54096302
1760.00  -5.29309759   1.54613166
1762.00  -5.31342654   1.55131151
1764.00  -5.33377602   1.55650260
1766.00  -5.35414604   1.56170493
1768.00  -5.37453658   1.56691852
1770.00  -5.39494764   1.57214337
1772.00  -5.41537921   1.57737949
1774.00  -5.43583128   1.58262690
1776.00  -5.45630384   1.58788561
1778.00  -5.47679688   1.59315562
1780.00  -5.49731039   1.59843694
1782.00  -5.51784438   1.60372959
1784.00  -5.53839882   1.60903358
1786.00  -5.55897371   1.61434892
1788.00  -5.57956904   1.61967561
1790.00  -5.60018481   1.62501367
1792.00  -5.62082100   1.63036311
1794.00  -5.64147761   1.63572393
1796.00  -5.66215463   1.64109616
1798.00  -5.68285205   1.64647979
1800.00  -5.70356986   1.65187484
1802.00  -5.72430805   1.65728132
1804.00  -5.74506662   1.66269924
1806.00  -5.76584556   1.66812861
1808.00  -5.78664485   1.67356944
1810.00  -5.80746450   1.67902174
1812.00  -5.82830449   1.68448552
1814.00  -5.84916481   1.68996079
1816.00  -5.87004546   1.69544756
1818.00  -5.89094643   1.70094585
1820.00  -5.91186770   1.70645565
1822.00  -5.93280927   1.71197698
1824.00  -5.95377114   1.71750986
1826.00  -5.97475329   1.72305429
1828.00  -5.99575571   1.72861028
1830.00  -6.01677840   1.73417784
1832.00  -6.03782135   1.73975698
1834.00  -6.05888455   1.74534772
1836.00  -6.07996800   1.75095006
1838.00  -6.10107167   1.75656401
1840.00  -6.12219557   1.76218958
1842.00  -6.14333968   1.76782679
1844.00  -6.16450401   1.77347564
1846.00  -6.18568853   1.77913614
1848.00  -6.20689324   1.78480831
1850.00  -6.22811814   1.79049215
1852.00  -6.24936321   1.79618767
1854.00  -6.27062844   1.80189488
1856.00  -6.29191383   1.80761380
1858.00  -6.31321937   1.81334443
1860.00  -6.33454505   1.81908679
1862.00  -6.35589086   1.82484088
1864.00  -6.37725680   1.83060671
1866.00  -6.39864284   1.83638430
1868.00  -6.42004900   1.84217365
1870.00  -6.44147525   1.84797477
1872.00  -6.46292159   1.85378767
1874.00  -6.48438801   1.85961237
1876.00  -6.50587450   1.86544888
1878.00  -6.52738106   1.87129719
1880.00  -6.54890767   1.87715733
1882.00  -6.57045432   1.88302931
1884.00  -6.59202102   1.88891312
1886.00  -6.61360774   1.89480879
1888.00  -6.63521448   1.90071633
1890.00  -6.65684124   1.90663573
1892.00  -6.67848799   1.91256702
1894.00  -6.70015474   1.91851021
1896.00  -6.72184148   1.92446529
1898.00  -6.74354820   1.93043229
1900.00  -6.76527488   1.93641121
1902.00  -6.78702152   1.94240206
1904.00  -6.80878812   1.94840486
1906.00  -6.83057465   1.95441960
1908.00  -6.85238112   1.96044631
1910.00  -6.87420752   1.96648500
1912.00  -6.89605383   1.97253566
1914.00  -6.91792005   1.97859831
1916.00  -6.93980617   1.98467297
1918.00  -6.96171219   1.99075964
1920.00  -6.98363808   1.99685833
1922.00  -7.00558384   2.00296905
1924.00  -7.02754948   2.00909181
1926.00  -7.04953496   2.01522662
1928.00  -7.07154030   2.02137349
1930.00  -7.09356547   2.02753243
1932.00  -7.11561047   2.03370345
1934.00  -7.13767529   2.03988656
1936.00  -7.15975993   2.04608177
1938.00  -7.18186437   2.05228909
1940.00  -7.20398860   2.05850853
1942.00  -7.22613262   2.06474010
1944.00  -7.24829642   2.07098380
1946.00  -7.27047999   2.07723965
1948.00  -7.29268331   2.08350766
1950.00  -7.31490639   2.08978784
1952.00  -7.33714921   2.09608020
1954.00  -7.35941176   2.10238474
1956.00  -7.38169403   2.10870147
1958.00  -7.40399603   2.11503042
1960.00  -7.42631773   2.12137158
1962.00  -7.44865912   2.12772496
1964.00  -7.47102021   2.13409058
1966.00  -7.49340098   2.14046844
1968.00  -7.51580142   2.14685856
1970.00  -7.53822152   2.15326094
1972.00  -7.56066127   2.15967560
1974.00  -7.58312067   2.16610254
1976.00  -7.60559971   2.17254177
1978.00  -7.62809838   2.17899330
1980.00  -7.65061666   2.18545715
1982.00  -7.67315455   2.19193331
1984.00  -7.69571205   2.19842181
1986.00  -7.71828913   2.20492265
1988.00  -7.74088580   2.21143583
1990.00  -7.76350205   2.21796138
1992.00  -7.78613785   2.22449930
1994.00  -7.80879322   2.23104959
1996.00  -7.83146813   2.23761228
1998.00  -7.85416258   2.24418736
2000.00  -7.87687656   2.25077484
2002.00  -7.89961006   2.25737475
2004.00  -7.92236308   2.26398708
2006.00  -7.94513559   2.27061184
2008.00  -7.96792760   2.27724906
2010.00  -7.99073910   2.28389872
2012.00  -8.01357007   2.29056085
2014.00  -8.03642051   2.29723545
2016.00  -8.05929040   2.30392254
2018.00  -8.08217975   2.31062212
2020.00  -8.10508853   2.31733420
2022.00  -8.12801675   2.32405879
2024.00  -8.15096438   2.33079590
2026.00  -8.17393144   2.33754554
2028.00  -8.19691789   2.34430772
2030.00  -8.21992374   2.35108245
2032.00  -8.24294898   2.35786973
2034.00  -8.26599359   2.36466959
2036.00  -8.28905757   2.37148202
2038.00  -8.31214091   2.37830703
2040.00  -8.33524360   2.38514465
2042.00  -8.35836563   2.39199486
2044.00  -8.38150700   2.39885769
2046.00  -8.40466768   2.40573315
2048.00  -8.42784768   2.41262123
2050.00  -8.45104699   2.41952196
2052.00  -8.47426559   2.42643534
2054.00  -8.49750347   2.43336138
2056.00  -8.52076064   2.44030009
2058.00  -8.54403707   2.44725148
2060.00  -8.56733276   2.45421556
2062.00  -8.59064770   2.46119234
2064.00  -8.61398189   2.46818182
2066.00  -8.63733530   2.47518402
2068.00  -8.66070794   2.48219894
2070.00  -8.68409979   2.48922660
2072.00  -8.70751085   2.49626700
2074.00  -8.73094110   2.50332015
2076.00  -8.75439054   2.51038607
2078.00  -8.77785915   2.51746476
2080.00  -8.80134694   2.52455623
2082.00  -8.82485388   2.53166048
2084.00  -8.84837997   2.53877754
2086.00  -8.87192520   2.54590741
2088.00  -8.89548957   2.55305009
2090.00  -8.91907305   2.56020560
2092.00  -8.94267565   2.56737394
2094.00  -8.96629736   2.57455513
2096.00  -8.98993815   2.58174917
2098.00  -9.01359804   2.58895607
2100.00  -9.03727700   2.59617585
2102.00  -9.06097502   2.60340850
2104.00  -9.08469211   2.61065405
2106.00  -9.10842824   2.61791250
2108.00  -9.13218341   2.62518385
2110.00  -9.15595762   2.63246812
2112.00  -9.17975084   2.63976532
2114.00  -9.20356308   2.64707545
2116.00  -9.22739432   2.65439853
2118.00  -9.25124455   2.66173456
2120.00  -9.27511376   2.66908355
2122.00  -9.29900195   2.67644551
2124.00  -9.32290911   2.68382046
2126.00  -9.34683522   2.69120839
2128.00  -9.37078028   2.69860932
2130.00  -9.39474428   2.70602326
2132.00  -9.41872720   2.71345022
2134.00  -9.44272905   2.72089020
2136.00  -9.46674980   2.72834321
2138.00  -9.49078946   2.73580927
2140.00  -9.51484800   2.74328838
2142.00  -9.53892543   2.75078055
2144.00  -9.56302173   2.75828579
2146.00  -9.58713689   2.76580411
2148.00  -9.61127091   2.77333551
2150.00  -9.63542377   2.78088002
2152.00  -9.65959547   2.78843762
2154.00  -9.68378599   2.79600835
2156.00  -9.70799533   2.80359219
2158.00  -9.73222348   2.81118917
2160.00  -9.75647042   2.81879929
2162.00  -9.78073616   2.82642256
2164.00  -9.80502067   2.83405899
2166.00  -9.82932395   2.84170858
2168.00  -9.85364599   2.84937135
2170.00  -9.87798679   2.85704731
2172.00  -9.90234632   2.86473646
2174.00  -9.92672459   2.87243881
2176.00  -9.95112158   2.88015437
2178.00  -9.97553728   2.88788316
2180.00  -9.99997169   2.89562517
2182.00 -10.02442479   2.90338042
2184.00 -10.04889658   2.91114892
2186.00 -10.07338704   2.91893067
2188.00 -10.09789617   2.92672569
2190.00 -10.12242396   2.93453398
2192.00 -10.14697039   2.94235555
2194.00 -10.17153547   2.95019041
2196.00 -10.19611917   2.95803857
2198.00 -10.22072149   2.96590003
2200.00 -10.24534242   2.97377482
2202.00 -10.26998194   2.98166293
2204.00 -10.29464006   2.98956437
2206.00 -10.31931677   2.99747915
2208.00 -10.34401204   3.00540729
2210.00 -10.36872588   3.01334878
2212.00 -10.39345826   3.02130364
2214.00 -10.41820920   3.02927188
2216.00 -10.44297866   3.03725351
2218.00 -10.46776665   3.04524853
2220.00 -10.49257316   3.05325695
2222.00 -10.51739817   3.06127878
2224.00 -10.54224167   3.06931403
2226.00 -10.56710367   3.07736271
2228.00 -10.59198413   3.08542483
2230.00 -10.61688307   3.09350039
2232.00 -10.64180046   3.10158941
2234.00 -10.66673631   3.10969189
2236.00 -10.69169059   3.11780784
2238.00 -10.71666330   3.12593727
2240.00 -10.74165443   3.13408019
2242.00 -10.76666397   3.14223661
2244.00 -10.79169191   3.15040653
2246.00 -10.81673824   3.15858996
2248.00 -10.84180295   3.16678692
2250.00 -10.86688603   3.17499741
2252.00 -10.89198748   3.18322143
2254.00 -10.91710728   3.19145901
2256.00 -10.94224542   3.19971014
2258.00 -10.96740189   3.20797483
2260.00 -10.99257669   3.21625310
2262.00 -11.01776980   3.22454495
2264.00 -11.04298122   3.23285039
2266.00 -11.06821093   3.24116943
2268.00 -11.09345893   3.24950207
2270.00 -11.11872520   3.25784833
2272.00 -11.14400974   3.26620822
2274.00 -11.16931254   3.27458173
2276.00 -11.19463358   3.28296888
2278.00 -11.21997286   3.29136969
2280.00 -11.24533037   3.29978415
2282.00 -11.27070609   3.30821227
2284.00 -11.29610003   3.31665407
2286.00 -11.32151216   3.32510955
2288.00 -11.34694248   3.33357872
2290.00 -11.37239098   3.34206159
2292.00 -11.39785765   3.35055817
2294.00 -11.42334247   3.35906846
2296.00 -11.44884545   3.36759248
2298.00 -11.47436657   3.37613022
2300.00 -11.49990582   3.38468171
2302.00 -11.52546319   3.39324695
2304.00 -11.55103868   3.40182594
2306.00 -11.57663226   3.41041869
2308.00 -11.60224394   3.41902522
2310.00 -11.62787370   3.42764553
2312.00 -11.65352153   3.43627963
2314.00 -11.67918742   3.44492753
2316.00 -11.70487137   3.45358924
2318.00 -11.73057336   3.46226475
2320.00 -11.75629338   3.47095409
2322.00 -11.78203143   3.47965726
2324.00 -11.80778750   3.48837427
2326.00 -11.83356156   3.49710513
2328.00 -11.85935362   3.50584984
2330.00 -11.88516367   3.51460841
2332.00 -11.91099169   3.52338086
2334.00 -11.93683768   3.53216718
2336.00 -11.96270162   3.54096739
2338.00 -11.98858351   3.54978150
2340.00 -12.01448333   3.55860951
2342.00 -12.04040108   3.56745143
2344.00 -12.06633675   3.57630727
2346.00 -12.09229032   3.58517704
2348.00 -12.11826179   3.59406075
2350.00 -12.14425115   3.60295840
2352.00 -12.17025839   3.61187000
2354.00 -12.19628349   3.62079556
2356.00 -12.22232645   3.62973509
2358.00 -12.24838726   3.63868860
2360.00 -12.27446590   3.64765609
2362.00 -12.30056238   3.65663758
2364.00 -12.32667667   3.66563306
2366.00 -12.35280877   3.67464255
2368.00 -12.37895867   3.68366606
2370.00 -12.40512636   3.69270359
2372.00 -12.43131182   3.70175515
2374.00 -12.45751506   3.71082076
2376.00 -12.48373606   3.71990041
2378.00 -12.50997480   3.72899412
2380.00 -12.53623129   3.73810189
2382.00 -12.56250550   3.74722373
2384.00 -12.58879744   3.75635966
2386.00 -12.61510708   3.76550967
2388.00 -12.64143442   3.77467378
2390.00 -12.66777946   3.78385199
2392.00 -12.69414217   3.79304431
2394.00 -12.72052256   3.80225075
2396.00 -12.74692060   3.81147132
2398.00 -12.77333630   3.82070602
2400.00 -12.79976964   3.82995486
2402.00 -12.82622061   3.83921786
2404.00 -12.85268920   3.84849502
2406.00 -12.87917539   3.85778634
2408.00 -12.90567920   3.86709183
2410.00 -12.93220059   3.87641151
2412.00 -12.95873956   3.88574538
2414.00 -12.98529611   3.89509344
2416.00 -13.01187021   3.90445571
2418.00 -13.03846187   3.91383219
2420.00 -13.06507107   3.92322290
2422.00 -13.09169780   3.93262783
2424.00 -13.11834205   3.94204700
2426.00 -13.14500381   3.95148041
2428.00 -13.17168308   3.96092807
2430.00 -13.19837983   3.97039000
2432.00 -13.22509407   3.97986619
2434.00 -13.25182578   3.98935665
2436.00 -13.27857495   3.99886140
2438.00 -13.30534158   4.00838044
2440.00 -13.33212564   4.01791378
2442.00 -13.35892714   4.02746142
2444.00 -13.38574606   4.03702337
2446.00 -13.41258239   4.04659965
2448.00 -13.43943612   4.05619026
2450.00 -13.46630725   4.06579520
2452.00 -13.49319575   4.07541448
2454.00 -13.52010163   4.08504812
2456.00 -13.54702487   4.09469611
2458.00 -13.57396546   4.10435848
2460.00 -13.60092339   4.11403521
2462.00 -13.62789866   4.12372633
2464.00 -13.65489124   4.13343184
2466.00 -13.68190114   4.14315175
2468.00 -13.70892834   4.15288606
2470.00 -13.73597283   4.16263478
2472.00 -13.76303461   4.17239792
2474.00 -13.79011365   4.18217549
2476.00 -13.81720996   4.19196749
2478.00 -13.84432351   4.20177394
2480.00 -13.87145431   4.21159483
2482.00 -13.89860234   4.22143018
2484.00 -13.92576759   4.23128000
2486.00 -13.95295006   4.24114429
2488.00 -13.98014972   4.25102306
2490.00 -14.00736657   4.26091632
2492.00 -14.03460061   4.27082407
2494.00 -14.06185181   4.28074632
2496.00 -14.08912018   4.29068308
2498.00 -14.11640570   4.30063436
2500.00 -14.14370835   4.31060017
2502.00 -14.17102814   4.32058050
2504.00 -14.19836505   4.33057538
2506.00 -14.22571907   4.34058480
2508.00 -14.25309019   4.35060877
2510.00 -14.28047839   4.36064731
2512.00 -14.30788368   4.37070041
2514.00 -14.33530604   4.38076810
2516.00 -14.36274546   4.39085036
2518.00 -14.39020193   4.40094722
2520.00 -14.41767543   4.41105867
2522.00 -14.44516597   4.42118473
2524.00 -14.47267352   4.43132540
2526.00 -14.50019809   4.44148069
2528.00 -14.52773965   4.45165061
2530.00 -14.55529820   4.46183516
2532.00 -14.58287373   4.47203436
2534.00 -14.61046623   4.48224820
2536.00 -14.63807568   4.49247671
2538.00 -14.66570209   4.50271987
2540.00 -14.69334543   4.51297771
2542.00 -14.72100570   4.52325022
2544.00 -14.74868289   4.53353742
2546.00 -14.77637698   4.54383931
2548.00 -14.80408797   4.55415590
2550.00 -14.83181585   4.56448720
2552.00 -14.85956060   4.57483322
2554.00 -14.88732223   4.58519395
2556.00 -14.91510070   4.59556942
2558.00 -14.94289603   4.60595961
2560.00 -14.97070819   4.61636456
2562.00 -14.99853718   4.62678425
2564.00 -15.02638298   4.63721870
2566.00 -15.05424558   4.64766791
2568.00 -15.08212499   4.65813190
2570.00 -15.11002117   4.66861066
2572.00 -15.13793413   4.67910421
2574.00 -15.16586386   4.68961256
2576.00 -15.19381034   4.70013570
2578.00 -15.22177357   4.71067365
2580.00 -15.24975352   4.72122642
2582.00 -15.27775021   4.73179400
2584.00 -15.30576360   4.74237641
2586.00 -15.33379370   4.75297366
2588.00 -15.36184049   4.76358576
2590.00 -15.38990396   4.77421270
2592.00 -15.41798411   4.78485449
2594.00 -15.44608092   4.79551115
2596.00 -15.47419438   4.80618269
2598.00 -15.50232448   4.81686909
2600.00 -15.53047121   4.82757039
2602.00 -15.55863456   4.83828657
2604.00 -15.58681453   4.84901765
2606.00 -15.61501109   4.85976364
2608.00 -15.64322425   4.87052454
2610.00 -15.67145398   4.88130036
2612.00 -15.69970029   4.89209111
2614.00 -15.72796315   4.90289679
2616.00 -15.75624256   4.91371741
2618.00 -15.78453851   4.92455297
2620.00 -15.81285099   4.93540349
2622.00 -15.84117999   4.94626898
2624.00 -15.86952550   4.95714942
2626.00 -15.89788750   4.96804485
2628.00 -15.92626599   4.97895525
2630.00 -15.95466096   4.98988064
2632.00 -15.98307239   5.00082103
2634.00 -16.01150028   5.01177642
2636.00 -16.03994461   5.02274682
2638.00 -16.06840539   5.03373223
2640.00 -16.09688258   5.04473267
2642.00 -16.12537619   5.05574814
2644.00 -16.15388621   5.06677864
2646.00 -16.18241262   5.07782418
2648.00 -16.21095541   5.08888478
2650.00 -16.23951458   5.09996043
2652.00 -16.26809011   5.11105114
2654.00 -16.29668200   5.12215693
2656.00 -16.32529022   5.13327779
2658.00 -16.35391478   5.14441373
2660.00 -16.38255566   5.15556477
2662.00 -16.41121285   5.16673090
2664.00 -16.43988635   5.17791213
2666.00 -16.46857613   5.18910848
2668.00 -16.49728219   5.20031994
2670.00 -16.52600453   5.21154652
2672.00 -16.55474312   5.22278824
2674.00 -16.58349796   5.23404509
2676.00 -16.61226905   5.24531709
2678.00 -16.64105636   5.25660424
2680.00 -16.66985988   5.26790654
2682.00 -16.69867962   5.27922401
2684.00 -16.72751555   5.29055664
2686.00 -16.75636767   5.30190446
2688.00 -16.78523597   5.31326746
2690.00 -16.81412043   5.32464564
2692.00 -16.84302105   5.33603903
2694.00 -16.87193781   5.34744762
2696.00 -16.90087071   5.35887141
2698.00 -16.92981973   5.37031043
2700.00 -16.95878487   5.38176467
2702.00 -16.98776611   5.39323413
2704.00 -17.01676344   5.40471883
2706.00 -17.04577686   5.41621878
2708.00 -17.07480635   5.42773397
2710.00 -17.10385190   5.43926442
2712.00 -17.13291350   5.45081013
2714.00 -17.16199114   5.46237112
2716.00 -17.19108482   5.47394737
2718.00 -17.22019451   5.48553891
2720.00 -17.24932021   5.49714573
2722.00 -17.27846191   5.50876785
2724.00 -17.30761961   5.52040527
2726.00 -17.33679328   5.53205800
2728.00 -17.36598291   5.54372604
2730.00 -17.39518851   5.55540940
2732.00 -17.42441005   5.56710809
2734.00 -17.45364753   5.57882212
2736.00 -17.48290093   5.59055148
2738.00 -17.51217025   5.60229618
2740.00 -17.54145548   5.61405624
2742.00 -17.57075660   5.62583166
2744.00 -17.60007360   5.63762244
2746.00 -17.62940648   5.64942860
2748.00 -17.65875522   5.66125013
2750.00 -17.68811981   5.67308705
2752.00 -17.71750025   5.68493935
2754.00 -17.74689652   5.69680706
2756.00 -17.77630861   5.70869016
2758.00 -17.80573650   5.72058868
2760.00 -17.83518020   5.73250261
2762.00 -17.86463969   5.74443196
2764.00 -17.89411496   5.75637674
2766.00 -17.92360600   5.76833696
2768.00 -17.95311280   5.78031262
2770.00 -17.98263534   5.79230372
2772.00 -18.01217362   5.80431028
2774.00 -18.04172763   5.81633229
2776.00 -18.07129735   5.82836977
2778.00 -18.10088278   5.84042273
2780.00 -18.13048391   5.85249116
2782.00 -18.16010072   5.86457508
2784.00 -18.18973320   5.87667448
2786.00 -18.21938135   5.88878939
2788.00 -18.24904515   5.90091979
2790.00 -18.27872459   5.91306571
2792.00 -18.30841967   5.92522714
2794.00 -18.33813036   5.93740409
2796.00 -18.36785667   5.94959657
2798.00 -18.39759858   5.96180458
2800.00 -18.42735607   5.97402814
2802.00 -18.45712915   5.98626723
2804.00 -18.48691780   5.99852188
2806.00 -18.51672200   6.01079209
2808.00 -18.54654175   6.02307787
2810.00 -18.57637704   6.03537921
2812.00 -18.60622785   6.04769613
2814.00 -18.63609419   6.06002863
2816.00 -18.66597602   6.07237672
2818.00 -18.69587335   6.08474040
2820.00 -18.72578617   6.09711969
2822.00 -18.75571446   6.10951458
2824.00 -18.78565821   6.12192508
2826.00 -18.81561741   6.13435121
2828.00 -18.84559206   6.14679295
2830.00 -18.87558214   6.15925033
2832.00 -18.90558764   6.17172335
2834.00 -18.93560855   6.18421200
2836.00 -18.96564486   6.19671631
2838.00 -18.99569655   6.20923627
2840.00 -19.02576363   6.22177189
2842.00 -19.05584607   6.23432317
2844.00 -19.08594387   6.24689013
2846.00 -19.11605702   6.25947277
2848.00 -19.14618551   6.27207109
2850.00 -19.17632932   6.28468510
2852.00 -19.20648844   6.29731481
2854.00 -19.23666287   6.30996022
2856.00 -19.26685259   6.32262133
2858.00 -19.29705760   6.33529816
2860.00 -19.32727788   6.34799071
2862.00 -19.35751342   6.36069898
2864.00 -19.38776421   6.37342299
2866.00 -19.41803024   6.38616273
2868.00 -19.44831150   6.39891822
2870.00 -19.47860798   6.41168945
2872.00 -19.50891967   6.42447644
2874.00 -19.53924656   6.43727919
2876.00 -19.56958863   6.45009770
2878.00 -19.59994589   6.46293199
2880.00 -19.63031830   6.47578205
2882.00 -19.66070588   6.48864790
2884.00 -19.69110860   6.50152953
2886.00 -19.72152645   6.51442696
2888.00 -19.75195943   6.52734019
2890.00 -19.78240752   6.54026923
2892.00 -19.81287071   6.55321408
2894.00 -19.84334899   6.56617475
2896.00 -19.87384236   6.57915124
2898.00 -19.90435079   6.59214356
2900.00 -19.93487429   6.60515171
2902.00 -19.96541283   6.61817571
2904.00 -19.99596641   6.63121555
2906.00 -20.02653502   6.64427124
2908.00 -20.05711865   6.65734279
2910.00 -20.08771729   6.67043021
2912.00 -20.11833092   6.68353349
2914.00 -20.14895953   6.69665265
2916.00 -20.17960312   6.70978768
2918.00 -20.21026168   6.72293861
2920.00 -20.24093518   6.73610542
2922.00 -20.27162363   6.74928813
2924.00 -20.30232701   6.76248674
2926.00 -20.33304531   6.77570126
2928.00 -20.36377853   6.78893170
2930.00 -20.39452664   6.80217805
2932.00 -20.42528964   6.81544033
2934.00 -20.45606752   6.82871854
2936.00 -20.48686027   6.84201268
2938.00 -20.51766787   6.85532277
2940.00 -20.54849032   6.86864880
2942.00 -20.57932761   6.88199079
2944.00 -20.61017972   6.89534873
2946.00 -20.64104665   6.90872263
2948.00 -20.67192838   6.92211251
2950.00 -20.70282490   6.93551836
2952.00 -20.73373620   6.94894018
2954.00 -20.76466228   6.96237800
2956.00 -20.79560312   6.97583180
2958.00 -20.82655870   6.98930160
2960.00 -20.85752903   7.00278740
2962.00 -20.88851408   7.01628921
2964.00 -20.91951386   7.02980703
2966.00 -20.95052833   7.04334087
2968.00 -20.98155751   7.05689073
2970.00 -21.01260137   7.07045662
2972.00 -21.04365991   7.08403854
2974.00 -21.07473311   7.09763651
2976.00 -21.10582097   7.11125051
2978.00 -21.13692346   7.12488057
2980.00 -21.16804060   7.13852668
2982.00 -21.19917235   7.15218886
2984.00 -21.23031871   7.16586710
2986.00 -21.26147967   7.17956141
2988.00 -21.29265522   7.19327179
2990.00 -21.32384535   7.20699826
2992.00 -21.35505005   7.22074082
2994.00 -21.38626931   7.23449946
2996.00 -21.41750311   7.24827421
2998.00 -21.44875145   7.26206506
3000.00 -21.48001431   7.27587202
3002.00 -21.51129168   7.28969509
3004.00 -21.54258356   7.30353427
3006.00 -21.57388993   7.31738959
3008.00 -21.60521079   7.33126103
3010.00 -21.63654611   7.34514861
3012.00 -21.66789590   7.35905232
3014.00 -21.69926013   7.37297218
3016.00 -21.73063881   7.38690819
3018.00 -21.76203191   7.40086036
3020.00 -21.79343943   7.41482869
3022.00 -21.82486136   7.42881318
3024.00 -21.85629768   7.44281384
3026.00 -21.88774839   7.45683068
3028.00 -21.91921347   7.47086369
3030.00 -21.95069291   7.48491290
3032.00 -21.98218671   7.49897830
3034.00 -22.01369485   7.51305989
3036.00 -22.04521732   7.52715768
3038.00 -22.07675411   7.54127168
3040.00 -22.10830522   7.55540189
3042.00 -22.13987062   7.56954832
3044.00 -22.17145031   7.58371097
3046.00 -22.20304427   7.59788984
3048.00 -22.23465250   7.61208495
3050.00 -22.26627499   7.62629630
3052.00 -22.29791173   7.64052388
3054.00 -22.32956270   7.65476772
3056.00 -22.36122789   7.66902780
3058.00 -22.39290729   7.68330414
3060.00 -22.42460090   7.69759675
3062.00 -22.45630870   7.71190562
3064.00 -22.48803068   7.72623076
3066.00 -22.51976682   7.74057218
3068.00 -22.55151713   7.75492988
3070.00 -22.58328159   7.76930387
3072.00 -22.61506018   7.78369415
3074.00 -22.64685290   7.79810072
3076.00 -22.67865973   7.81252360
3078.00 -22.71048067   7.82696278
3080.00 -22.74231570   7.84141828
3082.00 -22.77416482   7.85589009
3084.00 -22.80602801   7.87037822
3086.00 -22.83790526   7.88488268
3088.00 -22.86979656   7.89940347
3090.00 -22.90170191   7.91394059
3092.00 -22.93362128   7.92849406
3094.00 -22.96555467   7.94306387
3096.00 -22.99750207   7.95765003
3098.00 -23.02946346   7.97225255
3100.00 -23.06143884   7.98687142
3102.00 -23.09342820   8.00150666
3104.00 -23.12543152   8.01615827
3106.00 -23.15744879   8.03082626
3108.00 -23.18948001   8.04551062
3110.00 -23.22152516   8.06021137
3112.00 -23.25358423   8.07492851
3114.00 -23.28565721   8.08966204
3116.00 -23.31774409   8.10441197
3118.00 -23.34984486   8.11917830
3120.00 -23.38195951   8.13396104
3122.00 -23.41408802   8.14876019
3124.00 -23.44623039   8.16357576
3126.00 -23.47838661   8.17840775
3128.00 -23.51055666   8.19325617
3130.00 -23.54274054   8.20812102
3132.00 -23.57493822   8.22300230
3134.00 -23.60714971   8.23790003
3136.00 -23.63937499   8.25281420
3138.00 -23.67161406   8.26774482
3140.00 -23.70386689   8.28269189
3142.00 -23.73613348   8.29765543
3144.00 -23.76841382   8.31263543
3146.00 -23.80070790   8.32763189
3148.00 -23.83301570   8.34264483
3150.00 -23.86533722   8.35767425
3152.00 -23.89767244   8.37272015
3154.00 -23.93002136   8.38778254
3156.00 -23.96238396   8.40286142
3158.00 -23.99476023   8.41795679
3160.00 -24.02715016   8.43306867
3162.00 -24.05955375   8.44819705
3164.00 -24.09197097   8.46334194
3166.00 -24.12440182   8.47850334
3168.00 -24.15684630   8.49368127
3170.00 -24.18930437   8.50887571
3172.00 -24.22177605   8.52408669
3174.00 -24.25426131   8.53931420
3176.00 -24.28676014   8.55455824
3178.00 -24.31927254   8.56981883
3180.00 -24.35179849   8.58509596
3182.00 -24.38433799   8.60038964
3184.00 -24.41689101   8.61569988
3186.00 -24.44945756   8.63102667
3188.00 -24.48203761   8.64637003
3190.00 -24.51463117   8.66172996
3192.00 -24.54723821   8.67710646
3194.00 -24.57985873   8.69249954
3196.00 -24.61249271   8.70790920
3198.00 -24.64514016   8.72333544
3200.00 -24.67780104   8.73877828
3202.00 -24.71047536   8.75423771
3204.00 -24.74316310   8.76971374
3206.00 -24.77586425   8.78520637
3208.00 -24.80857881   8.80071561
3210.00 -24.84130675   8.81624146
3212.00 -24.87404808   8.83178393
3214.00 -24.90680277   8.84734302
3216.00 -24.93957082   8.86291873
3218.00 -24.97235222   8.87851107
3220.00 -25.00514695   8.89412005
3222.00 -25.03795501   8.90974567
3224.00 -25.07077638   8.92538792
3226.00 -25.10361106   8.94104683
3228.00 -25.13645903   8.95672238
3230.00 -25.16932028   8.97241459
3232.00 -25.20219480   8.98812346
3234.00 -25.23508258   9.00384899
3236.00 -25.26798361   9.01959119
3238.00 -25.30089787   9.03535007
3240.00 -25.33382537   9.05112562
3242.00 -25.36676608   9.06691785
3244.00 -25.39972000   9.08272676
3246.00 -25.43268711   9.09855237
3248.00 -25.46566740   9.11439466
3250.00 -25.49866087   9.13025366
3252.00 -25.53166750   9.14612935
3254.00 -25.56468728   9.16202175
3256.00 -25.59772020   9.17793086
3258.00 -25.63076626   9.19385669
3260.00 -25.66382543   9.20979923
3262.00 -25.69689770   9.22575850
3264.00 -25.72998308   9.24173449
3266.00 -25.76308154   9.25772721
3268.00 -25.79619307   9.27373667
3270.00 -25.82931767   9.28976287
3272.00 -25.86245533   9.30580580
3274.00 -25.89560602   9.32186549
3276.00 -25.92876975   9.33794193
3278.00 -25.96194650   9.35403512
3280.00 -25.99513625   9.37014507
3282.00 -26.02833901   9.38627178
3284.00 -26.06155475   9.40241526
3286.00 -26.09478348   9.41857551
3288.00 -26.12802516   9.43475254
3290.00 -26.16127981   9.45094635
3292.00 -26.19454739   9.46715694
3294.00 -26.22782792   9.48338431
3296.00 -26.26112136   9.49962848
3298.00 -26.29442772   9.51588945
3300.00 -26.32774697   9.53216721
3302.00 -26.36107912   9.54846177
3304.00 -26.39442415   9.56477315
3306.00 -26.42778204   9.58110133
3308.00 -26.46115280   9.59744633
3310.00 -26.49453639   9.61380815
3312.00 -26.52793283   9.63018679
3314.00 -26.56134209   9.64658225
3316.00 -26.59476416   9.66299455
3318.00 -26.62819904   9.67942368
3320.00 -26.66164671   9.69586966
3322.00 -26.69510716   9.71233247
3324.00 -26.72858038   9.72881213
3326.00 -26.76206636   9.74530864
3328.00 -26.79556509   9.76182200
3330.00 -26.82907655   9.77835222
3332.00 -26.86260075   9.79489930
3334.00 -26.89613766   9.81146325
3336.00 -26.92968727   9.82804407
3338.00 -26.96324958   9.84464176
3340.00 -26.99682457   9.86125633
3342.00 -27.03041224   9.87788777
3344.00 -27.06401256   9.89453610
3346.00 -27.09762554   9.91120132
3348.00 -27.13125115   9.92788344
3350.00 -27.16488940   9.94458244
3352.00 -27.19854026   9.96129835
3354.00 -27.23220373   9.97803116
3356.00 -27.26587980   9.99478088
3358.00 -27.29956845  10.01154751
3360.00 -27.33326968  10.02833105
3362.00 -27.36698347  10.04513151
3364.00 -27.40070981  10.06194889
3366.00 -27.43444869  10.07878320
3368.00 -27.46820011  10.09563444
3370.00 -27.50196404  10.11250261
3372.00 -27.53574049  10.12938772
3374.00 -27.56952943  10.14628976
3376.00 -27.60333086  10.16320875
3378.00 -27.63714476  10.18014469
3380.00 -27.67097113  10.19709758
3382.00 -27.70480996  10.21406742
3384.00 -27.73866123  10.23105423
3386.00 -27.77252493  10.24805799
3388.00 -27.80640106  10.26507872
3390.00 -27.84028959  10.28211642
3392.00 -27.87419053  10.29917109
3394.00 -27.90810385  10.31624274
3396.00 -27.94202956  10.33333137
3398.00 -27.97596763  10.35043698
3400.00 -28.00991805  10.36755958
3402.00 -28.04388083  10.38469917
3404.00 -28.07785594  10.40185575
3406.00 -28.11184337  10.41902933
3408.00 -28.14584311  10.43621991
3410.00 -28.17985516  10.45342750
3412.00 -28.21387950  10.47065210
3414.00 -28.24791612  10.48789370
3416.00 -28.28196500  10.50515232
3418.00 -28.31602615  10.52242797
3420.00 -28.35009954  10.53972063
3422.00 -28.38418518  10.55703032
3424.00 -28.41828303  10.57435703
3426.00 -28.45239310  10.59170078
3428.00 -28.48651538  10.60906157
3430.00 -28.52064985  10.62643939
3432.00 -28.55479650  10.64383426
3434.00 -28.58895532  10.66124617
3436.00 -28.62312631  10.67867514
3438.00 -28.65730944  10.69612115
3440.00 -28.69150471  10.71358423
3442.00 -28.72571211  10.73106436
3444.00 -28.75993163  10.74856155
3446.00 -28.79416325  10.76607581
3448.00 -28.82840697  10.78360715
3450.00 -28.86266277  10.80115555
3452.00 -28.89693065  10.81872103
3454.00 -28.93121059  10.83630359
3456.00 -28.96550258  10.85390324
3458.00 -28.99980661  10.87151997
3460.00 -29.03412267  10.88915379
3462.00 -29.06845075  10.90680470
3464.00 -29.10279084  10.92447271
3466.00 -29.13714292  10.94215782
3468.00 -29.17150699  10.95986003
3470.00 -29.20588304  10.97757935
3472.00 -29.24027105  10.99531578
3474.00 -29.27467102  11.01306932
3476.00 -29.30908292  11.03083997
3478.00 -29.34350676  11.04862775
3480.00 -29.37794253  11.06643265
3482.00 -29.41239020  11.08425467
3484.00 -29.44684977  11.10209382
3486.00 -29.48132122  11.11995010
3488.00 -29.51580456  11.13782352
3490.00 -29.55029976  11.15571408
3492.00 -29.58480682  11.17362178
3494.00 -29.61932572  11.19154662
3496.00 -29.65385646  11.20948861
3498.00 -29.68839902  11.22744775
3500.00 -29.72295339  11.24542405
3502.00 -29.75751956  11.26341750
3504.00 -29.79209753  11.28142812
3506.00 -29.82668727  11.29945589
3508.00 -29.86128878  11.31750084
3510.00 -29.89590205  11.33556295
3512.00 -29.93052707  11.35364224
3514.00 -29.96516382  11.37173870
3516.00 -29.99981230  11.38985234
3518.00 -30.03447249  11.40798316
3520.00 -30.06914439  11.42613117
3522.00 -30.10382797  11.44429636
3524.00 -30.13852324  11.46247875
3526.00 -30.17323018  11.48067833
3528.00 -30.20794878  11.49889511
3530.00 -30.24267903  11.51712909
3532.00 -30.27742092  11.53538027
3534.00 -30.31217443  11.55364866
3536.00 -30.34693956  11.57193425
3538.00 -30.38171629  11.59023706
3540.00 -30.41650462  11.60855708
3542.00 -30.45130454  11.62689433
3544.00 -30.48611603  11.64524879
3546.00 -30.52093907  11.66362048
3548.00 -30.55577367  11.68200939
3550.00 -30.59061981  11.70041553
3552.00 -30.62547748  11.71883891
3554.00 -30.66034667  11.73727952
3556.00 -30.69522736  11.75573738
3558.00 -30.73011956  11.77421247
3560.00 -30.76502323  11.79270480
3562.00 -30.79993839  11.81121439
3564.00 -30.83486500  11.82974122
3566.00 -30.86980307  11.84828531
3568.00 -30.90475259  11.86684665
3570.00 -30.93971353  11.88542526
3572.00 -30.97468589  11.90402112
3574.00 -31.00966967  11.92263425
3576.00 -31.04466484  11.94126465
3578.00 -31.07967140  11.95991231
3580.00 -31.11468934  11.97857725
3582.00 -31.14971864  11.99725946
3584.00 -31.18475931  12.01595896
3586.00 -31.21981131  12.03467573
3588.00 -31.25487465  12.05340979
3590.00 -31.28994931  12.07216114
3592.00 -31.32503528  12.09092977
3594.00 -31.36013256  12.10971570
3596.00 -31.39524112  12.12851892
3598.00 -31.43036097  12.14733944
3600.00 -31.46549208  12.16617726
3602.00 -31.50063445  12.18503239
3604.00 -31.53578807  12.20390482
3606.00 -31.57095292  12.22279456
3608.00 -31.60612900  12.24170161
3610.00 -31.64131629  12.26062597
3612.00 -31.67651479  12.27956765
3614.00 -31.71172447  12.29852665
3616.00 -31.74694535  12.31750298
3618.00 -31.78217739  12.33649662
3620.00 -31.81742059  12.35550760
3622.00 -31.85267494  12.37453591
3624.00 -31.88794043  12.39358154
3626.00 -31.92321704  12.41264452
3628.00 -31.95850478  12.43172483
3630.00 -31.99380361  12.45082248
3632.00 -32.02911355  12.46993748
3634.00 -32.06443457  12.48906982
3636.00 -32.09976666  12.50821951
3638.00 -32.13510981  12.52738655
3640.00 -32.17046402  12.54657094
3642.00 -32.20582926  12.56577269
3644.00 -32.24120554  12.58499180
3646.00 -32.27659283  12.60422827
3648.00 -32.31199113  12.62348211
3650.00 -32.34740043  12.64275331
3652.00 -32.38282072  12.66204188
3654.00 -32.41825198  12.68134782
3656.00 -32.45369421  12.70067113
3658.00 -32.48914739  12.72001182
3660.00 -32.52461152  12.73936989
3662.00 -32.56008657  12.75874535
3664.00 -32.59557255  12.77813818
3666.00 -32.63106944  12.79754840
3668.00 -32.66657723  12.81697601
3670.00 -32.70209591  12.83642101
3672.00 -32.73762546  12.85588341
3674.00 -32.77316589  12.87536320
3676.00 -32.80871717  12.89486039
3678.00 -32.84427929  12.91437498
3680.00 -32.87985225  12.93390697
3682.00 -32.91543604  12.95345637
3684.00 -32.95103064  12.97302317
3686.00 -32.98663604  12.99260739
3688.00 -33.02225223  13.01220902
3690.00 -33.05787920  13.03182807
3692.00 -33.09351695  13.05146453
3694.00 -33.12916545  13.07111842
3696.00 -33.16482470  13.09078972
3698.00 -33.20049469  13.11047845
3700.00 -33.23617540  13.13018461
3702.00 -33.27186683  13.14990819
3704.00 -33.30756897  13.16964921
3706.00 -33.34328179  13.18940766
3708.00 -33.37900531  13.20918355
3710.00 -33.41473949  13.22897688
3712.00 -33.45048434  13.24878765
3714.00 -33.48623984  13.26861586
3716.00 -33.52200598  13.28846151
3718.00 -33.55778275  13.30832462
3720.00 -33.59357013  13.32820517
3722.00 -33.62936813  13.34810318
3724.00 -33.66517672  13.36801864
3726.00 -33.70099590  13.38795155
3728.00 -33.73682565  13.40790193
3730.00 -33.77266597  13.42786977
3732.00 -33.80851684  13.44785507
3734.00 -33.84437826  13.46785783
3736.00 -33.88025020  13.48787806
3738.00 -33.91613267  13.50791577
3740.00 -33.95202565  13.52797094
3742.00 -33.98792913  13.54804359
3744.00 -34.02384310  13.56813372
3746.00 -34.05976754  13.58824132
3748.00 -34.09570245  13.60836640
3750.00 -34.13164783  13.62850897
3752.00 -34.16760364  13.64866902
3754.00 -34.20356989  13.66884656
3756.00 -34.23954657  13.68904159
3758.00 -34.27553366  13.70925411
3760.00 -34.31153115  13.72948412
3762.00 -34.34753903  13.74973163
3764.00 -34.38355730  13.76999663
3766.00 -34.41958593  13.79027914
3768.00 -34.45562493  13.81057914
3770.00 -34.49167427  13.83089665
3772.00 -34.52773395  13.85123167
3774.00 -34.56380396  13.87158419
3776.00 -34.59988429  13.89195423
3778.00 -34.63597492  13.91234177
3780.00 -34.67207584  13.93274683
3782.00 -34.70818705  13.95316941
3784.00 -34.74430854  13.97360950
3786.00 -34.78044028  13.99406711
3788.00 -34.81658228  14.01454224
3790.00 -34.85273452  14.03503490
3792.00 -34.88889699  14.05554509
3794.00 -34.92506968  14.07607280
3796.00 -34.96125258  14.09661804
3798.00 -34.99744568  14.11718081
3800.00 -35.03364896  14.13776112
3802.00 -35.06986242  14.15835896
3804.00 -35.10608605  14.17897434
3806.00 -35.14231983  14.19960726
3808.00 -35.17856376  14.22025772
3810.00 -35.21481782  14.24092572
3812.00 -35.25108200  14.26161127
3814.00 -35.28735629  14.28231437
3816.00 -35.32364069  14.30303501
3818.00 -35.35993518  14.32377321
3820.00 -35.39623974  14.34452895
3822.00 -35.43255438  14.36530226
3824.00 -35.46887907  14.38609312
3826.00 -35.50521382  14.40690153
3828.00 -35.54155859  14.42772751
3830.00 -35.57791340  14.44857105
3832.00 -35.61427822  14.46943215
3834.00 -35.65065304  14.49031082
3836.00 -35.68703786  14.51120705
3838.00 -35.72343266  14.53212085
3840.00 -35.75983744  14.55305223
3842.00 -35.79625218  14.57400117
3844.00 -35.83267686  14.59496770
3846.00 -35.86911149  14.61595179
3848.00 -35.90555605  14.63695347
3850.00 -35.94201052  14.65797272
3852.00 -35.97847491  14.67900956
3854.00 -36.01494919  14.70006398
3856.00 -36.05143336  14.72113598
3858.00 -36.08792740  14.74222557
3860.00 -36.12443131  14.76333275
3862.00 -36.16094508  14.78445752
3864.00 -36.19746869  14.80559988
3866.00 -36.23400213  14.82675984
3868.00 -36.27054539  14.84793738
3870.00 -36.30709847  14.86913253
3872.00 -36.34366135  14.89034527
3874.00 -36.38023401  14.91157562
3876.00 -36.41681646  14.93282356
3878.00 -36.45340868  14.95408911
3880.00 -36.49001065  14.97537227
3882.00 -36.52662237  14.99667303
3884.00 -36.56324383  15.01799139
3886.00 -36.59987502  15.03932737
3888.00 -36.63651592  15.06068096
3890.00 -36.67316652  15.08205216
3892.00 -36.70982682  15.10344098
3894.00 -36.74649680  15.12484742
3896.00 -36.78317646  15.14627147
3898.00 -36.81986577  15.16771314
3900.00 -36.85656474  15.18917243
3902.00 -36.89327335  15.21064934
3904.00 -36.92999159  15.23214388
3906.00 -36.96671945  15.25365604
3908.00 -37.00345692  15.27518583
3910.00 -37.04020398  15.29673325
3912.00 -37.07696064  15.31829830
3914.00 -37.11372686  15.33988098
3916.00 -37.15050266  15.36148129
3918.00 -37.18728801  15.38309924
3920.00 -37.22408290  15.40473483
3922.00 -37.26088733  15.42638805
3924.00 -37.29770129  15.44805891
3926.00 -37.33452475  15.46974741
3928.00 -37.37135772  15.49145355
3930.00 -37.40820017  15.51317734
3932.00 -37.44505211  15.53491877
3934.00 -37.48191352  15.55667784
3936.00 -37.51878439  15.57845457
3938.00 -37.55566471  15.60024894
3940.00 -37.59255446  15.62206097
3942.00 -37.62945364  15.64389064
3944.00 -37.66636224  15.66573797
3946.00 -37.70328025  15.68760296
3948.00 -37.74020765  15.70948559
3950.00 -37.77714443  15.73138589
3952.00 -37.81409059  15.75330385
3954.00 -37.85104611  15.77523946
3956.00 -37.88801099  15.79719274
3958.00 -37.92498521  15.81916368
3960.00 -37.96196876  15.84115229
3962.00 -37.99896163  15.86315856
3964.00 -38.03596381  15.88518249
3966.00 -38.07297529  15.90722410
3968.00 -38.10999606  15.92928337
3970.00 -38.14702611  15.95136031
3972.00 -38.18406543  15.97345493
3974.00 -38.22111400  15.99556722
3976.00 -38.25817182  16.01769719
3978.00 -38.29523888  16.03984483
3980.00 -38.33231516  16.06201014
3982.00 -38.36940066  16.08419314
3984.00 -38.40649536  16.10639381
3986.00 -38.44359925  16.12861217
3988.00 -38.48071233  16.15084821
3990.00 -38.51783458  16.17310193
3992.00 -38.55496599  16.19537333
3994.00 -38.59210655  16.21766242
3996.00 -38.62925626  16.23996920
3998.00 -38.66641509  16.26229367
4000.00 -38.70358304  16.28463582
4002.00 -38.74076010  16.30699567
4004.00 -38.77794626  16.32937321
4006.00 -38.81514151  16.35176843
4008.00 -38.85234584  16.37418136
4010.00 -38.88955923  16.39661198
4012.00 -38.92678167  16.41906029
4014.00 -38.96401317  16.44152630
4016.00 -39.00125369  16.46401001
4018.00 -39.03850324  16.48651143
4020.00 -39.07576181  16.50903054
4022.00 -39.11302938  16.53156735
4024.00 -39.15030593  16.55412186
4026.00 -39.18759148  16.57669408
4028.00 -39.22488599  16.59928401
4030.00 -39.26218946  16.62189164
4032.00 -39.29950189  16.64451698
4034.00 -39.33682325  16.66716002
4036.00 -39.37415354  16.68982078
4038.00 -39.41149275  16.71249924
4040.00 -39.44884087  16.73519542
4042.00 -39.48619789  16.75790931
4044.00 -39.52356379  16.78064091
4046.00 -39.56093857  16.80339023
4048.00 -39.59832222  16.82615726
4050.00 -39.63571472  16.84894201
4052.00 -39.67311606  16.87174448
4054.00 -39.71052624  16.89456466
4056.00 -39.74794524  16.91740257
4058.00 -39.78537306  16.94025819
4060.00 -39.82280968  16.96313154
4062.00 -39.86025509  16.98602261
4064.00 -39.89770928  17.00893140
4066.00 -39.93517224  17.03185792
4068.00 -39.97264396  17.05480216
4070.00 -40.01012444  17.07776413
4072.00 -40.04761365  17.10074382
4074.00 -40.08511159  17.12374124
4076.00 -40.12261825  17.14675639
4078.00 -40.16013361  17.16978927
4080.00 -40.19765768  17.19283989
4082.00 -40.23519043  17.21590823
4084.00 -40.27273185  17.23899430
4086.00 -40.31028195  17.26209811
4088.00 -40.34784069  17.28521966
4090.00 -40.38540809  17.30835893
4092.00 -40.42298411  17.33151595
4094.00 -40.46056876  17.35469070
4096.00 -40.49816203  17.37788319
4098.00 -40.53576389  17.40109341
4100.00 -40.57337435  17.42432138
4102.00 -40.61099339  17.44756708
4104.00 -40.64862100  17.47083053
4106.00 -40.68625718  17.49411172
4108.00 -40.72390190  17.51741065
4110.00 -40.76155516  17.54072732
4112.00 -40.79921695  17.56406174
4114.00 -40.83688726  17.58741390
4116.00 -40.87456608  17.61078381
4118.00 -40.91225340  17.63417146
4120.00 -40.94994920  17.65757686
4122.00 -40.98765348  17.68100001
4124.00 -41.02536623  17.70444091
4126.00 -41.06308743  17.72789955
4128.00 -41.10081708  17.75137595
4130.00 -41.13855517  17.77487009
4132.00 -41.17630168  17.79838199
4134.00 -41.21405660  17.82191164
4136.00 -41.25181993  17.84545904
4138.00 -41.28959165  17.86902420
4140.00 -41.32737175  17.89260711
4142.00 -41.36516022  17.91620778
4144.00 -41.40295706  17.93982620
4146.00 -41.44076225  17.96346237
4148.00 -41.47857578  17.98711631
4150.00 -41.51639764  18.01078800
4152.00 -41.55422782  18.03447744
4154.00 -41.59206631  18.05818465
4156.00 -41.62991310  18.08190962
4158.00 -41.66776818  18.10565235
4160.00 -41.70563154  18.12941283
4162.00 -41.74350316  18.15319108
4164.00 -41.78138305  18.17698709
4166.00 -41.81927118  18.20080086
4168.00 -41.85716754  18.22463240
4170.00 -41.89507214  18.24848170
4172.00 -41.93298495  18.27234876
4174.00 -41.97090596  18.29623358
4176.00 -42.00883517  18.32013618
4178.00 -42.04677257  18.34405653
4180.00 -42.08471814  18.36799466
4182.00 -42.12267187  18.39195055
4184.00 -42.16063376  18.41592421
4186.00 -42.19860379  18.43991563
4188.00 -42.23658195  18.46392483
4190.00 -42.27456823  18.48795179
4192.00 -42.31256263  18.51199652
4194.00 -42.35056513  18.53605902
4196.00 -42.38857572  18.56013929
4198.00 -42.42659439  18.58423734
4200.00 -42.46462113  18.60835315
4202.00 -42.50265594  18.63248674
4204.00 -42.54069879  18.65663809
4206.00 -42.57874968  18.68080722
4208.00 -42.61680860  18.70499413
4210.00 -42.65487554  18.72919880
4212.00 -42.69295048  18.75342125
4214.00 -42.73103343  18.77766148
4216.00 -42.76912436  18.80191948
4218.00 -42.80722327  18.82619525
4220.00 -42.84533015  18.85048880
4222.00 -42.88344498  18.87480013
4224.00 -42.92156776  18.89912923
4226.00 -42.95969847  18.92347611
4228.00 -42.99783711  18.94784077
4230.00 -43.03598367  18.97222320
4232.00 -43.07413813  18.99662341
4234.00 -43.11230048  19.02104140
4236.00 -43.15047072  19.04547717
4238.00 -43.18864884  19.06993071
4240.00 -43.22683481  19.09440204
4242.00 -43.26502864  19.11889114
4244.00 -43.30323031  19.14339803
4246.00 -43.34143982  19.16792269
4248.00 -43.37965714  19.19246514
4250.00 -43.41788228  19.21702536
4252.00 -43.45611522  19.24160337
4254.00 -43.49435596  19.26619916
4256.00 -43.53260447  19.29081273
4258.00 -43.57086075  19.31544408
4260.00 -43.60912479  19.34009321
4262.00 -43.64739659  19.36476013
4264.00 -43.68567612  19.38944483
4266.00 -43.72396338  19.41414731
4268.00 -43.76225837  19.43886757
4270.00 -43.80056106  19.46360562
4272.00 -43.83887145  19.48836145
4274.00 -43.87718952  19.51313506
4276.00 -43.91551528  19.53792646
4278.00 -43.95384870  19.56273564
4280.00 -43.99218978  19.58756261
4282.00 -44.03053851  19.61240736
4284.00 -44.06889488  19.63726990
4286.00 -44.10725887  19.66215022
4288.00 -44.14563048  19.68704832
4290.00 -44.18400969  19.71196421
4292.00 -44.22239650  19.73689789
4294.00 -44.26079090  19.76184935
4296.00 -44.29919287  19.78681860
4298.00 -44.33760240  19.81180563
4300.00 -44.37601950  19.83681045
4302.00 -44.41444413  19.86183305
4304.00 -44.45287630  19.88687344
4306.00 -44.49131600  19.91193162
4308.00 -44.52976320  19.93700758
4310.00 -44.56821792  19.96210133
4312.00 -44.60668012  19.98721287
4314.00 -44.64514981  20.01234219
4316.00 -44.68362697  20.03748930
4318.00 -44.72211159  20.06265419
4320.00 -44.76060367  20.08783688
4322.00 -44.79910319  20.11303734
4324.00 -44.83761014  20.13825560
4326.00 -44.87612451  20.16349164
4328.00 -44.91464630  20.18874547
4330.00 -44.95317548  20.21401709
4332.00 -44.99171206  20.23930649
4334.00 -45.03025602  20.26461368
4336.00 -45.06880735  20.28993866
4338.00 -45.10736604  20.31528142
4340.00 -45.14593208  20.34064198
4342.00 -45.18450546  20.36602031
4344.00 -45.22308617  20.39141644
4346.00 -45.26167420  20.41683035
4348.00 -45.30026954  20.44226205
4350.00 -45.33887218  20.46771154
4352.00 -45.37748211  20.49317881
4354.00 -45.41609931  20.51866387
4356.00 -45.45472379  20.54416671
4358.00 -45.49335553  20.56968735
4360.00 -45.53199451  20.59522576
4362.00 -45.57064073  20.62078197
4364.00 -45.60929418  20.64635596
4366.00 -45.64795485  20.67194774
4368.00 -45.68662273  20.69755730
4370.00 -45.72529781  20.72318465
4372.00 -45.76398007  20.74882979
4374.00 -45.80266951  20.77449271
4376.00 -45.84136612  20.80017342
4378.00 -45.88006988  20.82587191
4380.00 -45.91878079  20.85158819
4382.00 -45.95749884  20.87732225
4384.00 -45.99622402  20.90307410
4386.00 -46.03495631  20.92884374
4388.00 -46.07369571  20.95463116
4390.00 -46.11244221  20.98043636
4392.00 -46.15119579  21.00625935
4394.00 -46.18995645  21.03210012
4396.00 -46.22872417  21.05795867
4398.00 -46.26749895  21.08383501
4400.00 -46.30628078  21.10972914
4402.00 -46.34506964  21.13564104
4404.00 -46.38386553  21.16157073
4406.00 -46.42266843  21.18751821
4408.00 -46.46147834  21.21348346
4410.00 -46.50029524  21.23946650
4412.00 -46.53911913  21.26546732
4414.00 -46.57795000  21.29148592
4416.00 -46.61678783  21.31752231
4418.00 -46.65563261  21.34357648
4420.00 -46.69448434  21.36964842
4422.00 -46.73334301  21.39573815
4424.00 -46.77220860  21.42184566
4426.00 -46.81108110  21.44797095
4428.00 -46.84996051  21.47411402
4430.00 -46.88884681  21.50027487
4432.00 -46.92774000  21.52645349
4434.00 -46.96664006  21.55264990
4436.00 -47.00554699  21.57886409
4438.00 -47.04446077  21.60509605
4440.00 -47.08338140  21.63134580
4442.00 -47.12230886  21.65761332
4444.00 -47.16124314  21.68389862
4446.00 -47.20018424  21.71020169
4448.00 -47.23913214  21.73652254
4450.00 -47.27808684  21.76286117
4452.00 -47.31704832  21.78921758
4454.00 -47.35601657  21.81559176
4456.00 -47.39499159  21.84198371
4458.00 -47.43397337  21.86839345
4460.00 -47.47296188  21.89482095
4462.00 -47.51195713  21.92126623
4464.00 -47.55095911  21.94772928
4466.00 -47.58996780  21.97421011
4468.00 -47.62898319  22.00070871
4470.00 -47.66800527  22.02722508
4472.00 -47.70703404  22.05375922
4474.00 -47.74606949  22.08031114
4476.00 -47.78511160  22.10688082
4478.00 -47.82416036  22.13346828
4480.00 -47.86321576  22.16007351
4482.00 -47.90227780  22.18669650
4484.00 -47.94134647  22.21333727
4486.00 -47.98042174  22.23999580
4488.00 -48.01950362  22.26667210
4490.00 -48.05859210  22.29336617
4492.00 -48.09768716  22.32007801
4494.00 -48.13678879  22.34680762
4496.00 -48.17589699  22.37355499
4498.00 -48.21501174  22.40032012
4500.00 -48.25413304  22.42710302
4502.00 -48.29326087  22.45390369
4504.00 -48.33239522  22.48072212
4506.00 -48.37153609  22.50755831
4508.00 -48.41068346  22.53441227
4510.00 -48.44983733  22.56128399
4512.00 -48.48899768  22.58817347
4514.00 -48.52816451  22.61508071
4516.00 -48.56733780  22.64200571
4518.00 -48.60651755  22.66894848
4520.00 -48.64570374  22.69590900
4522.00 -48.68489636  22.72288728
4524.00 -48.72409541  22.74988332
4526.00 -48.76330088  22.77689712
4528.00 -48.80251275  22.80392867
4530.00 -48.84173101  22.83097799
4532.00 -48.88095566  22.85804505
4534.00 -48.92018669  22.88512988
4536.00 -48.95942408  22.91223245
4538.00 -48.99866783  22.93935279
4540.00 -49.03791792  22.96649087
4542.00 -49.07717435  22.99364671
4544.00 -49.11643710  23.02082030
4546.00 -49.15570617  23.04801164
4548.00 -49.19498155  23.07522073
4550.00 -49.23426322  23.10244757
4552.00 -49.27355118  23.12969216
4554.00 -49.31284541  23.15695450
4556.00 -49.35214591  23.18423459
4558.00 -49.39145267  23.21153242
4560.00 -49.43076568  23.23884800
4562.00 -49.47008492  23.26618133
4564.00 -49.50941039  23.29353240
4566.00 -49.54874207  23.32090122
4568.00 -49.58807997  23.34828778
4570.00 -49.62742406  23.37569208
4572.00 -49.66677434  23.40311413
4574.00 -49.70613079  23.43055391
4576.00 -49.74549342  23.45801144
4578.00 -49.78486220  23.48548671
4580.00 -49.82423713  23.51297971
4582.00 -49.86361820  23.54049046
4584.00 -49.90300540  23.56801894
4586.00 -49.94239872  23.59556516
4588.00 -49.98179814  23.62312911
4590.00 -50.02120367  23.65071080
4592.00 -50.06061528  23.67831023
4594.00 -50.10003298  23.70592738
4596.00 -50.13945674  23.73356227
4598.00 -50.17888657  23.76121490
4600.00 -50.21832244  23.78888525
4602.00 -50.25776436  23.81657333
4604.00 -50.29721230  23.84427914
4606.00 -50.33666627  23.87200268
4608.00 -50.37612625  23.89974395
4610.00 -50.41559223  23.92750295
4612.00 -50.45506420  23.95527967
4614.00 -50.49454215  23.98307411
4616.00 -50.53402607  24.01088628
4618.00 -50.57351596  24.03871618
4620.00 -50.61301180  24.06656379
4622.00 -50.65251358  24.09442913
4624.00 -50.69202129  24.12231219
4626.00 -50.73153493  24.15021297
4628.00 -50.77105448  24.17813146
4630.00 -50.81057993  24.20606768
4632.00 -50.85011128  24.23402161
4634.00 -50.88964851  24.26199325
4636.00 -50.92919162  24.28998261
4638.00 -50.96874059  24.31798969
4640.00 -51.00829541  24.34601448
4642.00 -51.04785608  24.37405698
4644.00 -51.08742259  24.40211719
4646.00 -51.12699492  24.43019511
4648.00 -51.16657307  24.45829074
4650.00 -51.20615702  24.48640408
4652.00 -51.24574678  24.51453513
4654.00 -51.28534231  24.54268388
4656.00 -51.32494363  24.57085034
4658.00 -51.36455071  24.59903450
4660.00 -51.40416355  24.62723637
4662.00 -51.44378214  24.65545594
4664.00 -51.48340646  24.68369321
4666.00 -51.52303652  24.71194818
4668.00 -51.56267229  24.74022084
4670.00 -51.60231378  24.76851121
4672.00 -51.64196096  24.79681927
4674.00 -51.68161383  24.82514503
4676.00 -51.72127238  24.85348849
4678.00 -51.76093661  24.88184963
4680.00 -51.80060649  24.91022847
4682.00 -51.84028203  24.93862501
4684.00 -51.87996321  24.96703923
4686.00 -51.91965001  24.99547114
4688.00 -51.95934245  25.02392074
4690.00 -51.99904049  25.05238803
4692.00 -52.03874414  25.08087301
4694.00 -52.07845338  25.10937567
4696.00 -52.11816820  25.13789601
4698.00 -52.15788860  25.16643404
4700.00 -52.19761456  25.19498974
4702.00 -52.23734608  25.22356313
4704.00 -52.27708314  25.25215420
4706.00 -52.31682574  25.28076295
4708.00 -52.35657387  25.30938937
4710.00 -52.39632751  25.33803347
4712.00 -52.43608666  25.36669525
4714.00 -52.47585130  25.39537469
4716.00 -52.51562143  25.42407181
4718.00 -52.55539704  25.45278661
4720.00 -52.59517812  25.48151907
4722.00 -52.63496466  25.51026920
4724.00 -52.67475664  25.53903700
4726.00 -52.71455407  25.56782246
4728.00 -52.75435693  25.59662559
4730.00 -52.79416520  25.62544639
4732.00 -52.83397889  25.65428485
4734.00 -52.87379798  25.68314097
4736.00 -52.91362246  25.71201475
4738.00 -52.95345232  25.74090618
4740.00 -52.99328756  25.76981528
4742.00 -53.03312815  25.79874203
4744.00 -53.07297411  25.82768644
4746.00 -53.11282540  25.85664851
4748.00 -53.15268203  25.88562822
4750.00 -53.19254398  25.91462559
4752.00 -53.23241125  25.94364061
4754.00 -53.27228383  25.97267327
4756.00 -53.31216170  26.00172359
4758.00 -53.35204486  26.03079155
4760.00 -53.39193329  26.05987716
4762.00 -53.43182700  26.08898041
4764.00 -53.47172596  26.11810130
4766.00 -53.51163017  26.14723983
4768.00 -53.55153962  26.17639601
4770.00 -53.59145430  26.20556982
4772.00 -53.63137419  26.23476127
4774.00 -53.67129930  26.26397035
4776.00 -53.71122961  26.29319707
4778.00 -53.75116512  26.32244143
4780.00 -53.79110580  26.35170341
4782.00 -53.83105166  26.38098303
4784.00 -53.87100268  26.41028027
4786.00 -53.91095885  26.43959514
4788.00 -53.95092017  26.46892764
4790.00 -53.99088662  26.49827776
4792.00 -54.03085820  26.52764551
4794.00 -54.07083489  26.55703088
4796.00 -54.11081669  26.58643387
4798.00 -54.15080358  26.61585448
4800.00 -54.19079557  26.64529271
4802.00 -54.23079263  26.67474855
4804.00 -54.27079476  26.70422201
4806.00 -54.31080195  26.73371308
4808.00 -54.35081419  26.76322177
4810.00 -54.39083147  26.79274806
4812.00 -54.43085378  26.82229197
4814.00 -54.47088111  26.85185348
4816.00 -54.51091345  26.88143260
4818.00 -54.55095080  26.91102933
4820.00 -54.59099313  26.94064365
4822.00 -54.63104046  26.97027558
4824.00 -54.67109275  26.99992511
4826.00 -54.71115001  27.02959224
4828.00 -54.75121223  27.05927697
4830.00 -54.79127939  27.08897929
4832.00 -54.83135149  27.11869921
4834.00 -54.87142852  27.14843672
4836.00 -54.91151046  27.17819182
4838.00 -54.95159732  27.20796452
4840.00 -54.99168907  27.23775480
4842.00 -55.03178571  27.26756267
4844.00 -55.07188723  27.29738812
4846.00 -55.11199362  27.32723116
4848.00 -55.15210488  27.35709178
4850.00 -55.19222098  27.38696998
4852.00 -55.23234193  27.41686576
4854.00 -55.27246772  27.44677911
4856.00 -55.31259832  27.47671005
4858.00 -55.35273375  27.50665855
4860.00 -55.39287397  27.53662464
4862.00 -55.43301900  27.56660829
4864.00 -55.47316881  27.59660951
4866.00 -55.51332340  27.62662830
4868.00 -55.55348275  27.65666466
4870.00 -55.59364687  27.68671858
4872.00 -55.63381573  27.71679006
4874.00 -55.67398934  27.74687911
4876.00 -55.71416767  27.77698572
4878.00 -55.75435073  27.80710988
4880.00 -55.79453850  27.83725161
4882.00 -55.83473097  27.86741088
4884.00 -55.87492814  27.89758772
4886.00 -55.91512999  27.92778210
4888.00 -55.95533651  27.95799403
4890.00 -55.99554771  27.98822352
4892.00 -56.03576355  28.01847054
4894.00 -56.07598405  28.04873512
4896.00 -56.11620918  28.07901724
4898.00 -56.15643894  28.10931690
4900.00 -56.19667332  28.13963410
4902.00 -56.23691232  28.16996884
4904.00 -56.27715591  28.20032111
4906.00 -56.31740409  28.23069092
4908.00 -56.35765686  28.26107827
4910.00 -56.39791420  28.29148314
4912.00 -56.43817610  28.32190555
4914.00 -56.47844256  28.35234549
4916.00 -56.51871356  28.38280295
4918.00 -56.55898910  28.41327793
4920.00 -56.59926917  28.44377044
4922.00 -56.63955375  28.47428047
4924.00 -56.67984284  28.50480802
4926.00 -56.72013643  28.53535309
4928.00 -56.76043452  28.56591567
4930.00 -56.80073708  28.59649577
4932.00 -56.84104411  28.62709338
4934.00 -56.88135561  28.65770851
4936.00 -56.92167156  28.68834114
4938.00 -56.96199195  28.71899128
4940.00 -57.00231678  28.74965892
4942.00 -57.04264604  28.78034407
4944.00 -57.08297971  28.81104671
4946.00 -57.12331778  28.84176686
4948.00 -57.16366026  28.87250451
4950.00 -57.20400713  28.90325965
4952.00 -57.24435837  28.93403229
4954.00 -57.28471399  28.96482242
4956.00 -57.32507396  28.99563005
4958.00 -57.36543829  29.02645516
4960.00 -57.40580696  29.05729775
4962.00 -57.44617997  29.08815784
4964.00 -57.48655730  29.11903541
4966.00 -57.52693895  29.14993045
4968.00 -57.56732490  29.18084298
4970.00 -57.60771515  29.21177299
4972.00 -57.64810969  29.24272047
4974.00 -57.68850851  29.27368543
4976.00 -57.72891160  29.30466786
4978.00 -57.76931895  29.33566776
4980.00 -57.80973055  29.36668513
4982.00 -57.85014639  29.39771996
4984.00 -57.89056647  29.42877226
4986.00 -57.93099077  29.45984202
4988.00 -57.97141929  29.49092925
4990.00 -58.01185201  29.52203393
4992.00 -58.05228893  29.55315607
4994.00 -58.09273004  29.58429566
4996.00 -58.13317533  29.61545271
4998.00 -58.17362479  29.64662721
5000.00 -58.21407840  29.67781915
