wavelength(nm)         real         imag
100.00   3.80221755   0.00093440
102.00   3.79826751   0.00099159
104.00   3.79423929   0.00105107
106.00   3.79013288   0.00111287
108.00   3.78594828   0.00117706
110.00   3.78168550   0.00124366
112.00   3.77734454   0.00131273
114.00   3.77292540   0.00138432
116.00   3.76842809   0.00145846
118.00   3.76385259   0.00153519
120.00   3.75919893   0.00161458
122.00   3.75446709   0.00169665
124.00   3.74965708   0.00178146
126.00   3.74476891   0.00186905
128.00   3.73980257   0.00195946
130.00   3.73475807   0.00205275
132.00   3.72963541   0.00214894
134.00   3.72443458   0.00224810
136.00   3.71915561   0.00235026
138.00   3.71379848   0.00245547
140.00   3.70836319   0.00256377
142.00   3.70284976   0.00267521
144.00   3.69725818   0.00278983
146.00   3.69158846   0.00290768
148.00   3.68584060   0.00302880
150.00   3.68001459   0.00315324
152.00   3.67411045   0.00328104
154.00   3.66812818   0.00341225
156.00   3.66206777   0.00354691
158.00   3.65592924   0.00368506
160.00   3.64971258   0.00382676
162.00   3.64341779   0.00397204
164.00   3.63704489   0.00412095
166.00   3.63059386   0.00427354
168.00   3.62406473   0.00442984
170.00   3.61745747   0.00458992
172.00   3.61077212   0.00475380
174.00   3.60400865   0.00492153
176.00   3.59716708   0.00509316
178.00   3.59024741   0.00526874
180.00   3.58324964   0.00544831
182.00   3.57617378   0.00563191
184.00   3.56901983   0.00581958
186.00   3.56178779   0.00601138
188.00   3.55447766   0.00620735
190.00   3.54708945   0.00640752
192.00   3.53962317   0.00661196
194.00   3.53207881   0.00682069
196.00   3.52445637   0.00703377
198.00   3.51675587   0.00725125
200.00   3.50897730   0.00747315
202.00   3.50112068   0.00769954
204.00   3.49318599   0.00793045
206.00   3.48517325   0.00816593
208.00   3.47708245   0.00840603
210.00   3.46891361   0.00865079
212.00   3.46066673   0.00890024
214.00   3.45234180   0.00915445
216.00   3.44393884   0.00941345
218.00   3.43545784   0.00967729
220.00   3.42689881   0.00994600
222.00   3.41826176   0.01021965
224.00   3.40954669   0.01049827
226.00   3.40075360   0.01078190
228.00   3.39188249   0.01107059
230.00   3.38293337   0.01136439
232.00   3.37390625   0.01166334
234.00   3.36480112   0.01196749
236.00   3.35561800   0.01227687
238.00   3.34635688   0.01259154
240.00   3.33701777   0.01291153
242.00   3.32760067   0.01323690
244.00   3.31810559   0.01356769
246.00   3.30853253   0.01390394
248.00   3.29888150   0.01424570
250.00   3.28915250   0.01459301
252.00   3.27934553   0.01494591
254.00   3.26946060   0.01530446
256.00   3.25949772   0.01566869
258.00   3.24945688   0.01603865
260.00   3.23933809   0.01641438
262.00   3.22914136   0.01679594
264.00   3.21886669   0.01718336
266.00   3.20851409   0.01757668
268.00   3.19808355   0.01797596
270.00   3.18757509   0.01838124
272.00   3.17698871   0.01879256
274.00   3.16632441   0.01920996
276.00   3.15558220   0.01963350
278.00   3.14476209   0.02006321
280.00   3.13386407   0.02049915
282.00   3.12288815   0.02094135
284.00   3.11183434   0.02138985
286.00   3.10070264   0.02184471
288.00   3.08949306   0.02230597
290.00   3.07820560   0.02277367
292.00   3.06684027   0.02324786
294.00   3.05539707   0.02372859
296.00   3.04387600   0.02421588
298.00   3.03227708   0.02470980
300.00   3.02060030   0.02521039
302.00   3.00884568   0.02571768
304.00   2.99701321   0.02623173
306.00   2.98510291   0.02675258
308.00   2.97311477   0.02728027
310.00   2.96104880   0.02781485
312.00   2.94890502   0.02835636
314.00   2.93668341   0.02890484
316.00   2.92438400   0.02946035
318.00   2.91200678   0.03002293
320.00   2.89955176   0.03059261
322.00   2.88701894   0.03116945
324.00   2.87440833   0.03175349
326.00   2.86171994   0.03234477
328.00   2.84895377   0.03294334
330.00   2.83610983   0.03354924
332.00   2.82318812   0.03416252
334.00   2.81018865   0.03478322
336.00   2.79711142   0.03541138
338.00   2.78395644   0.03604705
340.00   2.77072372   0.03669028
342.00   2.75741325   0.03734111
344.00   2.74402506   0.03799958
346.00   2.73055914   0.03866574
348.00   2.71701549   0.03933963
350.00   2.70339413   0.04002129
352.00   2.68969506   0.04071078
354.00   2.67591829   0.04140813
356.00   2.66206382   0.04211339
358.00   2.64813166   0.04282660
360.00   2.63412181   0.04354781
362.00   2.62003429   0.04427707
364.00   2.60586909   0.04501441
366.00   2.59162622   0.04575988
368.00   2.57730570   0.04651352
370.00   2.56290751   0.04727539
372.00   2.54843169   0.04804552
374.00   2.53387821   0.04882395
376.00   2.51924711   0.04961074
378.00   2.50453837   0.05040593
380.00   2.48975202   0.05120956
382.00   2.47488804   0.05202167
384.00   2.45994646   0.05284231
386.00   2.44492727   0.05367153
388.00   2.42983049   0.05450936
390.00   2.41465611   0.05535585
392.00   2.39940415   0.05621106
394.00   2.38407462   0.05707501
396.00   2.36866752   0.05794775
398.00   2.35318285   0.05882934
400.00   2.33762063   0.05971981
402.00   2.32198085   0.06061921
404.00   2.30626354   0.06152758
406.00   2.29046868   0.06244496
408.00   2.27459630   0.06337141
410.00   2.25864640   0.06430695
412.00   2.24261898   0.06525165
414.00   2.22651405   0.06620554
416.00   2.21033162   0.06716867
418.00   2.19407170   0.06814108
420.00   2.17773429   0.06912281
422.00   2.16131939   0.07011391
424.00   2.14482703   0.07111443
426.00   2.12825720   0.07212440
428.00   2.11160991   0.07314387
430.00   2.09488518   0.07417289
432.00   2.07808299   0.07521150
434.00   2.06120337   0.07625975
436.00   2.04424632   0.07731767
438.00   2.02721185   0.07838531
440.00   2.01009997   0.07946272
442.00   1.99291068   0.08054994
444.00   1.97564399   0.08164702
446.00   1.95829990   0.08275399
448.00   1.94087844   0.08387091
450.00   1.92337959   0.08499781
452.00   1.90580338   0.08613474
454.00   1.88814980   0.08728175
456.00   1.87041888   0.08843887
458.00   1.85261060   0.08960616
460.00   1.83472499   0.09078365
462.00   1.81676205   0.09197140
464.00   1.79872178   0.09316944
466.00   1.78060420   0.09437782
468.00   1.76240931   0.09559658
470.00   1.74413713   0.09682576
472.00   1.72578765   0.09806542
474.00   1.70736089   0.09931559
476.00   1.68885685   0.10057632
478.00   1.67027555   0.10184765
480.00   1.65161699   0.10312963
482.00   1.63288118   0.10442230
484.00   1.61406812   0.10572570
486.00   1.59517783   0.10703988
488.00   1.57621032   0.10836489
490.00   1.55716558   0.10970075
492.00   1.53804364   0.11104753
494.00   1.51884450   0.11240526
496.00   1.49956816   0.11377399
498.00   1.48021464   0.11515376
500.00   1.46078394   0.11654461
502.00   1.44127608   0.11794660
504.00   1.42169106   0.11935975
506.00   1.40202888   0.12078413
508.00   1.38228956   0.12221976
510.00   1.36247311   0.12366670
512.00   1.34257954   0.12512498
514.00   1.32260885   0.12659466
516.00   1.30256105   0.12807577
518.00   1.28243615   0.12956836
520.00   1.26223417   0.13107248
522.00   1.24195510   0.13258816
524.00   1.22159896   0.13411545
526.00   1.20116575   0.13565440
528.00   1.18065549   0.13720505
530.00   1.16006819   0.13876743
532.00   1.13940385   0.14034161
534.00   1.11866248   0.14192761
536.00   1.09784409   0.14352548
538.00   1.07694869   0.14513528
540.00   1.05597630   0.14675703
542.00   1.03492691   0.14839078
544.00   1.01380053   0.15003659
546.00   0.99259719   0.15169448
548.00   0.97131688   0.15336451
550.00   0.94995962   0.15504672
552.00   0.92852541   0.15674115
554.00   0.90701426   0.15844785
556.00   0.88542619   0.16016685
558.00   0.86376120   0.16189821
560.00   0.84201930   0.16364197
562.00   0.82020051   0.16539817
564.00   0.79830482   0.16716685
566.00   0.77633226   0.16894806
568.00   0.75428283   0.17074183
570.00   0.73215653   0.17254823
572.00   0.70995339   0.17436728
574.00   0.68767340   0.17619903
576.00   0.66531658   0.17804353
578.00   0.64288294   0.17990082
580.00   0.62037249   0.18177094
582.00   0.59778524   0.18365393
584.00   0.57512119   0.18554985
586.00   0.55238036   0.18745872
588.00   0.52956276   0.18938061
590.00   0.50666840   0.19131554
592.00   0.48369728   0.19326357
594.00   0.46064942   0.19522473
596.00   0.43752483   0.19719907
598.00   0.41432352   0.19918663
600.00   0.39104549   0.20118747
602.00   0.36769076   0.20320161
604.00   0.34425933   0.20522910
606.00   0.32075123   0.20727000
608.00   0.29716645   0.20932433
610.00   0.27350501   0.21139215
612.00   0.24976692   0.21347349
614.00   0.22595219   0.21556841
616.00   0.20206083   0.21767693
618.00   0.17809284   0.21979912
620.00   0.15404825   0.22193500
622.00   0.12992705   0.22408463
624.00   0.10572927   0.22624805
626.00   0.08145491   0.22842529
628.00   0.05710398   0.23061641
630.00   0.03267649   0.23282145
632.00   0.00817245   0.23504044
634.00  -0.01640812   0.23727344
636.00  -0.04106522   0.23952049
638.00  -0.06579883   0.24178163
640.00  -0.09060895   0.24405689
642.00  -0.11549556   0.24634634
644.00  -0.14045865   0.24865000
646.00  -0.16549822   0.25096793
648.00  -0.19061425   0.25330016
650.00  -0.21580672   0.25564674
652.00  -0.24107564   0.25800772
654.00  -0.26642099   0.26038312
656.00  -0.29184275   0.26277301
658.00  -0.31734092   0.26517742
660.00  -0.34291549   0.26759639
662.00  -0.36856644   0.27002997
664.00  -0.39429376   0.27247820
666.00  -0.42009744   0.27494113
668.00  -0.44597748   0.27741879
670.00  -0.47193386   0.27991123
672.00  -0.49796656   0.28241849
674.00  -0.52407558   0.28494062
676.00  -0.55026091   0.28747766
678.00  -0.57652253   0.29002965
680.00  -0.60286044   0.29259664
682.00  -0.62927462   0.29517866
684.00  -0.65576505   0.29777577
686.00  -0.68233174   0.30038800
688.00  -0.70897467   0.30301539
690.00  -0.73569382   0.30565800
692.00  -0.76248918   0.30831586
694.00  -0.78936075   0.31098901
696.00  -0.81630851   0.31367751
698.00  -0.84333245   0.31638138
700.00  -0.87043255   0.31910068
702.00  -0.89760881   0.32183545
704.00  -0.92486122   0.32458573
706.00  -0.95218976   0.32735156
708.00  -0.97959442   0.33013298
710.00  -1.00707519   0.33293005
712.00  -1.03463205   0.33574280
714.00  -1.06226500   0.33857127
716.00  -1.08997403   0.34141551
718.00  -1.11775911   0.34427555
720.00  -1.14562025   0.34715146
722.00  -1.17355742   0.35004325
724.00  -1.20157062   0.35295099
726.00  -1.22965982   0.35587471
728.00  -1.25782503   0.35881445
730.00  -1.28606623   0.36177025
732.00  -1.31438341   0.36474217
734.00  -1.34277655   0.36773024
736.00  -1.37124564   0.37073450
738.00  -1.39979067   0.37375500
740.00  -1.42841163   0.37679178
742.00  -1.45710850   0.37984488
744.00  -1.48588128   0.38291435
746.00  -1.51472995   0.38600023
748.00  -1.54365449   0.38910256
750.00  -1.57265490   0.39222138
752.00  -1.60173116   0.39535673
754.00  -1.63088326   0.39850867
756.00  -1.66011119   0.40167722
758.00  -1.68941494   0.40486244
760.00  -1.71879448   0.40806437
762.00  -1.74824982   0.41128304
764.00  -1.77778093   0.41451851
766.00  -1.80738781   0.41777080
768.00  -1.83707044   0.42103998
770.00  -1.86682881   0.42432607
772.00  -1.89666290   0.42762913
774.00  -1.92657271   0.43094919
776.00  -1.95655822   0.43428629
778.00  -1.98661941   0.43764048
780.00  -2.01675628   0.44101181
782.00  -2.04696881   0.44440030
784.00  -2.07725698   0.44780602
786.00  -2.10762080   0.45122899
788.00  -2.13806023   0.45466926
790.00  -2.16857527   0.45812687
792.00  -2.19916591   0.46160187
794.00  -2.22983213   0.46509430
796.00  -2.26057392   0.46860420
798.00  -2.29139127   0.47213161
800.00  -2.32228416   0.47567657
802.00  -2.35325258   0.47923913
804.00  -2.38429651   0.48281933
806.00  -2.41541595   0.48641721
808.00  -2.44661088   0.49003282
810.00  -2.47788128   0.49366619
812.00  -2.50922715   0.49731737
814.00  -2.54064846   0.50098640
816.00  -2.57214521   0.50467332
818.00  -2.60371738   0.50837818
820.00  -2.63536496   0.51210101
822.00  -2.66708794   0.51584186
824.00  -2.69888630   0.51960078
826.00  -2.73076002   0.52337779
828.00  -2.76270910   0.52717296
830.00  -2.79473351   0.53098631
832.00  -2.82683326   0.53481789
834.00  -2.85900831   0.53866774
836.00  -2.89125867   0.54253590
838.00  -2.92358431   0.54642242
840.00  -2.95598521   0.55032734
842.00  -2.98846138   0.55425070
844.00  -3.02101279   0.55819255
846.00  -3.05363943   0.56215291
848.00  -3.08634128   0.56613184
850.00  -3.11911833   0.57012938
852.00  -3.15197058   0.57414557
854.00  -3.18489799   0.57818045
856.00  -3.21790056   0.58223407
858.00  -3.25097827   0.58630646
860.00  -3.28413112   0.59039767
862.00  -3.31735908   0.59450774
864.00  -3.35066214   0.59863671
866.00  -3.38404029   0.60278462
868.00  -3.41749352   0.60695152
870.00  -3.45102180   0.61113745
872.00  -3.48462512   0.61534244
874.00  -3.51830348   0.61956655
876.00  -3.55205685   0.62380981
878.00  -3.58588522   0.62807226
880.00  -3.61978858   0.63235395
882.00  -3.65376691   0.63665492
884.00  -3.68782019   0.64097520
886.00  -3.72194842   0.64531485
888.00  -3.75615158   0.64967390
890.00  -3.79042965   0.65405240
892.00  -3.82478262   0.65845038
894.00  -3.85921047   0.66286789
896.00  -3.89371319   0.66730498
898.00  -3.92829077   0.67176167
900.00  -3.96294318   0.67623801
902.00  -3.99767042   0.68073405
904.00  -4.03247247   0.68524983
906.00  -4.06734931   0.68978539
908.00  -4.10230094   0.69434076
910.00  -4.13732732   0.69891600
912.00  -4.17242846   0.70351114
914.00  -4.20760433   0.70812622
916.00  -4.24285492   0.71276129
918.00  -4.27818022   0.71741639
920.00  -4.31358021   0.72209155
922.00  -4.34905487   0.72678683
924.00  -4.38460419   0.73150225
926.00  -4.42022815   0.73623788
928.00  -4.45592674   0.74099373
930.00  -4.49169995   0.74576986
932.00  -4.52754775   0.75056631
934.00  -4.56347014   0.75538312
936.00  -4.59946709   0.76022033
938.00  -4.63553859   0.76507798
940.00  -4.67168463   0.76995611
942.00  -4.70790520   0.77485477
944.00  -4.74420026   0.77977400
946.00  -4.78056982   0.78471383
948.00  -4.81701385   0.78967431
950.00  -4.85353234   0.79465547
952.00  -4.89012528   0.79965737
954.00  -4.92679264   0.80468005
956.00  -4.96353441   0.80972353
958.00  -5.00035058   0.81478787
960.00  -5.03724113   0.81987311
962.00  -5.07420605   0.82497928
964.00  -5.11124531   0.83010643
966.00  -5.14835891   0.83525461
968.00  -5.18554682   0.84042384
970.00  -5.22280903   0.84561417
972.00  -5.26014553   0.85082565
974.00  -5.29755630   0.85605831
976.00  -5.33504133   0.86131219
978.00  -5.37260059   0.86658734
980.00  -5.41023407   0.87188380
982.00  -5.44794176   0.87720161
984.00  -5.48572363   0.88254080
986.00  -5.52357968   0.88790143
988.00  -5.56150989   0.89328353
990.00  -5.59951423   0.89868714
992.00  -5.63759271   0.90411230
994.00  -5.67574529   0.90955906
996.00  -5.71397196   0.91502745
998.00  -5.75227270   0.92051752
1000.00  -5.79064751   0.92602931
1002.00  -5.82909636   0.93156285
1004.00  -5.86761924   0.93711819
1006.00  -5.90621612   0.94269537
1008.00  -5.94488700   0.94829443
1010.00  -5.98363186   0.95391542
1012.00  -6.02245068   0.95955836
1014.00  -6.06134344   0.96522331
1016.00  -6.10031013   0.97091030
1018.00  -6.13935073   0.97661938
1020.00  -6.17846523   0.98235058
1022.00  -6.21765360   0.98810395
1024.00  -6.25691583   0.99387953
1026.00  -6.29625191   0.99967735
1028.00  -6.33566182   1.00549746
1030.00  -6.37514553   1.01133990
1032.00  -6.41470304   1.01720471
1034.00  -6.45433433   1.02309192
1036.00  -6.49403938   1.02900159
1038.00  -6.53381817   1.03493375
1040.00  -6.57367069   1.04088845
1042.00  -6.61359691   1.04686571
1044.00  -6.65359683   1.05286559
1046.00  -6.69367043   1.05888812
1048.00  -6.73381768   1.06493335
1050.00  -6.77403857   1.07100131
1052.00  -6.81433309   1.07709204
1054.00  -6.85470122   1.08320559
1056.00  -6.89514293   1.08934200
1058.00  -6.93565822   1.09550131
1060.00  -6.97624706   1.10168355
1062.00  -7.01690944   1.10788877
1064.00  -7.05764535   1.11411700
1066.00  -7.09845475   1.12036830
1068.00  -7.13933764   1.12664269
1070.00  -7.18029400   1.13294022
1072.00  -7.22132382   1.13926093
1074.00  -7.26242706   1.14560487
1076.00  -7.30360373   1.15197206
1078.00  -7.34485379   1.15836255
1080.00  -7.38617723   1.16477638
1082.00  -7.42757404   1.17121359
1084.00  -7.46904419   1.17767423
1086.00  -7.51058768   1.18415832
1088.00  -7.55220447   1.19066592
1090.00  -7.59389456   1.19719706
1092.00  -7.63565792   1.20375178
1094.00  -7.67749454   1.21033012
1096.00  -7.71940441   1.21693212
1098.00  -7.76138749   1.22355783
1100.00  -7.80344378   1.23020728
1102.00  -7.84557326   1.23688051
1104.00  -7.88777590   1.24357756
1106.00  -7.93005170   1.25029848
1108.00  -7.97240063   1.25704330
1110.00  -8.01482268   1.26381206
1112.00  -8.05731782   1.27060481
1114.00  -8.09988605   1.27742157
1116.00  -8.14252733   1.28426240
1118.00  -8.18524166   1.29112734
1120.00  -8.22802901   1.29801641
1122.00  -8.27088937   1.30492967
1124.00  -8.31382272   1.31186715
1126.00  -8.35682904   1.31882889
1128.00  -8.39990831   1.32581494
1130.00  -8.44306051   1.33282532
1132.00  -8.48628564   1.33986009
1134.00  -8.52958366   1.34691928
1136.00  -8.57295456   1.35400293
1138.00  -8.61639832   1.36111109
1140.00  -8.65991492   1.36824378
1142.00  -8.70350435   1.37540106
1144.00  -8.74716658   1.38258295
1146.00  -8.79090160   1.38978951
1148.00  -8.83470939   1.39702076
1150.00  -8.87858993   1.40427676
1152.00  -8.92254320   1.41155753
1154.00  -8.96656919   1.41886313
1156.00  -9.01066786   1.42619358
1158.00  -9.05483922   1.43354893
1160.00  -9.09908323   1.44092922
1162.00  -9.14339988   1.44833448
1164.00  -9.18778915   1.45576477
1166.00  -9.23225103   1.46322011
1168.00  -9.27678548   1.47070054
1170.00  -9.32139250   1.47820611
1172.00  -9.36607206   1.48573686
1174.00  -9.41082415   1.49329282
1176.00  -9.45564875   1.50087403
1178.00  -9.50054583   1.50848054
1180.00  -9.54551538   1.51611238
1182.00  -9.59055739   1.52376960
1184.00  -9.63567182   1.53145222
1186.00  -9.68085867   1.53916030
1188.00  -9.72611790   1.54689386
1190.00  -9.77144952   1.55465296
1192.00  -9.81685348   1.56243763
1194.00  -9.86232979   1.57024790
1196.00  -9.90787841   1.57808382
1198.00  -9.95349933   1.58594543
1200.00  -9.99919252   1.59383276
1202.00 -10.04495797   1.60174586
1204.00 -10.09079567   1.60968477
1206.00 -10.13670558   1.61764952
1208.00 -10.18268770   1.62564015
1210.00 -10.22874199   1.63365670
1212.00 -10.27486845   1.64169922
1214.00 -10.32106705   1.64976773
1216.00 -10.36733778   1.65786229
1218.00 -10.41368061   1.66598292
1220.00 -10.46009552   1.67412967
1222.00 -10.50658249   1.68230258
1224.00 -10.55314152   1.69050168
1226.00 -10.59977256   1.69872702
1228.00 -10.64647562   1.70697863
1230.00 -10.69325066   1.71525655
1232.00 -10.74009766   1.72356083
1234.00 -10.78701662   1.73189150
1236.00 -10.83400750   1.74024859
1238.00 -10.88107029   1.74863216
1240.00 -10.92820496   1.75704223
1242.00 -10.97541151   1.76547885
1244.00 -11.02268990   1.77394205
1246.00 -11.07004012   1.78243188
1248.00 -11.11746215   1.79094837
1250.00 -11.16495596   1.79949156
1252.00 -11.21252155   1.80806149
1254.00 -11.26015888   1.81665820
1256.00 -11.30786794   1.82528173
1258.00 -11.35564871   1.83393211
1260.00 -11.40350117   1.84260939
1262.00 -11.45142530   1.85131360
1264.00 -11.49942107   1.86004479
1266.00 -11.54748848   1.86880299
1268.00 -11.59562749   1.87758823
1270.00 -11.64383808   1.88640057
1272.00 -11.69212025   1.89524003
1274.00 -11.74047396   1.90410666
1276.00 -11.78889920   1.91300049
1278.00 -11.83739595   1.92192156
1280.00 -11.88596418   1.93086992
1282.00 -11.93460388   1.93984559
1284.00 -11.98331502   1.94884863
1286.00 -12.03209759   1.95787906
1288.00 -12.08095157   1.96693692
1290.00 -12.12987692   1.97602226
1292.00 -12.17887365   1.98513511
1294.00 -12.22794171   1.99427551
1296.00 -12.27708110   2.00344349
1298.00 -12.32629179   2.01263911
1300.00 -12.37557376   2.02186239
1302.00 -12.42492699   2.03111337
1304.00 -12.47435146   2.04039210
1306.00 -12.52384715   2.04969860
1308.00 -12.57341404   2.05903293
1310.00 -12.62305211   2.06839511
1312.00 -12.67276133   2.07778518
1314.00 -12.72254170   2.08720319
1316.00 -12.77239317   2.09664917
1318.00 -12.82231575   2.10612316
1320.00 -12.87230939   2.11562519
1322.00 -12.92237409   2.12515531
1324.00 -12.97250982   2.13471356
1326.00 -13.02271657   2.14429997
1328.00 -13.07299430   2.15391457
1330.00 -13.12334300   2.16355741
1332.00 -13.17376265   2.17322853
1334.00 -13.22425323   2.18292797
1336.00 -13.27481471   2.19265575
1338.00 -13.32544708   2.20241193
1340.00 -13.37615031   2.21219653
1342.00 -13.42692439   2.22200959
1344.00 -13.47776928   2.23185117
1346.00 -13.52868498   2.24172128
1348.00 -13.57967146   2.25161997
1350.00 -13.63072869   2.26154728
1352.00 -13.68185666   2.27150324
1354.00 -13.73305534   2.28148789
1356.00 -13.78432472   2.29150128
1358.00 -13.83566477   2.30154343
1360.00 -13.88707548   2.31161439
1362.00 -13.93855681   2.32171420
1364.00 -13.99010875   2.33184288
1366.00 -14.04173127   2.34200049
1368.00 -14.09342437   2.35218705
1370.00 -14.14518800   2.36240260
1372.00 -14.19702216   2.37264719
1374.00 -14.24892682   2.38292084
1376.00 -14.30090195   2.39322361
1378.00 -14.35294755   2.40355551
1380.00 -14.40506358   2.41391660
1382.00 -14.45725002   2.42430691
1384.00 -14.50950686   2.43472648
1386.00 -14.56183406   2.44517534
1388.00 -14.61423162   2.45565353
1390.00 -14.66669950   2.46616110
1392.00 -14.71923769   2.47669807
1394.00 -14.77184616   2.48726448
1396.00 -14.82452489   2.49786038
1398.00 -14.87727386   2.50848579
1400.00 -14.93009305   2.51914076
1402.00 -14.98298243   2.52982533
1404.00 -15.03594199   2.54053953
1406.00 -15.08897170   2.55128339
1408.00 -15.14207153   2.56205696
1410.00 -15.19524148   2.57286027
1412.00 -15.24848151   2.58369337
1414.00 -15.30179161   2.59455628
1416.00 -15.35517174   2.60544904
1418.00 -15.40862190   2.61637170
1420.00 -15.46214205   2.62732429
1422.00 -15.51573218   2.63830684
1424.00 -15.56939226   2.64931939
1426.00 -15.62312227   2.66036199
1428.00 -15.67692219   2.67143466
1430.00 -15.73079199   2.68253744
1432.00 -15.78473166   2.69367038
1434.00 -15.83874116   2.70483350
1436.00 -15.89282049   2.71602685
1438.00 -15.94696961   2.72725047
1440.00 -16.00118851   2.73850438
1442.00 -16.05547716   2.74978862
1444.00 -16.10983553   2.76110324
1446.00 -16.16426362   2.77244827
1448.00 -16.21876138   2.78382375
1450.00 -16.27332881   2.79522971
1452.00 -16.32796588   2.80666619
1454.00 -16.38267256   2.81813322
1456.00 -16.43744883   2.82963085
1458.00 -16.49229468   2.84115911
1460.00 -16.54721007   2.85271804
1462.00 -16.60219499   2.86430767
1464.00 -16.65724941   2.87592804
1466.00 -16.71237332   2.88757919
1468.00 -16.76756668   2.89926115
1470.00 -16.82282947   2.91097397
1472.00 -16.87816167   2.92271767
1474.00 -16.93356327   2.93449229
1476.00 -16.98903422   2.94629788
1478.00 -17.04457453   2.95813446
1480.00 -17.10018415   2.97000207
1482.00 -17.15586307   2.98190076
1484.00 -17.21161126   2.99383055
1486.00 -17.26742870   3.00579148
1488.00 -17.32331537   3.01778359
1490.00 -17.37927125   3.02980692
1492.00 -17.43529630   3.04186150
1494.00 -17.49139052   3.05394736
1496.00 -17.54755387   3.06606456
1498.00 -17.60378633   3.07821311
1500.00 -17.66008788   3.09039306
1502.00 -17.71645850   3.10260444
1504.00 -17.77289816   3.11484730
1506.00 -17.82940684   3.12712165
1508.00 -17.88598452   3.13942756
1510.00 -17.94263117   3.15176504
1512.00 -17.99934676   3.16413413
1514.00 -18.05613129   3.17653488
1516.00 -18.11298471   3.18896731
1518.00 -18.16990702   3.20143146
1520.00 -18.22689818   3.21392738
1522.00 -18.28395818   3.22645509
1524.00 -18.34108698   3.23901463
1526.00 -18.39828457   3.25160604
1528.00 -18.45555092   3.26422935
1530.00 -18.51288601   3.27688460
1532.00 -18.57028981   3.28957182
1534.00 -18.62776231   3.30229106
1536.00 -18.68530347   3.31504234
1538.00 -18.74291328   3.32782571
1540.00 -18.80059170   3.34064119
1542.00 -18.85833873   3.35348883
1544.00 -18.91615432   3.36636866
1546.00 -18.97403847   3.37928072
1548.00 -19.03199114   3.39222504
1550.00 -19.09001231   3.40520165
1552.00 -19.14810196   3.41821060
1554.00 -19.20626006   3.43125192
1556.00 -19.26448659   3.44432565
1558.00 -19.32278153   3.45743181
1560.00 -19.38114485   3.47057045
1562.00 -19.43957653   3.48374161
1564.00 -19.49807655   3.49694531
1566.00 -19.55664487   3.51018159
1568.00 -19.61528148   3.52345049
1570.00 -19.67398635   3.53675205
1572.00 -19.73275946   3.55008630
1574.00 -19.79160079   3.56345327
1576.00 -19.85051030   3.57685300
1578.00 -19.90948798   3.59028553
1580.00 -19.96853380   3.60375089
1582.00 -20.02764774   3.61724912
1584.00 -20.08682978   3.63078025
1586.00 -20.14607988   3.64434432
1588.00 -20.20539802   3.65794136
1590.00 -20.26478419   3.67157141
1592.00 -20.32423835   3.68523450
1594.00 -20.38376049   3.69893067
1596.00 -20.44335057   3.71265996
1598.00 -20.50300858   3.72642240
1600.00 -20.56273448   3.74021802
1602.00 -20.62252826   3.75404686
1604.00 -20.68238989   3.76790896
1606.00 -20.74231935   3.78180434
1608.00 -20.80231660   3.79573305
1610.00 -20.86238163   3.80969513
1612.00 -20.92251442   3.82369060
1614.00 -20.98271493   3.83771950
1616.00 -21.04298315   3.85178186
1618.00 -21.10331904   3.86587773
1620.00 -21.16372258   3.88000713
1622.00 -21.22419376   3.89417010
1624.00 -21.28473254   3.90836668
1626.00 -21.34533890   3.92259689
1628.00 -21.40601281   3.93686079
1630.00 -21.46675426   3.95115839
1632.00 -21.52756321   3.96548974
1634.00 -21.58843964   3.97985487
1636.00 -21.64938353   3.99425382
1638.00 -21.71039484   4.00868661
1640.00 -21.77147357   4.02315329
1642.00 -21.83261967   4.03765389
1644.00 -21.89383313   4.05218844
1646.00 -21.95511392   4.06675698
1648.00 -22.01646202   4.08135954
1650.00 -22.07787740   4.09599616
1652.00 -22.13936004   4.11066687
1654.00 -22.20090991   4.12537172
1656.00 -22.26252698   4.14011072
1658.00 -22.32421124   4.15488392
1660.00 -22.38596265   4.16969135
1662.00 -22.44778119   4.18453304
1664.00 -22.50966684   4.19940904
1666.00 -22.57161957   4.21431937
1668.00 -22.63363936   4.22926406
1670.00 -22.69572618   4.24424316
1672.00 -22.75788000   4.25925670
1674.00 -22.82010080   4.27430471
1676.00 -22.88238856   4.28938723
1678.00 -22.94474324   4.30450429
1680.00 -23.00716483   4.31965592
1682.00 -23.06965330   4.33484216
1684.00 -23.13220863   4.35006305
1686.00 -23.19483078   4.36531861
1688.00 -23.25751973   4.38060889
1690.00 -23.32027546   4.39593391
1692.00 -23.38309794   4.41129371
1694.00 -23.44598715   4.42668833
1696.00 -23.50894306   4.44211779
1698.00 -23.57196565   4.45758214
1700.00 -23.63505488   4.47308140
1702.00 -23.69821074   4.48861562
1704.00 -23.76143320   4.50418482
1706.00 -23.82472223   4.51978904
1708.00 -23.88807781   4.53542831
1710.00 -23.95149991   4.55110267
1712.00 -24.01498851   4.56681215
1714.00 -24.07854357   4.58255678
1716.00 -24.14216508   4.59833660
1718.00 -24.20585301   4.61415165
1720.00 -24.26960734   4.63000195
1722.00 -24.33342803   4.64588754
1724.00 -24.39731506   4.66180846
1726.00 -24.46126841   4.67776473
1728.00 -24.52528805   4.69375640
1730.00 -24.58937395   4.70978349
1732.00 -24.65352609   4.72584604
1734.00 -24.71774445   4.74194408
1736.00 -24.78202899   4.75807765
1738.00 -24.84637969   4.77424678
1740.00 -24.91079652   4.79045150
1742.00 -24.97527946   4.80669185
1744.00 -25.03982849   4.82296786
1746.00 -25.10444357   4.83927956
1748.00 -25.16912468   4.85562699
1750.00 -25.23387180   4.87201018
1752.00 -25.29868489   4.88842917
1754.00 -25.36356394   4.90488399
1756.00 -25.42850891   4.92137466
1758.00 -25.49351978   4.93790124
1760.00 -25.55859653   4.95446374
1762.00 -25.62373912   4.97106220
1764.00 -25.68894754   4.98769666
1766.00 -25.75422175   5.00436714
1768.00 -25.81956172   5.02107369
1770.00 -25.88496744   5.03781633
1772.00 -25.95043888   5.05459510
1774.00 -26.01597600   5.07141003
1776.00 -26.08157879   5.08826116
1778.00 -26.14724721   5.10514851
1780.00 -26.21298125   5.12207213
1782.00 -26.27878087   5.13903204
1784.00 -26.34464604   5.15602827
1786.00 -26.41057675   5.17306087
1788.00 -26.47657296   5.19012986
1790.00 -26.54263465   5.20723527
1792.00 -26.60876179   5.22437715
1794.00 -26.67495436   5.24155552
1796.00 -26.74121232   5.25877041
1798.00 -26.80753566   5.27602186
1800.00 -26.87392434   5.29330990
1802.00 -26.94037834   5.31063456
1804.00 -27.00689763   5.32799588
1806.00 -27.07348219   5.34539390
1808.00 -27.14013198   5.36282863
1810.00 -27.20684699   5.38030012
1812.00 -27.27362718   5.39780839
1814.00 -27.34047253   5.41535349
1816.00 -27.40738301   5.43293544
1818.00 -27.47435860   5.45055428
1820.00 -27.54139926   5.46821003
1822.00 -27.60850497   5.48590274
1824.00 -27.67567571   5.50363243
1826.00 -27.74291145   5.52139913
1828.00 -27.81021215   5.53920289
1830.00 -27.87757780   5.55704373
1832.00 -27.94500837   5.57492168
1834.00 -28.01250382   5.59283678
1836.00 -28.08006414   5.61078905
1838.00 -28.14768929   5.62877854
1840.00 -28.21537925   5.64680528
1842.00 -28.28313399   5.66486928
1844.00 -28.35095349   5.68297060
1846.00 -28.41883771   5.70110926
1848.00 -28.48678663   5.71928529
1850.00 -28.55480023   5.73749873
1852.00 -28.62287847   5.75574961
1854.00 -28.69102133   5.77403795
1856.00 -28.75922878   5.79236380
1858.00 -28.82750080   5.81072718
1860.00 -28.89583735   5.82912813
1862.00 -28.96423841   5.84756668
1864.00 -29.03270396   5.86604286
1866.00 -29.10123396   5.88455671
1868.00 -29.16982838   5.90310824
1870.00 -29.23848721   5.92169751
1872.00 -29.30721041   5.94032453
1874.00 -29.37599796   5.95898935
1876.00 -29.44484982   5.97769199
1878.00 -29.51376597   5.99643249
1880.00 -29.58274639   6.01521087
1882.00 -29.65179105   6.03402717
1884.00 -29.72089991   6.05288142
1886.00 -29.79007295   6.07177366
1888.00 -29.85931015   6.09070391
1890.00 -29.92861147   6.10967220
1892.00 -29.99797689   6.12867858
1894.00 -30.06740638   6.14772306
1896.00 -30.13689992   6.16680569
1898.00 -30.20645747   6.18592649
1900.00 -30.27607900   6.20508550
1902.00 -30.34576450   6.22428274
1904.00 -30.41551393   6.24351825
1906.00 -30.48532727   6.26279206
1908.00 -30.55520448   6.28210420
1910.00 -30.62514554   6.30145471
1912.00 -30.69515042   6.32084361
1914.00 -30.76521910   6.34027094
1916.00 -30.83535154   6.35973672
1918.00 -30.90554772   6.37924099
1920.00 -30.97580761   6.39878379
1922.00 -31.04613119   6.41836513
1924.00 -31.11651842   6.43798507
1926.00 -31.18696927   6.45764361
1928.00 -31.25748373   6.47734080
1930.00 -31.32806175   6.49707667
1932.00 -31.39870332   6.51685125
1934.00 -31.46940840   6.53666456
1936.00 -31.54017697   6.55651665
1938.00 -31.61100900   6.57640754
1940.00 -31.68190446   6.59633727
1942.00 -31.75286332   6.61630586
1944.00 -31.82388556   6.63631335
1946.00 -31.89497114   6.65635976
1948.00 -31.96612004   6.67644513
1950.00 -32.03733224   6.69656949
1952.00 -32.10860769   6.71673287
1954.00 -32.17994638   6.73693530
1956.00 -32.25134828   6.75717682
1958.00 -32.32281335   6.77745744
1960.00 -32.39434157   6.79777722
1962.00 -32.46593292   6.81813616
1964.00 -32.53758735   6.83853432
1966.00 -32.60930486   6.85897171
1968.00 -32.68108539   6.87944836
1970.00 -32.75292894   6.89996432
1972.00 -32.82483547   6.92051960
1974.00 -32.89680495   6.94111425
1976.00 -32.96883735   6.96174828
1978.00 -33.04093264   6.98242174
1980.00 -33.11309081   7.00313465
1982.00 -33.18531181   7.02388704
1984.00 -33.25759561   7.04467895
1986.00 -33.32994221   7.06551040
1988.00 -33.40235155   7.08638143
1990.00 -33.47482362   7.10729206
1992.00 -33.54735838   7.12824232
1994.00 -33.61995581   7.14923225
1996.00 -33.69261588   7.17026188
1998.00 -33.76533855   7.19133124
2000.00 -33.83812381   7.21244035
2002.00 -33.91097162   7.23358925
2004.00 -33.98388196   7.25477797
2006.00 -34.05685479   7.27600654
2008.00 -34.12989009   7.29727499
2010.00 -34.20298782   7.31858335
2012.00 -34.27614797   7.33993165
2014.00 -34.34937049   7.36131991
2016.00 -34.42265537   7.38274818
2018.00 -34.49600257   7.40421648
2020.00 -34.56941206   7.42572484
2022.00 -34.64288382   7.44727329
2024.00 -34.71641782   7.46886186
2026.00 -34.79001403   7.49049058
2028.00 -34.86367241   7.51215948
2030.00 -34.93739294   7.53386859
2032.00 -35.01117560   7.55561795
2034.00 -35.08502034   7.57740757
2036.00 -35.15892715   7.59923750
2038.00 -35.23289600   7.62110776
2040.00 -35.30692685   7.64301837
2042.00 -35.38101968   7.66496938
2044.00 -35.45517445   7.68696081
2046.00 -35.52939114   7.70899269
2048.00 -35.60366973   7.73106506
2050.00 -35.67801017   7.75317793
2052.00 -35.75241244   7.77533134
2054.00 -35.82687652   7.79752532
2056.00 -35.90140237   7.81975990
2058.00 -35.97598997   7.84203511
2060.00 -36.05063927   7.86435098
2062.00 -36.12535027   7.88670753
2064.00 -36.20012292   7.90910481
2066.00 -36.27495720   7.93154283
2068.00 -36.34985308   7.95402163
2070.00 -36.42481052   7.97654124
2072.00 -36.49982951   7.99910168
2074.00 -36.57491001   8.02170299
2076.00 -36.65005198   8.04434519
2078.00 -36.72525541   8.06702832
2080.00 -36.80052027   8.08975240
2082.00 -36.87584651   8.11251747
2084.00 -36.95123412   8.13532354
2086.00 -37.02668307   8.15817066
2088.00 -37.10219331   8.18105886
2090.00 -37.17776484   8.20398815
2092.00 -37.25339761   8.22695857
2094.00 -37.32909160   8.24997015
2096.00 -37.40484678   8.27302292
2098.00 -37.48066311   8.29611691
2100.00 -37.55654057   8.31925214
2102.00 -37.63247914   8.34242865
2104.00 -37.70847877   8.36564647
2106.00 -37.78453944   8.38890562
2108.00 -37.86066112   8.41220613
2110.00 -37.93684379   8.43554803
2112.00 -38.01308740   8.45893136
2114.00 -38.08939194   8.48235613
2116.00 -38.16575736   8.50582238
2118.00 -38.24218366   8.52933015
2120.00 -38.31867078   8.55287944
2122.00 -38.39521871   8.57647031
2124.00 -38.47182741   8.60010277
2126.00 -38.54849685   8.62377685
2128.00 -38.62522701   8.64749258
2130.00 -38.70201785   8.67125000
2132.00 -38.77886935   8.69504912
2134.00 -38.85578147   8.71888998
2136.00 -38.93275419   8.74277261
2138.00 -39.00978747   8.76669704
2140.00 -39.08688129   8.79066328
2142.00 -39.16403561   8.81467139
2144.00 -39.24125041   8.83872137
2146.00 -39.31852566   8.86281326
2148.00 -39.39586132   8.88694709
2150.00 -39.47325737   8.91112289
2152.00 -39.55071377   8.93534068
2154.00 -39.62823050   8.95960050
2156.00 -39.70580752   8.98390237
2158.00 -39.78344482   9.00824632
2160.00 -39.86114235   9.03263238
2162.00 -39.93890008   9.05706058
2164.00 -40.01671799   9.08153094
2166.00 -40.09459605   9.10604350
2168.00 -40.17253422   9.13059828
2170.00 -40.25053248   9.15519531
2172.00 -40.32859080   9.17983461
2174.00 -40.40670914   9.20451623
2176.00 -40.48488748   9.22924018
2178.00 -40.56312578   9.25400649
2180.00 -40.64142402   9.27881520
2182.00 -40.71978217   9.30366632
2184.00 -40.79820019   9.32855989
2186.00 -40.87667805   9.35349594
2188.00 -40.95521573   9.37847449
2190.00 -41.03381320   9.40349557
2192.00 -41.11247042   9.42855921
2194.00 -41.19118736   9.45366543
2196.00 -41.26996400   9.47881428
2198.00 -41.34880030   9.50400576
2200.00 -41.42769623   9.52923992
2202.00 -41.50665177   9.55451677
2204.00 -41.58566688   9.57983635
2206.00 -41.66474153   9.60519869
2208.00 -41.74387570   9.63060381
2210.00 -41.82306934   9.65605173
2212.00 -41.90232244   9.68154250
2214.00 -41.98163496   9.70707613
2216.00 -42.06100686   9.73265265
2218.00 -42.14043813   9.75827209
2220.00 -42.21992873   9.78393448
2222.00 -42.29947863   9.80963985
2224.00 -42.37908779   9.83538821
2226.00 -42.45875619   9.86117961
2228.00 -42.53848380   9.88701407
2230.00 -42.61827059   9.91289161
2232.00 -42.69811652   9.93881226
2234.00 -42.77802157   9.96477606
2236.00 -42.85798571   9.99078302
2238.00 -42.93800890  10.01683317
2240.00 -43.01809111  10.04292655
2242.00 -43.09823232  10.06906318
2244.00 -43.17843249  10.09524308
2246.00 -43.25869159  10.12146629
2248.00 -43.33900959  10.14773283
2250.00 -43.41938646  10.17404272
2252.00 -43.49982218  10.20039600
2254.00 -43.58031670  10.22679270
2256.00 -43.66087000  10.25323283
2258.00 -43.74148205  10.27971643
2260.00 -43.82215282  10.30624352
2262.00 -43.90288227  10.33281414
2264.00 -43.98367038  10.35942830
2266.00 -44.06451711  10.38608604
2268.00 -44.14542244  10.41278737
2270.00 -44.22638633  10.43953234
2272.00 -44.30740875  10.46632096
2274.00 -44.38848968  10.49315327
2276.00 -44.46962907  10.52002928
2278.00 -44.55082690  10.54694903
2280.00 -44.63208315  10.57391254
2282.00 -44.71339777  10.60091984
2284.00 -44.79477073  10.62797095
2286.00 -44.87620202  10.65506591
2288.00 -44.95769158  10.68220474
2290.00 -45.03923940  10.70938746
2292.00 -45.12084545  10.73661411
2294.00 -45.20250968  10.76388471
2296.00 -45.28423208  10.79119928
2298.00 -45.36601261  10.81855785
2300.00 -45.44785123  10.84596046
2302.00 -45.52974793  10.87340711
2304.00 -45.61170266  10.90089785
2306.00 -45.69371539  10.92843270
2308.00 -45.77578610  10.95601168
2310.00 -45.85791475  10.98363483
2312.00 -45.94010132  11.01130216
2314.00 -46.02234577  11.03901370
2316.00 -46.10464806  11.06676948
2318.00 -46.18700818  11.09456953
2320.00 -46.26942608  11.12241388
2322.00 -46.35190174  11.15030254
2324.00 -46.43443512  11.17823554
2326.00 -46.51702620  11.20621292
2328.00 -46.59967494  11.23423469
2330.00 -46.68238131  11.26230089
2332.00 -46.76514528  11.29041153
2334.00 -46.84796682  11.31856666
2336.00 -46.93084589  11.34676628
2338.00 -47.01378248  11.37501043
2340.00 -47.09677654  11.40329913
2342.00 -47.17982804  11.43163241
2344.00 -47.26293695  11.46001030
2346.00 -47.34610324  11.48843281
2348.00 -47.42932689  11.51689999
2350.00 -47.51260785  11.54541185
2352.00 -47.59594609  11.57396841
2354.00 -47.67934159  11.60256971
2356.00 -47.76279432  11.63121577
2358.00 -47.84630424  11.65990662
2360.00 -47.92987132  11.68864227
2362.00 -48.01349552  11.71742277
2364.00 -48.09717683  11.74624812
2366.00 -48.18091520  11.77511837
2368.00 -48.26471060  11.80403352
2370.00 -48.34856301  11.83299362
2372.00 -48.43247239  11.86199868
2374.00 -48.51643871  11.89104874
2376.00 -48.60046194  11.92014381
2378.00 -48.68454205  11.94928392
2380.00 -48.76867900  11.97846909
2382.00 -48.85287276  12.00769936
2384.00 -48.93712330  12.03697475
2386.00 -49.02143060  12.06629528
2388.00 -49.10579461  12.09566098
2390.00 -49.19021532  12.12507187
2392.00 -49.27469267  12.15452798
2394.00 -49.35922665  12.18402933
2396.00 -49.44381722  12.21357596
2398.00 -49.52846436  12.24316787
2400.00 -49.61316802  12.27280511
2402.00 -49.69792817  12.30248769
2404.00 -49.78274479  12.33221564
2406.00 -49.86761785  12.36198899
2408.00 -49.95254730  12.39180776
2410.00 -50.03753313  12.42167197
2412.00 -50.12257529  12.45158165
2414.00 -50.20767376  12.48153683
2416.00 -50.29282850  12.51153752
2418.00 -50.37803949  12.54158376
2420.00 -50.46330668  12.57167557
2422.00 -50.54863006  12.60181297
2424.00 -50.63400958  12.63199600
2426.00 -50.71944521  12.66222466
2428.00 -50.80493693  12.69249900
2430.00 -50.89048470  12.72281903
2432.00 -50.97608848  12.75318478
2434.00 -51.06174826  12.78359627
2436.00 -51.14746399  12.81405353
2438.00 -51.23323564  12.84455658
2440.00 -51.31906318  12.87510544
2442.00 -51.40494658  12.90570015
2444.00 -51.49088581  12.93634073
2446.00 -51.57688083  12.96702719
2448.00 -51.66293162  12.99775957
2450.00 -51.74903813  13.02853789
2452.00 -51.83520035  13.05936217
2454.00 -51.92141823  13.09023244
2456.00 -52.00769175  13.12114873
2458.00 -52.09402087  13.15211105
2460.00 -52.18040555  13.18311943
2462.00 -52.26684578  13.21417390
2464.00 -52.35334151  13.24527448
2466.00 -52.43989272  13.27642119
2468.00 -52.52649937  13.30761406
2470.00 -52.61316143  13.33885311
2472.00 -52.69987886  13.37013837
2474.00 -52.78665165  13.40146986
2476.00 -52.87347974  13.43284761
2478.00 -52.96036311  13.46427163
2480.00 -53.04730174  13.49574196
2482.00 -53.13429558  13.52725861
2484.00 -53.22134460  13.55882162
2486.00 -53.30844877  13.59043100
2488.00 -53.39560807  13.62208678
2490.00 -53.48282245  13.65378899
2492.00 -53.57009189  13.68553764
2494.00 -53.65741634  13.71733276
2496.00 -53.74479579  13.74917437
2498.00 -53.83223020  13.78106251
2500.00 -53.91971953  13.81299718
2502.00 -54.00726376  13.84497842
2504.00 -54.09486284  13.87700625
2506.00 -54.18251676  13.90908070
2508.00 -54.27022547  13.94120178
2510.00 -54.35798894  13.97336952
2512.00 -54.44580715  14.00558395
2514.00 -54.53368005  14.03784509
2516.00 -54.62160762  14.07015295
2518.00 -54.70958983  14.10250757
2520.00 -54.79762663  14.13490897
2522.00 -54.88571801  14.16735717
2524.00 -54.97386392  14.19985220
2526.00 -55.06206433  14.23239408
2528.00 -55.15031922  14.26498282
2530.00 -55.23862854  14.29761847
2532.00 -55.32699227  14.33030103
2534.00 -55.41541037  14.36303054
2536.00 -55.50388282  14.39580701
2538.00 -55.59240957  14.42863047
2540.00 -55.68099060  14.46150094
2542.00 -55.76962588  14.49441844
2544.00 -55.85831536  14.52738301
2546.00 -55.94705903  14.56039465
2548.00 -56.03585683  14.59345340
2550.00 -56.12470875  14.62655928
2552.00 -56.21361476  14.65971231
2554.00 -56.30257481  14.69291252
2556.00 -56.39158887  14.72615992
2558.00 -56.48065692  14.75945454
2560.00 -56.56977891  14.79279640
2562.00 -56.65895483  14.82618553
2564.00 -56.74818462  14.85962195
2566.00 -56.83746827  14.89310567
2568.00 -56.92680574  14.92663674
2570.00 -57.01619699  14.96021516
2572.00 -57.10564200  14.99384096
2574.00 -57.19514073  15.02751416
2576.00 -57.28469314  15.06123479
2578.00 -57.37429921  15.09500287
2580.00 -57.46395890  15.12881841
2582.00 -57.55367219  15.16268145
2584.00 -57.64343902  15.19659201
2586.00 -57.73325939  15.23055011
2588.00 -57.82313324  15.26455576
2590.00 -57.91306055  15.29860900
2592.00 -58.00304128  15.33270985
2594.00 -58.09307541  15.36685833
2596.00 -58.18316290  15.40105445
2598.00 -58.27330371  15.43529825
2600.00 -58.36349782  15.46958975
2602.00 -58.45374519  15.50392897
2604.00 -58.54404579  15.53831592
2606.00 -58.63439958  15.57275064
2608.00 -58.72480653  15.60723315
2610.00 -58.81526661  15.64176346
2612.00 -58.90577979  15.67634160
2614.00 -58.99634603  15.71096759
2616.00 -59.08696530  15.74564146
2618.00 -59.17763757  15.78036323
2620.00 -59.26836280  15.81513291
2622.00 -59.35914096  15.84995054
2624.00 -59.44997203  15.88481612
2626.00 -59.54085595  15.91972969
2628.00 -59.63179271  15.95469127
2630.00 -59.72278227  15.98970088
2632.00 -59.81382459  16.02475854
2634.00 -59.90491965  16.05986427
2636.00 -59.99606740  16.09501809
2638.00 -60.08726782  16.13022004
2640.00 -60.17852088  16.16547012
2642.00 -60.26982653  16.20076836
2644.00 -60.36118476  16.23611478
2646.00 -60.45259551  16.27150940
2648.00 -60.54405877  16.30695226
2650.00 -60.63557450  16.34244335
2652.00 -60.72714266  16.37798272
2654.00 -60.81876322  16.41357038
2656.00 -60.91043615  16.44920635
2658.00 -61.00216142  16.48489065
2660.00 -61.09393899  16.52062331
2662.00 -61.18576882  16.55640434
2664.00 -61.27765090  16.59223378
2666.00 -61.36958517  16.62811163
2668.00 -61.46157161  16.66403792
2670.00 -61.55361019  16.70001268
2672.00 -61.64570088  16.73603592
2674.00 -61.73784363  16.77210767
2676.00 -61.83003842  16.80822794
2678.00 -61.92228521  16.84439676
2680.00 -62.01458397  16.88061415
2682.00 -62.10693466  16.91688013
2684.00 -62.19933726  16.95319473
2686.00 -62.29179173  16.98955795
2688.00 -62.38429804  17.02596983
2690.00 -62.47685615  17.06243039
2692.00 -62.56946602  17.09893964
2694.00 -62.66212764  17.13549761
2696.00 -62.75484095  17.17210432
2698.00 -62.84760594  17.20875979
2700.00 -62.94042256  17.24546404
2702.00 -63.03329079  17.28221709
2704.00 -63.12621058  17.31901896
2706.00 -63.21918191  17.35586968
2708.00 -63.31220475  17.39276926
2710.00 -63.40527905  17.42971773
2712.00 -63.49840479  17.46671510
2714.00 -63.59158193  17.50376140
2716.00 -63.68481044  17.54085665
2718.00 -63.77809028  17.57800087
2720.00 -63.87142143  17.61519408
2722.00 -63.96480384  17.65243629
2724.00 -64.05823749  17.68972754
2726.00 -64.15172235  17.72706784
2728.00 -64.24525836  17.76445721
2730.00 -64.33884552  17.80189567
2732.00 -64.43248377  17.83938325
2734.00 -64.52617309  17.87691996
2736.00 -64.61991345  17.91450583
2738.00 -64.71370481  17.95214086
2740.00 -64.80754713  17.98982510
2742.00 -64.90144038  18.02755855
2744.00 -64.99538454  18.06534124
2746.00 -65.08937956  18.10317318
2748.00 -65.18342542  18.14105440
2750.00 -65.27752207  18.17898491
2752.00 -65.37166949  18.21696475
2754.00 -65.46586764  18.25499392
2756.00 -65.56011649  18.29307245
2758.00 -65.65441600  18.33120035
2760.00 -65.74876614  18.36937766
2762.00 -65.84316688  18.40760438
2764.00 -65.93761819  18.44588055
2766.00 -66.03212002  18.48420617
2768.00 -66.12667235  18.52258127
2770.00 -66.22127514  18.56100586
2772.00 -66.31592836  18.59947998
2774.00 -66.41063198  18.63800364
2776.00 -66.50538596  18.67657685
2778.00 -66.60019026  18.71519964
2780.00 -66.69504486  18.75387203
2782.00 -66.78994972  18.79259404
2784.00 -66.88490481  18.83136569
2786.00 -66.97991009  18.87018700
2788.00 -67.07496553  18.90905798
2790.00 -67.17007109  18.94797866
2792.00 -67.26522675  18.98694906
2794.00 -67.36043246  19.02596919
2796.00 -67.45568820  19.06503909
2798.00 -67.55099393  19.10415875
2800.00 -67.64634961  19.14332822
2802.00 -67.74175522  19.18254750
2804.00 -67.83721071  19.22181661
2806.00 -67.93271606  19.26113558
2808.00 -68.02827124  19.30050443
2810.00 -68.12387619  19.33992316
2812.00 -68.21953091  19.37939181
2814.00 -68.31523534  19.41891040
2816.00 -68.41098946  19.45847893
2818.00 -68.50679323  19.49809744
2820.00 -68.60264662  19.53776593
2822.00 -68.69854959  19.57748444
2824.00 -68.79450212  19.61725298
2826.00 -68.89050416  19.65707156
2828.00 -68.98655568  19.69694021
2830.00 -69.08265665  19.73685895
2832.00 -69.17880704  19.77682780
2834.00 -69.27500680  19.81684677
2836.00 -69.37125592  19.85691588
2838.00 -69.46755434  19.89703516
2840.00 -69.56390205  19.93720462
2842.00 -69.66029900  19.97742428
2844.00 -69.75674517  20.01769416
2846.00 -69.85324051  20.05801429
2848.00 -69.94978499  20.09838467
2850.00 -70.04637858  20.13880532
2852.00 -70.14302125  20.17927628
2854.00 -70.23971296  20.21979755
2856.00 -70.33645368  20.26036915
2858.00 -70.43324337  20.30099111
2860.00 -70.53008200  20.34166344
2862.00 -70.62696953  20.38238615
2864.00 -70.72390594  20.42315928
2866.00 -70.82089118  20.46398284
2868.00 -70.91792523  20.50485684
2870.00 -71.01500805  20.54578131
2872.00 -71.11213960  20.58675626
2874.00 -71.20931985  20.62778171
2876.00 -71.30654877  20.66885768
2878.00 -71.40382633  20.70998420
2880.00 -71.50115248  20.75116127
2882.00 -71.59852719  20.79238891
2884.00 -71.69595044  20.83366716
2886.00 -71.79342219  20.87499601
2888.00 -71.89094240  20.91637550
2890.00 -71.98851103  20.95780564
2892.00 -72.08612806  20.99928644
2894.00 -72.18379345  21.04081794
2896.00 -72.28150717  21.08240014
2898.00 -72.37926918  21.12403306
2900.00 -72.47707945  21.16571672
2902.00 -72.57493794  21.20745114
2904.00 -72.67284462  21.24923634
2906.00 -72.77079945  21.29107234
2908.00 -72.86880241  21.33295915
2910.00 -72.96685345  21.37489679
2912.00 -73.06495255  21.41688528
2914.00 -73.16309967  21.45892464
2916.00 -73.26129477  21.50101489
2918.00 -73.35953782  21.54315604
2920.00 -73.45782879  21.58534812
2922.00 -73.55616764  21.62759113
2924.00 -73.65455433  21.66988510
2926.00 -73.75298885  21.71223005
2928.00 -73.85147114  21.75462599
2930.00 -73.95000117  21.79707295
2932.00 -74.04857892  21.83957093
2934.00 -74.14720434  21.88211996
2936.00 -74.24587741  21.92472005
2938.00 -74.34459808  21.96737123
2940.00 -74.44336633  22.01007351
2942.00 -74.54218212  22.05282690
2944.00 -74.64104541  22.09563144
2946.00 -74.73995618  22.13848712
2948.00 -74.83891438  22.18139397
2950.00 -74.93791998  22.22435202
2952.00 -75.03697296  22.26736127
2954.00 -75.13607326  22.31042174
2956.00 -75.23522087  22.35353345
2958.00 -75.33441574  22.39669642
2960.00 -75.43365784  22.43991067
2962.00 -75.53294714  22.48317621
2964.00 -75.63228360  22.52649305
2966.00 -75.73166719  22.56986123
2968.00 -75.83109788  22.61328075
2970.00 -75.93057562  22.65675164
2972.00 -76.03010039  22.70027390
2974.00 -76.12967215  22.74384756
2976.00 -76.22929087  22.78747263
2978.00 -76.32895651  22.83114913
2980.00 -76.42866903  22.87487708
2982.00 -76.52842841  22.91865650
2984.00 -76.62823461  22.96248740
2986.00 -76.72808759  23.00636979
2988.00 -76.82798733  23.05030371
2990.00 -76.92793378  23.09428915
2992.00 -77.02792691  23.13832615
2994.00 -77.12796669  23.18241471
2996.00 -77.22805308  23.22655486
2998.00 -77.32818604  23.27074661
3000.00 -77.42836556  23.31498997
3002.00 -77.52859158  23.35928497
3004.00 -77.62886408  23.40363162
3006.00 -77.72918301  23.44802994
3008.00 -77.82954836  23.49247994
3010.00 -77.92996007  23.53698165
3012.00 -78.03041813  23.58153507
3014.00 -78.13092248  23.62614023
3016.00 -78.23147311  23.67079713
3018.00 -78.33206996  23.71550581
3020.00 -78.43271302  23.76026627
3022.00 -78.53340224  23.80507853
3024.00 -78.63413760  23.84994261
3026.00 -78.73491904  23.89485852
3028.00 -78.83574655  23.93982628
3030.00 -78.93662009  23.98484591
3032.00 -79.03753962  24.02991743
3034.00 -79.13850511  24.07504084
3036.00 -79.23951652  24.12021617
3038.00 -79.34057382  24.16544343
3040.00 -79.44167698  24.21072264
3042.00 -79.54282595  24.25605381
3044.00 -79.64402071  24.30143697
3046.00 -79.74526123  24.34687212
3048.00 -79.84654746  24.39235928
3050.00 -79.94787937  24.43789848
3052.00 -80.04925692  24.48348972
3054.00 -80.15068010  24.52913302
3056.00 -80.25214884  24.57482840
3058.00 -80.35366314  24.62057588
3060.00 -80.45522294  24.66637546
3062.00 -80.55682822  24.71222717
3064.00 -80.65847893  24.75813102
3066.00 -80.76017506  24.80408703
3068.00 -80.86191655  24.85009521
3070.00 -80.96370338  24.89615559
3072.00 -81.06553551  24.94226816
3074.00 -81.16741291  24.98843296
3076.00 -81.26933555  25.03465000
3078.00 -81.37130338  25.08091929
3080.00 -81.47331637  25.12724084
3082.00 -81.57537449  25.17361468
3084.00 -81.67747771  25.22004082
3086.00 -81.77962599  25.26651928
3088.00 -81.88181929  25.31305007
3090.00 -81.98405758  25.35963320
3092.00 -82.08634083  25.40626870
3094.00 -82.18866900  25.45295657
3096.00 -82.29104206  25.49969684
3098.00 -82.39345997  25.54648952
3100.00 -82.49592269  25.59333462
3102.00 -82.59843020  25.64023216
3104.00 -82.70098246  25.68718215
3106.00 -82.80357943  25.73418462
3108.00 -82.90622108  25.78123957
3110.00 -83.00890738  25.82834702
3112.00 -83.11163828  25.87550699
3114.00 -83.21441376  25.92271949
3116.00 -83.31723378  25.96998454
3118.00 -83.42009830  26.01730215
3120.00 -83.52300730  26.06467234
3122.00 -83.62596073  26.11209512
3124.00 -83.72895856  26.15957050
3126.00 -83.83200076  26.20709851
3128.00 -83.93508729  26.25467916
3130.00 -84.03821812  26.30231246
3132.00 -84.14139322  26.34999843
3134.00 -84.24461254  26.39773708
3136.00 -84.34787605  26.44552843
3138.00 -84.45118373  26.49337249
3140.00 -84.55453552  26.54126928
3142.00 -84.65793141  26.58921881
3144.00 -84.76137135  26.63722110
3146.00 -84.86485532  26.68527616
3148.00 -84.96838326  26.73338401
3150.00 -85.07195516  26.78154466
3152.00 -85.17557098  26.82975813
3154.00 -85.27923067  26.87802443
3156.00 -85.38293421  26.92634357
3158.00 -85.48668157  26.97471557
3160.00 -85.59047270  27.02314045
3162.00 -85.69430757  27.07161822
3164.00 -85.79818615  27.12014890
3166.00 -85.90210840  27.16873249
3168.00 -86.00607429  27.21736902
3170.00 -86.11008379  27.26605849
3172.00 -86.21413685  27.31480093
3174.00 -86.31823345  27.36359634
3176.00 -86.42237354  27.41244475
3178.00 -86.52655710  27.46134616
3180.00 -86.63078409  27.51030059
3182.00 -86.73505448  27.55930805
3184.00 -86.83936822  27.60836856
3186.00 -86.94372529  27.65748214
3188.00 -87.04812566  27.70664879
3190.00 -87.15256927  27.75586854
3192.00 -87.25705611  27.80514139
3194.00 -87.36158613  27.85446736
3196.00 -87.46615931  27.90384646
3198.00 -87.57077560  27.95327872
3200.00 -87.67543497  28.00276413
3202.00 -87.78013740  28.05230272
3204.00 -87.88488283  28.10189450
3206.00 -87.98967124  28.15153949
3208.00 -88.09450259  28.20123769
3210.00 -88.19937686  28.25098913
3212.00 -88.30429399  28.30079381
3214.00 -88.40925396  28.35065175
3216.00 -88.51425674  28.40056297
3218.00 -88.61930229  28.45052747
3220.00 -88.72439057  28.50054527
3222.00 -88.82952154  28.55061639
3224.00 -88.93469519  28.60074084
3226.00 -89.03991146  28.65091863
3228.00 -89.14517033  28.70114978
3230.00 -89.25047175  28.75143430
3232.00 -89.35581571  28.80177220
3234.00 -89.46120215  28.85216350
3236.00 -89.56663105  28.90260821
3238.00 -89.67210237  28.95310634
3240.00 -89.77761607  29.00365792
3242.00 -89.88317213  29.05426294
3244.00 -89.98877050  29.10492143
3246.00 -90.09441115  29.15563340
3248.00 -90.20009405  29.20639886
3250.00 -90.30581916  29.25721782
3252.00 -90.41158645  29.30809031
3254.00 -90.51739588  29.35901633
3256.00 -90.62324742  29.40999589
3258.00 -90.72914103  29.46102901
3260.00 -90.83507668  29.51211570
3262.00 -90.94105433  29.56325598
3264.00 -91.04707395  29.61444986
3266.00 -91.15313550  29.66569734
3268.00 -91.25923895  29.71699846
3270.00 -91.36538426  29.76835321
3272.00 -91.47157140  29.81976161
3274.00 -91.57780033  29.87122367
3276.00 -91.68407103  29.92273942
3278.00 -91.79038344  29.97430885
3280.00 -91.89673755  30.02593199
3282.00 -92.00313331  30.07760884
3284.00 -92.10957069  30.12933942
3286.00 -92.21604965  30.18112375
3288.00 -92.32257016  30.23296182
3290.00 -92.42913219  30.28485367
3292.00 -92.53573570  30.33679930
3294.00 -92.64238065  30.38879872
3296.00 -92.74906702  30.44085195
3298.00 -92.85579475  30.49295899
3300.00 -92.96256383  30.54511987
3302.00 -93.06937422  30.59733459
3304.00 -93.17622587  30.64960317
3306.00 -93.28311876  30.70192562
3308.00 -93.39005285  30.75430195
3310.00 -93.49702811  30.80673218
3312.00 -93.60404450  30.85921631
3314.00 -93.71110198  30.91175436
3316.00 -93.81820053  30.96434635
3318.00 -93.92534010  31.01699228
3320.00 -94.03252066  31.06969217
3322.00 -94.13974218  31.12244603
3324.00 -94.24700462  31.17525387
3326.00 -94.35430795  31.22811570
3328.00 -94.46165213  31.28103154
3330.00 -94.56903713  31.33400141
3332.00 -94.67646291  31.38702530
3334.00 -94.78392944  31.44010324
3336.00 -94.89143668  31.49323523
3338.00 -94.99898460  31.54642129
3340.00 -95.10657316  31.59966143
3342.00 -95.21420233  31.65295567
3344.00 -95.32187207  31.70630401
3346.00 -95.42958235  31.75970646
3348.00 -95.53733313  31.81316305
3350.00 -95.64512438  31.86667378
3352.00 -95.75295607  31.92023866
3354.00 -95.86082815  31.97385770
3356.00 -95.96874060  32.02753092
3358.00 -96.07669337  32.08125833
3360.00 -96.18468644  32.13503995
3362.00 -96.29271977  32.18887577
3364.00 -96.40079332  32.24276582
3366.00 -96.50890706  32.29671011
3368.00 -96.61706096  32.35070864
3370.00 -96.72525497  32.40476144
3372.00 -96.83348907  32.45886850
3374.00 -96.94176322  32.51302985
3376.00 -97.05007738  32.56724550
3378.00 -97.15843153  32.62151545
3380.00 -97.26682561  32.67583972
3382.00 -97.37525961  32.73021832
3384.00 -97.48373348  32.78465126
3386.00 -97.59224719  32.83913856
3388.00 -97.70080071  32.89368022
3390.00 -97.80939400  32.94827626
3392.00 -97.91802702  33.00292669
3394.00 -98.02669975  33.05763151
3396.00 -98.13541214  33.11239075
3398.00 -98.24416416  33.16720441
3400.00 -98.35295577  33.22207250
3402.00 -98.46178695  33.27699504
3404.00 -98.57065765  33.33197203
3406.00 -98.67956785  33.38700349
3408.00 -98.78851750  33.44208943
3410.00 -98.89750657  33.49722986
3412.00 -99.00653502  33.55242479
3414.00 -99.11560283  33.60767424
3416.00 -99.22470996  33.66297821
3418.00 -99.33385637  33.71833671
3420.00 -99.44304202  33.77374976
3422.00 -99.55226689  33.82921737
3424.00 -99.66153093  33.88473954
3426.00 -99.77083411  33.94031629
3428.00 -99.88017641  33.99594764
3430.00 -99.98955777  34.05163358
3432.00 -100.09897817  34.10737414
3434.00 -100.20843758  34.16316932
3436.00 -100.31793595  34.21901914
3438.00 -100.42747325  34.27492359
3440.00 -100.53704946  34.33088271
3442.00 -100.64666452  34.38689649
3444.00 -100.75631841  34.44296495
3446.00 -100.86601110  34.49908810
3448.00 -100.97574254  34.55526594
3450.00 -101.08551271  34.61149850
3452.00 -101.19532157  34.66778577
3454.00 -101.30516908  34.72412778
3456.00 -101.41505521  34.78052453
3458.00 -101.52497992  34.83697603
3460.00 -101.63494318  34.89348229
3462.00 -101.74494495  34.95004333
3464.00 -101.85498521  35.00665915
3466.00 -101.96506391  35.06332977
3468.00 -102.07518101  35.12005519
3470.00 -102.18533650  35.17683542
3472.00 -102.29553032  35.23367048
3474.00 -102.40576244  35.29056038
3476.00 -102.51603284  35.34750512
3478.00 -102.62634147  35.40450472
3480.00 -102.73668830  35.46155919
3482.00 -102.84707329  35.51866854
3484.00 -102.95749642  35.57583277
3486.00 -103.06795764  35.63305190
3488.00 -103.17845692  35.69032594
3490.00 -103.28899423  35.74765490
3492.00 -103.39956953  35.80503878
3494.00 -103.51018278  35.86247761
3496.00 -103.62083395  35.91997138
3498.00 -103.73152301  35.97752011
3500.00 -103.84224992  36.03512382
3502.00 -103.95301465  36.09278250
3504.00 -104.06381716  36.15049616
3506.00 -104.17465742  36.20826483
3508.00 -104.28553538  36.26608851
3510.00 -104.39645103  36.32396721
3512.00 -104.50740431  36.38190093
3514.00 -104.61839521  36.43988969
3516.00 -104.72942367  36.49793351
3518.00 -104.84048967  36.55603238
3520.00 -104.95159318  36.61418632
3522.00 -105.06273415  36.67239533
3524.00 -105.17391256  36.73065944
3526.00 -105.28512836  36.78897864
3528.00 -105.39638153  36.84735294
3530.00 -105.50767202  36.90578237
3532.00 -105.61899981  36.96426692
3534.00 -105.73036485  37.02280661
3536.00 -105.84176712  37.08140144
3538.00 -105.95320658  37.14005143
3540.00 -106.06468320  37.19875658
3542.00 -106.17619693  37.25751691
3544.00 -106.28774774  37.31633242
3546.00 -106.39933561  37.37520312
3548.00 -106.51096049  37.43412902
3550.00 -106.62262235  37.49311014
3552.00 -106.73432115  37.55214648
3554.00 -106.84605687  37.61123805
3556.00 -106.95782946  37.67038486
3558.00 -107.06963889  37.72958692
3560.00 -107.18148512  37.78884423
3562.00 -107.29336813  37.84815682
3564.00 -107.40528787  37.90752468
3566.00 -107.51724431  37.96694783
3568.00 -107.62923742  38.02642627
3570.00 -107.74126716  38.08596002
3572.00 -107.85333350  38.14554908
3574.00 -107.96543640  38.20519346
3576.00 -108.07757582  38.26489318
3578.00 -108.18975174  38.32464823
3580.00 -108.30196412  38.38445864
3582.00 -108.41421291  38.44432440
3584.00 -108.52649810  38.50424554
3586.00 -108.63881964  38.56422205
3588.00 -108.75117749  38.62425394
3590.00 -108.86357163  38.68434123
3592.00 -108.97600202  38.74448392
3594.00 -109.08846862  38.80468203
3596.00 -109.20097140  38.86493555
3598.00 -109.31351033  38.92524451
3600.00 -109.42608536  38.98560890
3602.00 -109.53869647  39.04602875
3604.00 -109.65134362  39.10650404
3606.00 -109.76402677  39.16703480
3608.00 -109.87674589  39.22762104
3610.00 -109.98950095  39.28826276
3612.00 -110.10229191  39.34895996
3614.00 -110.21511874  39.40971267
3616.00 -110.32798139  39.47052089
3618.00 -110.44087985  39.53138462
3620.00 -110.55381406  39.59230387
3622.00 -110.66678400  39.65327866
3624.00 -110.77978963  39.71430899
3626.00 -110.89283092  39.77539487
3628.00 -111.00590783  39.83653631
3630.00 -111.11902033  39.89773331
3632.00 -111.23216839  39.95898589
3634.00 -111.34535196  40.02029406
3636.00 -111.45857101  40.08165781
3638.00 -111.57182551  40.14307717
3640.00 -111.68511543  40.20455213
3642.00 -111.79844073  40.26608271
3644.00 -111.91180137  40.32766891
3646.00 -112.02519732  40.38931075
3648.00 -112.13862854  40.45100823
3650.00 -112.25209501  40.51276135
3652.00 -112.36559668  40.57457014
3654.00 -112.47913352  40.63643459
3656.00 -112.59270550  40.69835471
3658.00 -112.70631258  40.76033051
3660.00 -112.81995472  40.82236200
3662.00 -112.93363190  40.88444919
3664.00 -113.04734407  40.94659209
3666.00 -113.16109121  41.00879070
3668.00 -113.27487328  41.07104502
3670.00 -113.38869023  41.13335508
3672.00 -113.50254205  41.19572088
3674.00 -113.61642869  41.25814241
3676.00 -113.73035012  41.32061970
3678.00 -113.84430630  41.38315275
3680.00 -113.95829721  41.44574157
3682.00 -114.07232279  41.50838616
3684.00 -114.18638303  41.57108654
3686.00 -114.30047789  41.63384271
3688.00 -114.41460732  41.69665467
3690.00 -114.52877130  41.75952244
3692.00 -114.64296979  41.82244603
3694.00 -114.75720276  41.88542543
3696.00 -114.87147017  41.94846066
3698.00 -114.98577199  42.01155173
3700.00 -115.10010819  42.07469865
3702.00 -115.21447872  42.13790141
3704.00 -115.32888355  42.20116003
3706.00 -115.44332265  42.26447452
3708.00 -115.55779599  42.32784488
3710.00 -115.67230353  42.39127112
3712.00 -115.78684523  42.45475325
3714.00 -115.90142106  42.51829128
3716.00 -116.01603099  42.58188521
3718.00 -116.13067498  42.64553504
3720.00 -116.24535299  42.70924080
3722.00 -116.36006500  42.77300247
3724.00 -116.47481097  42.83682008
3726.00 -116.58959085  42.90069363
3728.00 -116.70440463  42.96462312
3730.00 -116.81925226  43.02860857
3732.00 -116.93413371  43.09264997
3734.00 -117.04904894  43.15674734
3736.00 -117.16399792  43.22090069
3738.00 -117.27898062  43.28511001
3740.00 -117.39399699  43.34937533
3742.00 -117.50904702  43.41369664
3744.00 -117.62413065  43.47807394
3746.00 -117.73924786  43.54250726
3748.00 -117.85439862  43.60699660
3750.00 -117.96958288  43.67154195
3752.00 -118.08480061  43.73614334
3754.00 -118.20005179  43.80080076
3756.00 -118.31533636  43.86551422
3758.00 -118.43065431  43.93028373
3760.00 -118.54600559  43.99510930
3762.00 -118.66139017  44.05999093
3764.00 -118.77680802  44.12492863
3766.00 -118.89225909  44.18992240
3768.00 -119.00774337  44.25497226
3770.00 -119.12326081  44.32007821
3772.00 -119.23881137  44.38524025
3774.00 -119.35439503  44.45045840
3776.00 -119.47001174  44.51573265
3778.00 -119.58566148  44.58106302
3780.00 -119.70134421  44.64644951
3782.00 -119.81705990  44.71189213
3784.00 -119.93280850  44.77739089
3786.00 -120.04858999  44.84294578
3788.00 -120.16440434  44.90855683
3790.00 -120.28025150  44.97422402
3792.00 -120.39613144  45.03994738
3794.00 -120.51204413  45.10572690
3796.00 -120.62798953  45.17156260
3798.00 -120.74396762  45.23745447
3800.00 -120.85997834  45.30340253
3802.00 -120.97602168  45.36940678
3804.00 -121.09209760  45.43546723
3806.00 -121.20820605  45.50158389
3808.00 -121.32434701  45.56775675
3810.00 -121.44052045  45.63398583
3812.00 -121.55672632  45.70027112
3814.00 -121.67296459  45.76661265
3816.00 -121.78923524  45.83301041
3818.00 -121.90553822  45.89946442
3820.00 -122.02187350  45.96597466
3822.00 -122.13824104  46.03254116
3824.00 -122.25464082  46.09916392
3826.00 -122.37107279  46.16584294
3828.00 -122.48753693  46.23257823
3830.00 -122.60403319  46.29936980
3832.00 -122.72056155  46.36621764
3834.00 -122.83712197  46.43312178
3836.00 -122.95371441  46.50008220
3838.00 -123.07033884  46.56709893
3840.00 -123.18699523  46.63417196
3842.00 -123.30368354  46.70130130
3844.00 -123.42040374  46.76848696
3846.00 -123.53715579  46.83572893
3848.00 -123.65393966  46.90302724
3850.00 -123.77075531  46.97038187
3852.00 -123.88760272  47.03779285
3854.00 -124.00448184  47.10526017
3856.00 -124.12139264  47.17278383
3858.00 -124.23833509  47.24036386
3860.00 -124.35530915  47.30800024
3862.00 -124.47231479  47.37569299
3864.00 -124.58935197  47.44344211
3866.00 -124.70642066  47.51124760
3868.00 -124.82352083  47.57910948
3870.00 -124.94065244  47.64702775
3872.00 -125.05781546  47.71500240
3874.00 -125.17500985  47.78303346
3876.00 -125.29223557  47.85112092
3878.00 -125.40949260  47.91926479
3880.00 -125.52678090  47.98746507
3882.00 -125.64410044  48.05572177
3884.00 -125.76145118  48.12403489
3886.00 -125.87883308  48.19240444
3888.00 -125.99624611  48.26083043
3890.00 -126.11369025  48.32931286
3892.00 -126.23116545  48.39785173
3894.00 -126.34867167  48.46644705
3896.00 -126.46620890  48.53509883
3898.00 -126.58377708  48.60380706
3900.00 -126.70137619  48.67257176
3902.00 -126.81900620  48.74139293
3904.00 -126.93666706  48.81027058
3906.00 -127.05435875  48.87920470
3908.00 -127.17208122  48.94819531
3910.00 -127.28983446  49.01724241
3912.00 -127.40761841  49.08634600
3914.00 -127.52543306  49.15550609
3916.00 -127.64327835  49.22472269
3918.00 -127.76115427  49.29399579
3920.00 -127.87906077  49.36332541
3922.00 -127.99699782  49.43271155
3924.00 -128.11496539  49.50215420
3926.00 -128.23296344  49.57165339
3928.00 -128.35099193  49.64120911
3930.00 -128.46905085  49.71082136
3932.00 -128.58714014  49.78049016
3934.00 -128.70525978  49.85021550
3936.00 -128.82340973  49.91999739
3938.00 -128.94158996  49.98983584
3940.00 -129.05980043  50.05973084
3942.00 -129.17804111  50.12968241
3944.00 -129.29631196  50.19969055
3946.00 -129.41461296  50.26975527
3948.00 -129.53294406  50.33987655
3950.00 -129.65130524  50.41005443
3952.00 -129.76969646  50.48028888
3954.00 -129.88811768  50.55057993
3956.00 -130.00656887  50.62092757
3958.00 -130.12505000  50.69133181
3960.00 -130.24356103  50.76179266
3962.00 -130.36210193  50.83231011
3964.00 -130.48067266  50.90288418
3966.00 -130.59927320  50.97351486
3968.00 -130.71790350  51.04420216
3970.00 -130.83656353  51.11494608
3972.00 -130.95525326  51.18574663
3974.00 -131.07397265  51.25660382
3976.00 -131.19272168  51.32751764
3978.00 -131.31150030  51.39848810
3980.00 -131.43030849  51.46951521
3982.00 -131.54914620  51.54059897
3984.00 -131.66801340  51.61173938
3986.00 -131.78691007  51.68293644
3988.00 -131.90583616  51.75419017
3990.00 -132.02479165  51.82550056
3992.00 -132.14377649  51.89686762
3994.00 -132.26279066  51.96829135
3996.00 -132.38183412  52.03977176
3998.00 -132.50090683  52.11130885
4000.00 -132.62000877  52.18290262
4002.00 -132.73913989  52.25455308
4004.00 -132.85830017  52.32626023
4006.00 -132.97748957  52.39802408
4008.00 -133.09670806  52.46984462
4010.00 -133.21595560  52.54172187
4012.00 -133.33523216  52.61365582
4014.00 -133.45453770  52.68564649
4016.00 -133.57387219  52.75769386
4018.00 -133.69323561  52.82979796
4020.00 -133.81262790  52.90195877
4022.00 -133.93204904  52.97417631
4024.00 -134.05149900  53.04645057
4026.00 -134.17097775  53.11878157
4028.00 -134.29048524  53.19116930
4030.00 -134.41002144  53.26361377
4032.00 -134.52958632  53.33611498
4034.00 -134.64917985  53.40867293
4036.00 -134.76880199  53.48128763
4038.00 -134.88845271  53.55395909
4040.00 -135.00813198  53.62668730
4042.00 -135.12783976  53.69947226
4044.00 -135.24757601  53.77231399
4046.00 -135.36734071  53.84521249
4048.00 -135.48713381  53.91816775
4050.00 -135.60695529  53.99117978
4052.00 -135.72680512  54.06424858
4054.00 -135.84668325  54.13737417
4056.00 -135.96658966  54.21055653
4058.00 -136.08652430  54.28379568
4060.00 -136.20648716  54.35709162
4062.00 -136.32647819  54.43044434
4064.00 -136.44649735  54.50385386
4066.00 -136.56654462  54.57732017
4068.00 -136.68661997  54.65084328
4070.00 -136.80672335  54.72442320
4072.00 -136.92685474  54.79805992
4074.00 -137.04701410  54.87175344
4076.00 -137.16720139  54.94550378
4078.00 -137.28741659  55.01931093
4080.00 -137.40765966  55.09317490
4082.00 -137.52793056  55.16709569
4084.00 -137.64822927  55.24107330
4086.00 -137.76855574  55.31510773
4088.00 -137.88890995  55.38919899
4090.00 -138.00929186  55.46334709
4092.00 -138.12970144  55.53755201
4094.00 -138.25013865  55.61181377
4096.00 -138.37060346  55.68613237
4098.00 -138.49109584  55.76050781
4100.00 -138.61161576  55.83494010
4102.00 -138.73216317  55.90942923
4104.00 -138.85273805  55.98397521
4106.00 -138.97334036  56.05857804
4108.00 -139.09397007  56.13323773
4110.00 -139.21462714  56.20795427
4112.00 -139.33531155  56.28272767
4114.00 -139.45602325  56.35755794
4116.00 -139.57676222  56.43244507
4118.00 -139.69752842  56.50738906
4120.00 -139.81832182  56.58238992
4122.00 -139.93914238  56.65744766
4124.00 -140.05999007  56.73256226
4126.00 -140.18086486  56.80773375
4128.00 -140.30176671  56.88296211
4130.00 -140.42269559  56.95824735
4132.00 -140.54365146  57.03358948
4134.00 -140.66463430  57.10898849
4136.00 -140.78564407  57.18444439
4138.00 -140.90668073  57.25995718
4140.00 -141.02774426  57.33552685
4142.00 -141.14883461  57.41115343
4144.00 -141.26995176  57.48683690
4146.00 -141.39109568  57.56257726
4148.00 -141.51226632  57.63837453
4150.00 -141.63346365  57.71422870
4152.00 -141.75468765  57.79013977
4154.00 -141.87593827  57.86610775
4156.00 -141.99721549  57.94213264
4158.00 -142.11851927  58.01821444
4160.00 -142.23984958  58.09435315
4162.00 -142.36120638  58.17054878
4164.00 -142.48258965  58.24680132
4166.00 -142.60399934  58.32311078
4168.00 -142.72543542  58.39947715
4170.00 -142.84689787  58.47590045
4172.00 -142.96838664  58.55238068
4174.00 -143.08990171  58.62891783
4176.00 -143.21144304  58.70551190
4178.00 -143.33301060  58.78216291
4180.00 -143.45460435  58.85887084
4182.00 -143.57622426  58.93563571
4184.00 -143.69787030  59.01245751
4186.00 -143.81954243  59.08933625
4188.00 -143.94124063  59.16627192
4190.00 -144.06296485  59.24326453
4192.00 -144.18471507  59.32031409
4194.00 -144.30649124  59.39742058
4196.00 -144.42829335  59.47458402
4198.00 -144.55012135  59.55180440
4200.00 -144.67197521  59.62908173
4202.00 -144.79385490  59.70641601
4204.00 -144.91576038  59.78380723
4206.00 -145.03769163  59.86125541
4208.00 -145.15964860  59.93876054
4210.00 -145.28163127  60.01632263
4212.00 -145.40363960  60.09394166
4214.00 -145.52567356  60.17161766
4216.00 -145.64773312  60.24935061
4218.00 -145.76981824  60.32714052
4220.00 -145.89192889  60.40498740
4222.00 -146.01406503  60.48289123
4224.00 -146.13622663  60.56085203
4226.00 -146.25841367  60.63886979
4228.00 -146.38062610  60.71694451
4230.00 -146.50286390  60.79507620
4232.00 -146.62512703  60.87326486
4234.00 -146.74741545  60.95151049
4236.00 -146.86972914  61.02981309
4238.00 -146.99206806  61.10817265
4240.00 -147.11443217  61.18658919
4242.00 -147.23682145  61.26506271
4244.00 -147.35923587  61.34359319
4246.00 -147.48167538  61.42218065
4248.00 -147.60413996  61.50082509
4250.00 -147.72662957  61.57952651
4252.00 -147.84914418  61.65828490
4254.00 -147.97168375  61.73710027
4256.00 -148.09424826  61.81597262
4258.00 -148.21683767  61.89490195
4260.00 -148.33945195  61.97388826
4262.00 -148.46209106  62.05293155
4264.00 -148.58475498  62.13203183
4266.00 -148.70744366  62.21118909
4268.00 -148.83015707  62.29040334
4270.00 -148.95289519  62.36967456
4272.00 -149.07565798  62.44900278
4274.00 -149.19844541  62.52838798
4276.00 -149.32125744  62.60783017
4278.00 -149.44409404  62.68732935
4280.00 -149.56695518  62.76688551
4282.00 -149.68984082  62.84649867
4284.00 -149.81275094  62.92616881
4286.00 -149.93568549  63.00589594
4288.00 -150.05864445  63.08568007
4290.00 -150.18162779  63.16552118
4292.00 -150.30463546  63.24541929
4294.00 -150.42766744  63.32537439
4296.00 -150.55072370  63.40538648
4298.00 -150.67380419  63.48545557
4300.00 -150.79690890  63.56558164
4302.00 -150.92003778  63.64576472
4304.00 -151.04319081  63.72600478
4306.00 -151.16636795  63.80630184
4308.00 -151.28956916  63.88665590
4310.00 -151.41279442  63.96706695
4312.00 -151.53604369  64.04753499
4314.00 -151.65931695  64.12806004
4316.00 -151.78261414  64.20864207
4318.00 -151.90593525  64.28928111
4320.00 -152.02928025  64.36997714
4322.00 -152.15264909  64.45073016
4324.00 -152.27604174  64.53154018
4326.00 -152.39945818  64.61240720
4328.00 -152.52289837  64.69333122
4330.00 -152.64636228  64.77431223
4332.00 -152.76984987  64.85535024
4334.00 -152.89336111  64.93644525
4336.00 -153.01689597  65.01759725
4338.00 -153.14045442  65.09880625
4340.00 -153.26403642  65.18007225
4342.00 -153.38764195  65.26139525
4344.00 -153.51127096  65.34277524
4346.00 -153.63492343  65.42421223
4348.00 -153.75859932  65.50570621
4350.00 -153.88229860  65.58725719
4352.00 -154.00602125  65.66886517
4354.00 -154.12976721  65.75053015
4356.00 -154.25353647  65.83225212
4358.00 -154.37732899  65.91403108
4360.00 -154.50114474  65.99586704
4362.00 -154.62498368  66.07776000
4364.00 -154.74884579  66.15970995
4366.00 -154.87273102  66.24171690
4368.00 -154.99663935  66.32378084
4370.00 -155.12057075  66.40590177
4372.00 -155.24452518  66.48807970
4374.00 -155.36850261  66.57031462
4376.00 -155.49250301  66.65260654
4378.00 -155.61652634  66.73495544
4380.00 -155.74057257  66.81736134
4382.00 -155.86464168  66.89982423
4384.00 -155.98873362  66.98234412
4386.00 -156.11284837  67.06492099
4388.00 -156.23698589  67.14755485
4390.00 -156.36114615  67.23024570
4392.00 -156.48532912  67.31299354
4394.00 -156.60953476  67.39579837
4396.00 -156.73376304  67.47866019
4398.00 -156.85801394  67.56157899
4400.00 -156.98228741  67.64455478
4402.00 -157.10658343  67.72758756
4404.00 -157.23090197  67.81067732
4406.00 -157.35524298  67.89382406
4408.00 -157.47960644  67.97702779
4410.00 -157.60399232  68.06028850
4412.00 -157.72840059  68.14360619
4414.00 -157.85283120  68.22698087
4416.00 -157.97728413  68.31041252
4418.00 -158.10175935  68.39390116
4420.00 -158.22625683  68.47744677
4422.00 -158.35077652  68.56104936
4424.00 -158.47531841  68.64470893
4426.00 -158.59988246  68.72842547
4428.00 -158.72446863  68.81219899
4430.00 -158.84907689  68.89602948
4432.00 -158.97370721  68.97991695
4434.00 -159.09835957  69.06386138
4436.00 -159.22303392  69.14786279
4438.00 -159.34773023  69.23192117
4440.00 -159.47244848  69.31603652
4442.00 -159.59718862  69.40020883
4444.00 -159.72195064  69.48443811
4446.00 -159.84673449  69.56872436
4448.00 -159.97154014  69.65306757
4450.00 -160.09636756  69.73746774
4452.00 -160.22121672  69.82192488
4454.00 -160.34608759  69.90643898
4456.00 -160.47098014  69.99101003
4458.00 -160.59589432  70.07563805
4460.00 -160.72083012  70.16032302
4462.00 -160.84578750  70.24506495
4464.00 -160.97076642  70.32986383
4466.00 -161.09576686  70.41471967
4468.00 -161.22078877  70.49963245
4470.00 -161.34583214  70.58460219
4472.00 -161.47089693  70.66962888
4474.00 -161.59598310  70.75471251
4476.00 -161.72109063  70.83985309
4478.00 -161.84621948  70.92505061
4480.00 -161.97136961  71.01030508
4482.00 -162.09654101  71.09561649
4484.00 -162.22173363  71.18098484
4486.00 -162.34694745  71.26641012
4488.00 -162.47218243  71.35189235
4490.00 -162.59743854  71.43743151
4492.00 -162.72271574  71.52302760
4494.00 -162.84801401  71.60868063
4496.00 -162.97333332  71.69439058
4498.00 -163.09867363  71.78015747
4500.00 -163.22403491  71.86598128
4502.00 -163.34941712  71.95186202
4504.00 -163.47482025  72.03779968
4506.00 -163.60024425  72.12379426
4508.00 -163.72568909  72.20984577
4510.00 -163.85115474  72.29595419
4512.00 -163.97664117  72.38211953
4514.00 -164.10214835  72.46834178
4516.00 -164.22767624  72.55462095
4518.00 -164.35322482  72.64095702
4520.00 -164.47879405  72.72735001
4522.00 -164.60438389  72.81379991
4524.00 -164.72999433  72.90030671
4526.00 -164.85562532  72.98687041
4528.00 -164.98127684  73.07349101
4530.00 -165.10694885  73.16016852
4532.00 -165.23264132  73.24690292
4534.00 -165.35835422  73.33369422
4536.00 -165.48408752  73.42054241
4538.00 -165.60984118  73.50744749
4540.00 -165.73561518  73.59440946
4542.00 -165.86140948  73.68142832
4544.00 -165.98722405  73.76850406
4546.00 -166.11305886  73.85563669
4548.00 -166.23891388  73.94282620
4550.00 -166.36478907  74.03007258
4552.00 -166.49068441  74.11737585
4554.00 -166.61659986  74.20473598
4556.00 -166.74253539  74.29215299
4558.00 -166.86849097  74.37962687
4560.00 -166.99446656  74.46715761
4562.00 -167.12046214  74.55474523
4564.00 -167.24647768  74.64238970
4566.00 -167.37251314  74.73009103
4568.00 -167.49856849  74.81784922
4570.00 -167.62464370  74.90566427
4572.00 -167.75073874  74.99353617
4574.00 -167.87685357  75.08146493
4576.00 -168.00298817  75.16945053
4578.00 -168.12914250  75.25749297
4580.00 -168.25531654  75.34559226
4582.00 -168.38151024  75.43374839
4584.00 -168.50772359  75.52196136
4586.00 -168.63395654  75.61023117
4588.00 -168.76020907  75.69855781
4590.00 -168.88648114  75.78694128
4592.00 -169.01277272  75.87538157
4594.00 -169.13908379  75.96387870
4596.00 -169.26541431  76.05243264
4598.00 -169.39176424  76.14104341
4600.00 -169.51813356  76.22971100
4602.00 -169.64452224  76.31843539
4604.00 -169.77093025  76.40721661
4606.00 -169.89735754  76.49605463
4608.00 -170.02380410  76.58494946
4610.00 -170.15026989  76.67390109
4612.00 -170.27675488  76.76290952
4614.00 -170.40325904  76.85197475
4616.00 -170.52978233  76.94109678
4618.00 -170.65632473  77.03027560
4620.00 -170.78288620  77.11951121
4622.00 -170.90946672  77.20880361
4624.00 -171.03606624  77.29815279
4626.00 -171.16268475  77.38755875
4628.00 -171.28932220  77.47702149
4630.00 -171.41597858  77.56654101
4632.00 -171.54265384  77.65611730
4634.00 -171.66934795  77.74575036
4636.00 -171.79606089  77.83544018
4638.00 -171.92279262  77.92518677
4640.00 -172.04954311  78.01499012
4642.00 -172.17631234  78.10485022
4644.00 -172.30310026  78.19476708
4646.00 -172.42990685  78.28474069
4648.00 -172.55673208  78.37477105
4650.00 -172.68357591  78.46485815
4652.00 -172.81043832  78.55500200
4654.00 -172.93731927  78.64520258
4656.00 -173.06421873  78.73545989
4658.00 -173.19113667  78.82577394
4660.00 -173.31807307  78.91614472
4662.00 -173.44502788  79.00657222
4664.00 -173.57200109  79.09705645
4666.00 -173.69899265  79.18759739
4668.00 -173.82600253  79.27819505
4670.00 -173.95303071  79.36884943
4672.00 -174.08007716  79.45956051
4674.00 -174.20714183  79.55032829
4676.00 -174.33422471  79.64115278
4678.00 -174.46132576  79.73203397
4680.00 -174.58844495  79.82297185
4682.00 -174.71558225  79.91396642
4684.00 -174.84273763  80.00501768
4686.00 -174.96991105  80.09612563
4688.00 -175.09710249  80.18729026
4690.00 -175.22431192  80.27851156
4692.00 -175.35153930  80.36978954
4694.00 -175.47878460  80.46112419
4696.00 -175.60604780  80.55251551
4698.00 -175.73332886  80.64396349
4700.00 -175.86062775  80.73546813
4702.00 -175.98794444  80.82702942
4704.00 -176.11527890  80.91864737
4706.00 -176.24263109  81.01032197
4708.00 -176.37000100  81.10205321
4710.00 -176.49738858  81.19384110
4712.00 -176.62479381  81.28568562
4714.00 -176.75221665  81.37758677
4716.00 -176.87965708  81.46954456
4718.00 -177.00711506  81.56155897
4720.00 -177.13459056  81.65363001
4722.00 -177.26208355  81.74575766
4724.00 -177.38959401  81.83794193
4726.00 -177.51712190  81.93018281
4728.00 -177.64466719  82.02248029
4730.00 -177.77222984  82.11483438
4732.00 -177.89980984  82.20724507
4734.00 -178.02740714  82.29971236
4736.00 -178.15502172  82.39223623
4738.00 -178.28265355  82.48481670
4740.00 -178.41030259  82.57745375
4742.00 -178.53796882  82.67014737
4744.00 -178.66565220  82.76289757
4746.00 -178.79335271  82.85570435
4748.00 -178.92107031  82.94856769
4750.00 -179.04880498  83.04148759
4752.00 -179.17655667  83.13446406
4754.00 -179.30432537  83.22749707
4756.00 -179.43211104  83.32058664
4758.00 -179.55991365  83.41373276
4760.00 -179.68773317  83.50693542
4762.00 -179.81556957  83.60019461
4764.00 -179.94342282  83.69351035
4766.00 -180.07129289  83.78688261
4768.00 -180.19917975  83.88031139
4770.00 -180.32708336  83.97379670
4772.00 -180.45500370  84.06733853
4774.00 -180.58294074  84.16093687
4776.00 -180.71089444  84.25459171
4778.00 -180.83886479  84.34830307
4780.00 -180.96685173  84.44207092
4782.00 -181.09485525  84.53589526
4784.00 -181.22287532  84.62977610
4786.00 -181.35091190  84.72371343
4788.00 -181.47896497  84.81770723
4790.00 -181.60703449  84.91175752
4792.00 -181.73512043  85.00586428
4794.00 -181.86322276  85.10002751
4796.00 -181.99134146  85.19424720
4798.00 -182.11947649  85.28852335
4800.00 -182.24762783  85.38285596
4802.00 -182.37579543  85.47724501
4804.00 -182.50397928  85.57169052
4806.00 -182.63217934  85.66619246
4808.00 -182.76039557  85.76075085
4810.00 -182.88862796  85.85536566
4812.00 -183.01687647  85.95003691
4814.00 -183.14514108  86.04476457
4816.00 -183.27342174  86.13954866
4818.00 -183.40171843  86.23438916
4820.00 -183.53003112  86.32928606
4822.00 -183.65835978  86.42423938
4824.00 -183.78670438  86.51924909
4826.00 -183.91506489  86.61431520
4828.00 -184.04344128  86.70943769
4830.00 -184.17183352  86.80461657
4832.00 -184.30024158  86.89985184
4834.00 -184.42866542  86.99514348
4836.00 -184.55710503  87.09049149
4838.00 -184.68556036  87.18589586
4840.00 -184.81403139  87.28135660
4842.00 -184.94251809  87.37687369
4844.00 -185.07102044  87.47244713
4846.00 -185.19953838  87.56807692
4848.00 -185.32807191  87.66376305
4850.00 -185.45662099  87.75950552
4852.00 -185.58518558  87.85530432
4854.00 -185.71376567  87.95115945
4856.00 -185.84236121  88.04707089
4858.00 -185.97097218  88.14303866
4860.00 -186.09959855  88.23906273
4862.00 -186.22824029  88.33514311
4864.00 -186.35689737  88.43127979
4866.00 -186.48556975  88.52747277
4868.00 -186.61425742  88.62372204
4870.00 -186.74296033  88.72002759
4872.00 -186.87167847  88.81638943
4874.00 -187.00041179  88.91280754
4876.00 -187.12916028  89.00928192
4878.00 -187.25792389  89.10581256
4880.00 -187.38670260  89.20239947
4882.00 -187.51549639  89.29904263
4884.00 -187.64430521  89.39574204
4886.00 -187.77312905  89.49249769
4888.00 -187.90196787  89.58930958
4890.00 -188.03082163  89.68617771
4892.00 -188.15969032  89.78310206
4894.00 -188.28857390  89.88008263
4896.00 -188.41747235  89.97711943
4898.00 -188.54638562  90.07421243
4900.00 -188.67531370  90.17136164
4902.00 -188.80425655  90.26856705
4904.00 -188.93321414  90.36582866
4906.00 -189.06218645  90.46314646
4908.00 -189.19117344  90.56052044
4910.00 -189.32017509  90.65795060
4912.00 -189.44919135  90.75543694
4914.00 -189.57822222  90.85297944
4916.00 -189.70726765  90.95057811
4918.00 -189.83632762  91.04823293
4920.00 -189.96540209  91.14594390
4922.00 -190.09449104  91.24371102
4924.00 -190.22359443  91.34153429
4926.00 -190.35271225  91.43941368
4928.00 -190.48184445  91.53734921
4930.00 -190.61099101  91.63534085
4932.00 -190.74015190  91.73338862
4934.00 -190.86932708  91.83149250
4936.00 -190.99851654  91.92965248
4938.00 -191.12772024  92.02786857
4940.00 -191.25693815  92.12614075
4942.00 -191.38617024  92.22446901
4944.00 -191.51541649  92.32285337
4946.00 -191.64467685  92.42129380
4948.00 -191.77395132  92.51979030
4950.00 -191.90323984  92.61834286
4952.00 -192.03254240  92.71695149
4954.00 -192.16185896  92.81561617
4956.00 -192.29118950  92.91433690
4958.00 -192.42053399  93.01311367
4960.00 -192.54989239  93.11194648
4962.00 -192.67926468  93.21083532
4964.00 -192.80865084  93.30978019
4966.00 -192.93805082  93.40878107
4968.00 -193.06746459  93.50783797
4970.00 -193.19689215  93.60695087
4972.00 -193.32633344  93.70611977
4974.00 -193.45578844  93.80534467
4976.00 -193.58525713  93.90462556
4978.00 -193.71473947  94.00396242
4980.00 -193.84423543  94.10335527
4982.00 -193.97374500  94.20280409
4984.00 -194.10326812  94.30230887
4986.00 -194.23280479  94.40186961
4988.00 -194.36235496  94.50148630
4990.00 -194.49191861  94.60115893
4992.00 -194.62149571  94.70088751
4994.00 -194.75108623  94.80067202
4996.00 -194.88069014  94.90051246
4998.00 -195.01030742  95.00040882
5000.00 -195.13993803  95.10036109
