wavelength(nm)         real         imag
100.00   3.77035393   0.00123889
102.00   3.76511673   0.00131471
104.00   3.75977586   0.00139357
106.00   3.75433132   0.00147552
108.00   3.74878312   0.00156062
110.00   3.74313127   0.00164893
112.00   3.73737575   0.00174050
114.00   3.73151658   0.00183541
116.00   3.72555376   0.00193371
118.00   3.71948728   0.00203546
120.00   3.71331716   0.00214071
122.00   3.70704340   0.00224953
124.00   3.70066599   0.00236197
126.00   3.69418494   0.00247810
128.00   3.68760026   0.00259798
130.00   3.68091195   0.00272166
132.00   3.67412000   0.00284920
134.00   3.66722443   0.00298067
136.00   3.66022523   0.00311612
138.00   3.65312241   0.00325561
140.00   3.64591598   0.00339920
142.00   3.63860593   0.00354696
144.00   3.63119226   0.00369893
146.00   3.62367499   0.00385518
148.00   3.61605411   0.00401577
150.00   3.60832964   0.00418076
152.00   3.60050156   0.00435021
154.00   3.59256989   0.00452417
156.00   3.58453462   0.00470271
158.00   3.57639577   0.00488588
160.00   3.56815333   0.00507375
162.00   3.55980732   0.00526638
164.00   3.55135772   0.00546381
166.00   3.54280455   0.00566612
168.00   3.53414781   0.00587336
170.00   3.52538751   0.00608560
172.00   3.51652364   0.00630288
174.00   3.50755622   0.00652527
176.00   3.49848524   0.00675283
178.00   3.48931071   0.00698563
180.00   3.48003263   0.00722370
182.00   3.47065102   0.00746713
184.00   3.46116586   0.00771596
186.00   3.45157717   0.00797026
188.00   3.44188495   0.00823009
190.00   3.43208920   0.00849549
192.00   3.42218993   0.00876654
194.00   3.41218715   0.00904330
196.00   3.40208085   0.00932582
198.00   3.39187105   0.00961415
200.00   3.38155774   0.00990837
202.00   3.37114093   0.01020853
204.00   3.36062063   0.01051469
206.00   3.34999684   0.01082691
208.00   3.33926956   0.01114524
210.00   3.32843880   0.01146975
212.00   3.31750456   0.01180050
214.00   3.30646686   0.01213754
216.00   3.29532569   0.01248094
218.00   3.28408105   0.01283075
220.00   3.27273296   0.01318703
222.00   3.26128142   0.01354985
224.00   3.24972643   0.01391926
226.00   3.23806800   0.01429532
228.00   3.22630613   0.01467808
230.00   3.21444084   0.01506762
232.00   3.20247211   0.01546399
234.00   3.19039997   0.01586724
236.00   3.17822441   0.01627744
238.00   3.16594544   0.01669465
240.00   3.15356306   0.01711892
242.00   3.14107729   0.01755031
244.00   3.12848812   0.01798889
246.00   3.11579556   0.01843471
248.00   3.10299962   0.01888783
250.00   3.09010031   0.01934832
252.00   3.07709762   0.01981622
254.00   3.06399156   0.02029160
256.00   3.05078215   0.02077452
258.00   3.03746938   0.02126504
260.00   3.02405326   0.02176321
262.00   3.01053380   0.02226910
264.00   2.99691101   0.02278276
266.00   2.98318488   0.02330426
268.00   2.96935542   0.02383365
270.00   2.95542265   0.02437099
272.00   2.94138657   0.02491635
274.00   2.92724718   0.02546977
276.00   2.91300449   0.02603132
278.00   2.89865850   0.02660106
280.00   2.88420923   0.02717905
282.00   2.86965667   0.02776534
284.00   2.85500084   0.02836000
286.00   2.84024174   0.02896308
288.00   2.82537938   0.02957465
290.00   2.81041376   0.03019476
292.00   2.79534490   0.03082347
294.00   2.78017279   0.03146084
296.00   2.76489744   0.03210693
298.00   2.74951887   0.03276180
300.00   2.73403707   0.03342550
302.00   2.71845206   0.03409810
304.00   2.70276383   0.03477966
306.00   2.68697241   0.03547023
308.00   2.67107779   0.03616988
310.00   2.65507998   0.03687866
312.00   2.63897899   0.03759662
314.00   2.62277483   0.03832384
316.00   2.60646750   0.03906037
318.00   2.59005701   0.03980627
320.00   2.57354336   0.04056159
322.00   2.55692657   0.04132640
324.00   2.54020664   0.04210075
326.00   2.52338358   0.04288471
328.00   2.50645740   0.04367833
330.00   2.48942810   0.04448167
332.00   2.47229569   0.04529479
334.00   2.45506018   0.04611776
336.00   2.43772158   0.04695061
338.00   2.42027989   0.04779343
340.00   2.40273512   0.04864626
342.00   2.38508728   0.04950917
344.00   2.36733637   0.05038221
346.00   2.34948241   0.05126544
348.00   2.33152541   0.05215893
350.00   2.31346536   0.05306272
352.00   2.29530228   0.05397689
354.00   2.27703617   0.05490148
356.00   2.25866706   0.05583656
358.00   2.24019493   0.05678218
360.00   2.22161980   0.05773840
362.00   2.20294168   0.05870529
364.00   2.18416058   0.05968291
366.00   2.16527650   0.06067130
368.00   2.14628945   0.06167053
370.00   2.12719944   0.06268066
372.00   2.10800649   0.06370174
374.00   2.08871059   0.06473384
376.00   2.06931176   0.06577702
378.00   2.04981000   0.06683132
380.00   2.03020532   0.06789682
382.00   2.01049774   0.06897357
384.00   1.99068726   0.07006163
386.00   1.97077388   0.07116105
388.00   1.95075762   0.07227191
390.00   1.93063849   0.07339424
392.00   1.91041650   0.07452812
394.00   1.89009165   0.07567360
396.00   1.86966395   0.07683075
398.00   1.84913341   0.07799961
400.00   1.82850004   0.07918025
402.00   1.80776386   0.08037272
404.00   1.78692486   0.08157710
406.00   1.76598306   0.08279342
408.00   1.74493847   0.08402176
410.00   1.72379109   0.08526217
412.00   1.70254094   0.08651471
414.00   1.68118802   0.08777943
416.00   1.65973235   0.08905641
418.00   1.63817393   0.09034569
420.00   1.61651277   0.09164733
422.00   1.59474888   0.09296139
424.00   1.57288228   0.09428794
426.00   1.55091297   0.09562702
428.00   1.52884096   0.09697871
430.00   1.50666625   0.09834305
432.00   1.48438887   0.09972010
434.00   1.46200882   0.10110993
436.00   1.43952611   0.10251258
438.00   1.41694075   0.10392813
440.00   1.39425274   0.10535663
442.00   1.37146211   0.10679814
444.00   1.34856885   0.10825270
446.00   1.32557299   0.10972040
448.00   1.30247452   0.11120127
450.00   1.27927346   0.11269539
452.00   1.25596982   0.11420281
454.00   1.23256361   0.11572358
456.00   1.20905484   0.11725777
458.00   1.18544352   0.11880543
460.00   1.16172966   0.12036663
462.00   1.13791327   0.12194141
464.00   1.11399437   0.12352985
466.00   1.08997295   0.12513199
468.00   1.06584903   0.12674790
470.00   1.04162263   0.12837763
472.00   1.01729375   0.13002125
474.00   0.99286240   0.13167880
476.00   0.96832860   0.13335036
478.00   0.94369235   0.13503597
480.00   0.91895366   0.13673569
482.00   0.89411256   0.13844959
484.00   0.86916904   0.14017773
486.00   0.84412311   0.14192015
488.00   0.81897480   0.14367692
490.00   0.79372411   0.14544810
492.00   0.76837104   0.14723374
494.00   0.74291562   0.14903390
496.00   0.71735785   0.15084865
498.00   0.69169775   0.15267803
500.00   0.66593532   0.15452211
502.00   0.64007058   0.15638095
504.00   0.61410353   0.15825460
506.00   0.58803420   0.16014312
508.00   0.56186258   0.16204658
510.00   0.53558869   0.16396502
512.00   0.50921255   0.16589850
514.00   0.48273417   0.16784709
516.00   0.45615355   0.16981084
518.00   0.42947070   0.17178981
520.00   0.40268565   0.17378406
522.00   0.37579840   0.17579365
524.00   0.34880896   0.17781863
526.00   0.32171734   0.17985906
528.00   0.29452356   0.18191500
530.00   0.26722763   0.18398651
532.00   0.23982956   0.18607365
534.00   0.21232936   0.18817647
536.00   0.18472704   0.19029503
538.00   0.15702262   0.19242939
540.00   0.12921611   0.19457961
542.00   0.10130752   0.19674575
544.00   0.07329686   0.19892786
546.00   0.04518414   0.20112600
548.00   0.01696938   0.20334023
550.00  -0.01134741   0.20557061
552.00  -0.03976622   0.20781719
554.00  -0.06828704   0.21008003
556.00  -0.09690985   0.21235920
558.00  -0.12563464   0.21465474
560.00  -0.15446141   0.21696672
562.00  -0.18339012   0.21929520
564.00  -0.21242079   0.22164023
566.00  -0.24155338   0.22400186
568.00  -0.27078790   0.22638017
570.00  -0.30012432   0.22877520
572.00  -0.32956263   0.23118701
574.00  -0.35910283   0.23361566
576.00  -0.38874489   0.23606121
578.00  -0.41848881   0.23852372
580.00  -0.44833456   0.24100324
582.00  -0.47828215   0.24349983
584.00  -0.50833156   0.24601355
586.00  -0.53848277   0.24854446
588.00  -0.56873576   0.25109261
590.00  -0.59909054   0.25365807
592.00  -0.62954708   0.25624088
594.00  -0.66010537   0.25884111
596.00  -0.69076539   0.26145882
598.00  -0.72152714   0.26409406
600.00  -0.75239060   0.26674688
602.00  -0.78335576   0.26941736
604.00  -0.81442260   0.27210554
606.00  -0.84559111   0.27481148
608.00  -0.87686128   0.27753524
610.00  -0.90823309   0.28027688
612.00  -0.93970653   0.28303646
614.00  -0.97128159   0.28581403
616.00  -1.00295825   0.28860965
618.00  -1.03473649   0.29142337
620.00  -1.06661631   0.29425526
622.00  -1.09859770   0.29710537
624.00  -1.13068063   0.29997376
626.00  -1.16286509   0.30286049
628.00  -1.19515107   0.30576561
630.00  -1.22753856   0.30868919
632.00  -1.26002753   0.31163127
634.00  -1.29261799   0.31459192
636.00  -1.32530990   0.31757119
638.00  -1.35810327   0.32056915
640.00  -1.39099807   0.32358584
642.00  -1.42399429   0.32662133
644.00  -1.45709192   0.32967567
646.00  -1.49029093   0.33274892
648.00  -1.52359133   0.33584114
650.00  -1.55699309   0.33895238
652.00  -1.59049619   0.34208271
654.00  -1.62410063   0.34523217
656.00  -1.65780639   0.34840083
658.00  -1.69161345   0.35158875
660.00  -1.72552181   0.35479597
662.00  -1.75953143   0.35802256
664.00  -1.79364232   0.36126858
666.00  -1.82785446   0.36453408
668.00  -1.86216782   0.36781912
670.00  -1.89658240   0.37112375
672.00  -1.93109819   0.37444804
674.00  -1.96571515   0.37779204
676.00  -2.00043329   0.38115580
678.00  -2.03525259   0.38453939
680.00  -2.07017303   0.38794286
682.00  -2.10519459   0.39136627
684.00  -2.14031726   0.39480967
686.00  -2.17554103   0.39827313
688.00  -2.21086588   0.40175670
690.00  -2.24629180   0.40526043
692.00  -2.28181876   0.40878438
694.00  -2.31744676   0.41232862
696.00  -2.35317578   0.41589319
698.00  -2.38900580   0.41947816
700.00  -2.42493681   0.42308357
702.00  -2.46096879   0.42670950
704.00  -2.49710173   0.43035599
706.00  -2.53333561   0.43402310
708.00  -2.56967042   0.43771089
710.00  -2.60610613   0.44141941
712.00  -2.64264275   0.44514873
714.00  -2.67928023   0.44889889
716.00  -2.71601858   0.45266996
718.00  -2.75285778   0.45646199
720.00  -2.78979781   0.46027504
722.00  -2.82683865   0.46410916
724.00  -2.86398030   0.46796442
726.00  -2.90122272   0.47184087
728.00  -2.93856591   0.47573856
730.00  -2.97600985   0.47965755
732.00  -3.01355453   0.48359790
734.00  -3.05119992   0.48755967
736.00  -3.08894602   0.49154291
738.00  -3.12679280   0.49554768
740.00  -3.16474025   0.49957403
742.00  -3.20278836   0.50362202
744.00  -3.24093710   0.50769172
746.00  -3.27918646   0.51178316
748.00  -3.31753642   0.51589642
750.00  -3.35598697   0.52003155
752.00  -3.39453809   0.52418860
754.00  -3.43318976   0.52836763
756.00  -3.47194197   0.53256870
758.00  -3.51079471   0.53679186
760.00  -3.54974794   0.54103717
762.00  -3.58880166   0.54530469
764.00  -3.62795585   0.54959447
766.00  -3.66721050   0.55390657
768.00  -3.70656558   0.55824105
770.00  -3.74602107   0.56259796
772.00  -3.78557698   0.56697735
774.00  -3.82523326   0.57137929
776.00  -3.86498991   0.57580383
778.00  -3.90484692   0.58025103
780.00  -3.94480426   0.58472094
782.00  -3.98486191   0.58921362
784.00  -4.02501986   0.59372913
786.00  -4.06527810   0.59826752
788.00  -4.10563660   0.60282884
790.00  -4.14609534   0.60741316
792.00  -4.18665432   0.61202053
794.00  -4.22731351   0.61665101
796.00  -4.26807289   0.62130465
798.00  -4.30893245   0.62598151
800.00  -4.34989217   0.63068165
802.00  -4.39095203   0.63540511
804.00  -4.43211201   0.64015196
806.00  -4.47337210   0.64492226
808.00  -4.51473228   0.64971605
810.00  -4.55619253   0.65453340
812.00  -4.59775283   0.65937436
814.00  -4.63941317   0.66423899
816.00  -4.68117352   0.66912734
818.00  -4.72303388   0.67403947
820.00  -4.76499421   0.67897544
822.00  -4.80705451   0.68393529
824.00  -4.84921475   0.68891909
826.00  -4.89147492   0.69392690
828.00  -4.93383500   0.69895876
830.00  -4.97629497   0.70401474
832.00  -5.01885481   0.70909489
834.00  -5.06151450   0.71419926
836.00  -5.10427403   0.71932792
838.00  -5.14713338   0.72448091
840.00  -5.19009252   0.72965829
842.00  -5.23315145   0.73486013
844.00  -5.27631014   0.74008647
846.00  -5.31956857   0.74533737
848.00  -5.36292672   0.75061288
850.00  -5.40638458   0.75591307
852.00  -5.44994213   0.76123799
854.00  -5.49359935   0.76658768
856.00  -5.53735621   0.77196222
858.00  -5.58121271   0.77736165
860.00  -5.62516882   0.78278603
862.00  -5.66922452   0.78823542
864.00  -5.71337980   0.79370986
866.00  -5.75763463   0.79920942
868.00  -5.80198900   0.80473416
870.00  -5.84644288   0.81028412
872.00  -5.89099626   0.81585937
874.00  -5.93564913   0.82145995
876.00  -5.98040145   0.82708593
878.00  -6.02525321   0.83273735
880.00  -6.07020440   0.83841428
882.00  -6.11525498   0.84411677
884.00  -6.16040495   0.84984488
886.00  -6.20565429   0.85559865
888.00  -6.25100296   0.86137816
890.00  -6.29645096   0.86718344
892.00  -6.34199827   0.87301456
894.00  -6.38764486   0.87887157
896.00  -6.43339072   0.88475453
898.00  -6.47923583   0.89066349
900.00  -6.52518016   0.89659851
902.00  -6.57122369   0.90255964
904.00  -6.61736642   0.90854694
906.00  -6.66360831   0.91456046
908.00  -6.70994935   0.92060026
910.00  -6.75638952   0.92666639
912.00  -6.80292880   0.93275891
914.00  -6.84956716   0.93887788
916.00  -6.89630459   0.94502334
918.00  -6.94314107   0.95119536
920.00  -6.99007658   0.95739399
922.00  -7.03711110   0.96361927
924.00  -7.08424460   0.96987128
926.00  -7.13147707   0.97615006
928.00  -7.17880849   0.98245567
930.00  -7.22623883   0.98878817
932.00  -7.27376808   0.99514760
934.00  -7.32139622   1.00153402
936.00  -7.36912323   1.00794750
938.00  -7.41694908   1.01438807
940.00  -7.46487375   1.02085581
942.00  -7.51289723   1.02735075
944.00  -7.56101949   1.03387297
946.00  -7.60924052   1.04042250
948.00  -7.65756029   1.04699941
950.00  -7.70597878   1.05360376
952.00  -7.75449597   1.06023559
954.00  -7.80311184   1.06689496
956.00  -7.85182638   1.07358193
958.00  -7.90063955   1.08029655
960.00  -7.94955134   1.08703887
962.00  -7.99856173   1.09380895
964.00  -8.04767069   1.10060685
966.00  -8.09687821   1.10743262
968.00  -8.14618426   1.11428631
970.00  -8.19558883   1.12116797
972.00  -8.24509189   1.12807767
974.00  -8.29469342   1.13501546
976.00  -8.34439340   1.14198139
978.00  -8.39419181   1.14897551
980.00  -8.44408862   1.15599789
982.00  -8.49408382   1.16304857
984.00  -8.54417739   1.17012761
986.00  -8.59436930   1.17723506
988.00  -8.64465953   1.18437098
990.00  -8.69504806   1.19153542
992.00  -8.74553488   1.19872844
994.00  -8.79611994   1.20595009
996.00  -8.84680325   1.21320043
998.00  -8.89758477   1.22047950
1000.00  -8.94846448   1.22778737
1002.00  -8.99944236   1.23512409
1004.00  -9.05051839   1.24248971
1006.00  -9.10169255   1.24988428
1008.00  -9.15296481   1.25730787
1010.00  -9.20433516   1.26476052
1012.00  -9.25580356   1.27224229
1014.00  -9.30737001   1.27975323
1016.00  -9.35903448   1.28729340
1018.00  -9.41079694   1.29486285
1020.00  -9.46265738   1.30246163
1022.00  -9.51461576   1.31008981
1024.00  -9.56667208   1.31774742
1026.00  -9.61882630   1.32543454
1028.00  -9.67107841   1.33315120
1030.00  -9.72342839   1.34089747
1032.00  -9.77587620   1.34867340
1034.00  -9.82842183   1.35647904
1036.00  -9.88106526   1.36431445
1038.00  -9.93380646   1.37217968
1040.00  -9.98664541   1.38007478
1042.00 -10.03958209   1.38799981
1044.00 -10.09261647   1.39595482
1046.00 -10.14574854   1.40393987
1048.00 -10.19897827   1.41195501
1050.00 -10.25230564   1.42000029
1052.00 -10.30573062   1.42807576
1054.00 -10.35925320   1.43618149
1056.00 -10.41287335   1.44431752
1058.00 -10.46659104   1.45248391
1060.00 -10.52040626   1.46068071
1062.00 -10.57431898   1.46890798
1064.00 -10.62832917   1.47716576
1066.00 -10.68243683   1.48545412
1068.00 -10.73664191   1.49377310
1070.00 -10.79094441   1.50212276
1072.00 -10.84534429   1.51050315
1074.00 -10.89984154   1.51891433
1076.00 -10.95443613   1.52735635
1078.00 -11.00912803   1.53582927
1080.00 -11.06391723   1.54433312
1082.00 -11.11880369   1.55286798
1084.00 -11.17378741   1.56143389
1086.00 -11.22886835   1.57003091
1088.00 -11.28404649   1.57865909
1090.00 -11.33932181   1.58731848
1092.00 -11.39469428   1.59600913
1094.00 -11.45016388   1.60473111
1096.00 -11.50573059   1.61348446
1098.00 -11.56139438   1.62226923
1100.00 -11.61715523   1.63108549
1102.00 -11.67301311   1.63993327
1104.00 -11.72896801   1.64881265
1106.00 -11.78501990   1.65772366
1108.00 -11.84116875   1.66666636
1110.00 -11.89741454   1.67564080
1112.00 -11.95375725   1.68464705
1114.00 -12.01019686   1.69368514
1116.00 -12.06673333   1.70275514
1118.00 -12.12336665   1.71185710
1120.00 -12.18009679   1.72099106
1122.00 -12.23692372   1.73015709
1124.00 -12.29384743   1.73935523
1126.00 -12.35086789   1.74858555
1128.00 -12.40798507   1.75784808
1130.00 -12.46519896   1.76714289
1132.00 -12.52250952   1.77647002
1134.00 -12.57991673   1.78582954
1136.00 -12.63742057   1.79522148
1138.00 -12.69502102   1.80464591
1140.00 -12.75271804   1.81410288
1142.00 -12.81051162   1.82359245
1144.00 -12.86840173   1.83311465
1146.00 -12.92638835   1.84266955
1148.00 -12.98447145   1.85225720
1150.00 -13.04265100   1.86187765
1152.00 -13.10092699   1.87153096
1154.00 -13.15929938   1.88121717
1156.00 -13.21776816   1.89093634
1158.00 -13.27633330   1.90068852
1160.00 -13.33499477   1.91047377
1162.00 -13.39375254   1.92029213
1164.00 -13.45260661   1.93014366
1166.00 -13.51155693   1.94002842
1168.00 -13.57060348   1.94994644
1170.00 -13.62974625   1.95989780
1172.00 -13.68898520   1.96988253
1174.00 -13.74832031   1.97990069
1176.00 -13.80775155   1.98995234
1178.00 -13.86727890   2.00003752
1180.00 -13.92690234   2.01015630
1182.00 -13.98662183   2.02030871
1184.00 -14.04643736   2.03049481
1186.00 -14.10634890   2.04071466
1188.00 -14.16635642   2.05096830
1190.00 -14.22645989   2.06125580
1192.00 -14.28665930   2.07157719
1194.00 -14.34695462   2.08193254
1196.00 -14.40734582   2.09232189
1198.00 -14.46783288   2.10274530
1200.00 -14.52841576   2.11320282
1202.00 -14.58909445   2.12369450
1204.00 -14.64986893   2.13422040
1206.00 -14.71073915   2.14478056
1208.00 -14.77170510   2.15537503
1210.00 -14.83276676   2.16600388
1212.00 -14.89392409   2.17666715
1214.00 -14.95517708   2.18736489
1216.00 -15.01652569   2.19809715
1218.00 -15.07796990   2.20886399
1220.00 -15.13950968   2.21966546
1222.00 -15.20114502   2.23050161
1224.00 -15.26287587   2.24137249
1226.00 -15.32470222   2.25227816
1228.00 -15.38662404   2.26321866
1230.00 -15.44864130   2.27419405
1232.00 -15.51075398   2.28520438
1234.00 -15.57296206   2.29624969
1236.00 -15.63526549   2.30733005
1238.00 -15.69766427   2.31844550
1240.00 -15.76015836   2.32959610
1242.00 -15.82274774   2.34078189
1244.00 -15.88543238   2.35200294
1246.00 -15.94821225   2.36325928
1248.00 -16.01108733   2.37455097
1250.00 -16.07405760   2.38587807
1252.00 -16.13712301   2.39724062
1254.00 -16.20028356   2.40863867
1256.00 -16.26353921   2.42007228
1258.00 -16.32688993   2.43154150
1260.00 -16.39033570   2.44304638
1262.00 -16.45387650   2.45458697
1264.00 -16.51751229   2.46616332
1266.00 -16.58124304   2.47777548
1268.00 -16.64506874   2.48942351
1270.00 -16.70898936   2.50110745
1272.00 -16.77300487   2.51282736
1274.00 -16.83711523   2.52458329
1276.00 -16.90132043   2.53637528
1278.00 -16.96562044   2.54820340
1280.00 -17.03001523   2.56006769
1282.00 -17.09450477   2.57196820
1284.00 -17.15908905   2.58390498
1286.00 -17.22376802   2.59587808
1288.00 -17.28854166   2.60788756
1290.00 -17.35340995   2.61993347
1292.00 -17.41837285   2.63201586
1294.00 -17.48343035   2.64413477
1296.00 -17.54858242   2.65629026
1298.00 -17.61382901   2.66848238
1300.00 -17.67917012   2.68071118
1302.00 -17.74460571   2.69297671
1304.00 -17.81013576   2.70527902
1306.00 -17.87576023   2.71761816
1308.00 -17.94147910   2.72999419
1310.00 -18.00729235   2.74240715
1312.00 -18.07319994   2.75485710
1314.00 -18.13920184   2.76734408
1316.00 -18.20529804   2.77986815
1318.00 -18.27148850   2.79242935
1320.00 -18.33777319   2.80502775
1322.00 -18.40415209   2.81766337
1324.00 -18.47062517   2.83033629
1326.00 -18.53719239   2.84304655
1328.00 -18.60385375   2.85579419
1330.00 -18.67060919   2.86857927
1332.00 -18.73745871   2.88140184
1334.00 -18.80440226   2.89426196
1336.00 -18.87143983   2.90715966
1338.00 -18.93857138   2.92009500
1340.00 -19.00579689   2.93306804
1342.00 -19.07311632   2.94607882
1344.00 -19.14052965   2.95912738
1346.00 -19.20803686   2.97221379
1348.00 -19.27563790   2.98533809
1350.00 -19.34333277   2.99850034
1352.00 -19.41112141   3.01170057
1354.00 -19.47900382   3.02493885
1356.00 -19.54697996   3.03821522
1358.00 -19.61504980   3.05152974
1360.00 -19.68321331   3.06488244
1362.00 -19.75147047   3.07827339
1364.00 -19.81982125   3.09170263
1366.00 -19.88826561   3.10517022
1368.00 -19.95680353   3.11867619
1370.00 -20.02543499   3.13222061
1372.00 -20.09415994   3.14580352
1374.00 -20.16297837   3.15942498
1376.00 -20.23189025   3.17308502
1378.00 -20.30089554   3.18678371
1380.00 -20.36999422   3.20052109
1382.00 -20.43918626   3.21429721
1384.00 -20.50847163   3.22811212
1386.00 -20.57785030   3.24196587
1388.00 -20.64732225   3.25585851
1390.00 -20.71688743   3.26979009
1392.00 -20.78654584   3.28376067
1394.00 -20.85629743   3.29777028
1396.00 -20.92614217   3.31181898
1398.00 -20.99608004   3.32590681
1400.00 -21.06611102   3.34003384
1402.00 -21.13623506   3.35420010
1404.00 -21.20645214   3.36840565
1406.00 -21.27676223   3.38265054
1408.00 -21.34716531   3.39693481
1410.00 -21.41766134   3.41125851
1412.00 -21.48825029   3.42562171
1414.00 -21.55893214   3.44002443
1416.00 -21.62970685   3.45446674
1418.00 -21.70057440   3.46894868
1420.00 -21.77153475   3.48347030
1422.00 -21.84258788   3.49803165
1424.00 -21.91373376   3.51263278
1426.00 -21.98497235   3.52727374
1428.00 -22.05630364   3.54195458
1430.00 -22.12772758   3.55667534
1432.00 -22.19924415   3.57143608
1434.00 -22.27085333   3.58623685
1436.00 -22.34255507   3.60107769
1438.00 -22.41434935   3.61595865
1440.00 -22.48623614   3.63087979
1442.00 -22.55821541   3.64584115
1444.00 -22.63028714   3.66084278
1446.00 -22.70245128   3.67588472
1448.00 -22.77470782   3.69096704
1450.00 -22.84705671   3.70608977
1452.00 -22.91949794   3.72125297
1454.00 -22.99203147   3.73645668
1456.00 -23.06465727   3.75170095
1458.00 -23.13737531   3.76698584
1460.00 -23.21018556   3.78231138
1462.00 -23.28308800   3.79767764
1464.00 -23.35608258   3.81308465
1466.00 -23.42916929   3.82853247
1468.00 -23.50234808   3.84402115
1470.00 -23.57561894   3.85955072
1472.00 -23.64898182   3.87512125
1474.00 -23.72243671   3.89073278
1476.00 -23.79598356   3.90638536
1478.00 -23.86962236   3.92207904
1480.00 -23.94335306   3.93781386
1482.00 -24.01717564   3.95358988
1484.00 -24.09109006   3.96940714
1486.00 -24.16509631   3.98526569
1488.00 -24.23919434   4.00116558
1490.00 -24.31338413   4.01710685
1492.00 -24.38766564   4.03308957
1494.00 -24.46203885   4.04911376
1496.00 -24.53650372   4.06517949
1498.00 -24.61106022   4.08128680
1500.00 -24.68570833   4.09743574
1502.00 -24.76044801   4.11362635
1504.00 -24.83527923   4.12985869
1506.00 -24.91020196   4.14613280
1508.00 -24.98521617   4.16244873
1510.00 -25.06032182   4.17880653
1512.00 -25.13551890   4.19520625
1514.00 -25.21080736   4.21164793
1516.00 -25.28618718   4.22813162
1518.00 -25.36165832   4.24465738
1520.00 -25.43722075   4.26122524
1522.00 -25.51287445   4.27783526
1524.00 -25.58861938   4.29448748
1526.00 -25.66445551   4.31118195
1528.00 -25.74038280   4.32791872
1530.00 -25.81640124   4.34469784
1532.00 -25.89251078   4.36151936
1534.00 -25.96871139   4.37838331
1536.00 -26.04500305   4.39528976
1538.00 -26.12138573   4.41223874
1540.00 -26.19785938   4.42923031
1542.00 -26.27442398   4.44626451
1544.00 -26.35107950   4.46334140
1546.00 -26.42782591   4.48046100
1548.00 -26.50466317   4.49762339
1550.00 -26.58159126   4.51482860
1552.00 -26.65861013   4.53207667
1554.00 -26.73571977   4.54936767
1556.00 -26.81292014   4.56670162
1558.00 -26.89021120   4.58407859
1560.00 -26.96759293   4.60149862
1562.00 -27.04506529   4.61896176
1564.00 -27.12262826   4.63646805
1566.00 -27.20028179   4.65401754
1568.00 -27.27802586   4.67161028
1570.00 -27.35586044   4.68924631
1572.00 -27.43378549   4.70692568
1574.00 -27.51180099   4.72464845
1576.00 -27.58990690   4.74241465
1578.00 -27.66810318   4.76022433
1580.00 -27.74638981   4.77807755
1582.00 -27.82476676   4.79597434
1584.00 -27.90323398   4.81391476
1586.00 -27.98179146   4.83189884
1588.00 -28.06043916   4.84992665
1590.00 -28.13917704   4.86799822
1592.00 -28.21800508   4.88611360
1594.00 -28.29692323   4.90427284
1596.00 -28.37593148   4.92247598
1598.00 -28.45502978   4.94072308
1600.00 -28.53421811   4.95901417
1602.00 -28.61349643   4.97734931
1604.00 -28.69286471   4.99572854
1606.00 -28.77232291   5.01415191
1608.00 -28.85187102   5.03261947
1610.00 -28.93150898   5.05113125
1612.00 -29.01123677   5.06968732
1614.00 -29.09105436   5.08828771
1616.00 -29.17096172   5.10693247
1618.00 -29.25095881   5.12562164
1620.00 -29.33104559   5.14435528
1622.00 -29.41122205   5.16313344
1624.00 -29.49148813   5.18195614
1626.00 -29.57184382   5.20082345
1628.00 -29.65228908   5.21973541
1630.00 -29.73282387   5.23869207
1632.00 -29.81344817   5.25769346
1634.00 -29.89416194   5.27673965
1636.00 -29.97496514   5.29583067
1638.00 -30.05585775   5.31496656
1640.00 -30.13683972   5.33414739
1642.00 -30.21791104   5.35337318
1644.00 -30.29907166   5.37264400
1646.00 -30.38032156   5.39195988
1648.00 -30.46166069   5.41132086
1650.00 -30.54308903   5.43072701
1652.00 -30.62460654   5.45017836
1654.00 -30.70621319   5.46967495
1656.00 -30.78790895   5.48921684
1658.00 -30.86969378   5.50880407
1660.00 -30.95156765   5.52843668
1662.00 -31.03353053   5.54811472
1664.00 -31.11558238   5.56783824
1666.00 -31.19772317   5.58760729
1668.00 -31.27995287   5.60742190
1670.00 -31.36227144   5.62728213
1672.00 -31.44467885   5.64718801
1674.00 -31.52717507   5.66713960
1676.00 -31.60976006   5.68713694
1678.00 -31.69243379   5.70718008
1680.00 -31.77519623   5.72726906
1682.00 -31.85804733   5.74740392
1684.00 -31.94098708   5.76758472
1686.00 -32.02401543   5.78781150
1688.00 -32.10713235   5.80808430
1690.00 -32.19033781   5.82840317
1692.00 -32.27363177   5.84876815
1694.00 -32.35701421   5.86917929
1696.00 -32.44048508   5.88963664
1698.00 -32.52404435   5.91014023
1700.00 -32.60769199   5.93069012
1702.00 -32.69142796   5.95128636
1704.00 -32.77525224   5.97192897
1706.00 -32.85916478   5.99261802
1708.00 -32.94316555   6.01335354
1710.00 -33.02725453   6.03413558
1712.00 -33.11143167   6.05496419
1714.00 -33.19569693   6.07583941
1716.00 -33.28005030   6.09676128
1718.00 -33.36449173   6.11772985
1720.00 -33.44902118   6.13874517
1722.00 -33.53363863   6.15980728
1724.00 -33.61834404   6.18091622
1726.00 -33.70313738   6.20207204
1728.00 -33.78801861   6.22327479
1730.00 -33.87298769   6.24452450
1732.00 -33.95804460   6.26582123
1734.00 -34.04318929   6.28716502
1736.00 -34.12842174   6.30855591
1738.00 -34.21374191   6.32999395
1740.00 -34.29914977   6.35147918
1742.00 -34.38464527   6.37301164
1744.00 -34.47022839   6.39459139
1746.00 -34.55589910   6.41621847
1748.00 -34.64165735   6.43789291
1750.00 -34.72750311   6.45961477
1752.00 -34.81343635   6.48138408
1754.00 -34.89945703   6.50320090
1756.00 -34.98556513   6.52506527
1758.00 -35.07176059   6.54697723
1760.00 -35.15804340   6.56893683
1762.00 -35.24441351   6.59094410
1764.00 -35.33087089   6.61299910
1766.00 -35.41741550   6.63510187
1768.00 -35.50404731   6.65725245
1770.00 -35.59076629   6.67945089
1772.00 -35.67757240   6.70169723
1774.00 -35.76446561   6.72399152
1776.00 -35.85144587   6.74633379
1778.00 -35.93851316   6.76872410
1780.00 -36.02566744   6.79116248
1782.00 -36.11290868   6.81364898
1784.00 -36.20023683   6.83618365
1786.00 -36.28765187   6.85876653
1788.00 -36.37515376   6.88139766
1790.00 -36.46274247   6.90407709
1792.00 -36.55041796   6.92680485
1794.00 -36.63818019   6.94958100
1796.00 -36.72602912   6.97240558
1798.00 -36.81396474   6.99527863
1800.00 -36.90198699   7.01820019
1802.00 -36.99009584   7.04117031
1804.00 -37.07829126   7.06418903
1806.00 -37.16657322   7.08725640
1808.00 -37.25494167   7.11037245
1810.00 -37.34339659   7.13353724
1812.00 -37.43193793   7.15675081
1814.00 -37.52056566   7.18001319
1816.00 -37.60927974   7.20332444
1818.00 -37.69808015   7.22668459
1820.00 -37.78696684   7.25009369
1822.00 -37.87593978   7.27355178
1824.00 -37.96499893   7.29705891
1826.00 -38.05414426   7.32061511
1828.00 -38.14337573   7.34422044
1830.00 -38.23269330   7.36787494
1832.00 -38.32209695   7.39157864
1834.00 -38.41158663   7.41533159
1836.00 -38.50116231   7.43913384
1838.00 -38.59082395   7.46298543
1840.00 -38.68057152   7.48688639
1842.00 -38.77040498   7.51083678
1844.00 -38.86032430   7.53483664
1846.00 -38.95032943   7.55888600
1848.00 -39.04042035   7.58298492
1850.00 -39.13059701   7.60713343
1852.00 -39.22085939   7.63133158
1854.00 -39.31120744   7.65557941
1856.00 -39.40164113   7.67987696
1858.00 -39.49216042   7.70422428
1860.00 -39.58276528   7.72862140
1862.00 -39.67345567   7.75306838
1864.00 -39.76423156   7.77756525
1866.00 -39.85509290   7.80211206
1868.00 -39.94603967   7.82670884
1870.00 -40.03707182   7.85135565
1872.00 -40.12818933   7.87605252
1874.00 -40.21939214   7.90079950
1876.00 -40.31068023   7.92559662
1878.00 -40.40205357   7.95044394
1880.00 -40.49351210   7.97534149
1882.00 -40.58505581   8.00028931
1884.00 -40.67668465   8.02528746
1886.00 -40.76839858   8.05033596
1888.00 -40.86019757   8.07543487
1890.00 -40.95208158   8.10058422
1892.00 -41.04405058   8.12578405
1894.00 -41.13610453   8.15103442
1896.00 -41.22824339   8.17633535
1898.00 -41.32046712   8.20168690
1900.00 -41.41277569   8.22708911
1902.00 -41.50516907   8.25254201
1904.00 -41.59764721   8.27804564
1906.00 -41.69021008   8.30360006
1908.00 -41.78285765   8.32920531
1910.00 -41.87558987   8.35486141
1912.00 -41.96840670   8.38056843
1914.00 -42.06130812   8.40632639
1916.00 -42.15429409   8.43213534
1918.00 -42.24736456   8.45799532
1920.00 -42.34051950   8.48390637
1922.00 -42.43375888   8.50986854
1924.00 -42.52708265   8.53588187
1926.00 -42.62049079   8.56194639
1928.00 -42.71398325   8.58806216
1930.00 -42.80755999   8.61422920
1932.00 -42.90122098   8.64044757
1934.00 -42.99496619   8.66671730
1936.00 -43.08879557   8.69303844
1938.00 -43.18270909   8.71941102
1940.00 -43.27670671   8.74583509
1942.00 -43.37078839   8.77231069
1944.00 -43.46495410   8.79883787
1946.00 -43.55920379   8.82541665
1948.00 -43.65353744   8.85204709
1950.00 -43.74795501   8.87872922
1952.00 -43.84245645   8.90546309
1954.00 -43.93704173   8.93224873
1956.00 -44.03171081   8.95908619
1958.00 -44.12646366   8.98597551
1960.00 -44.22130024   9.01291673
1962.00 -44.31622050   9.03990989
1964.00 -44.41122442   9.06695503
1966.00 -44.50631196   9.09405220
1968.00 -44.60148307   9.12120143
1970.00 -44.69673772   9.14840276
1972.00 -44.79207588   9.17565624
1974.00 -44.88749750   9.20296190
1976.00 -44.98300254   9.23031979
1978.00 -45.07859098   9.25772995
1980.00 -45.17426277   9.28519242
1982.00 -45.27001787   9.31270723
1984.00 -45.36585625   9.34027444
1986.00 -45.46177787   9.36789407
1988.00 -45.55778269   9.39556618
1990.00 -45.65387067   9.42329080
1992.00 -45.75004178   9.45106796
1994.00 -45.84629598   9.47889772
1996.00 -45.94263323   9.50678012
1998.00 -46.03905349   9.53471518
2000.00 -46.13555672   9.56270296
2002.00 -46.23214289   9.59074349
2004.00 -46.32881196   9.61883682
2006.00 -46.42556388   9.64698298
2008.00 -46.52239863   9.67518201
2010.00 -46.61931617   9.70343396
2012.00 -46.71631645   9.73173886
2014.00 -46.81339943   9.76009676
2016.00 -46.91056509   9.78850769
2018.00 -47.00781338   9.81697170
2020.00 -47.10514426   9.84548882
2022.00 -47.20255770   9.87405910
2024.00 -47.30005366   9.90268257
2026.00 -47.39763209   9.93135928
2028.00 -47.49529297   9.96008926
2030.00 -47.59303625   9.98887256
2032.00 -47.69086189  10.01770921
2034.00 -47.78876986  10.04659925
2036.00 -47.88676012  10.07554273
2038.00 -47.98483262  10.10453968
2040.00 -48.08298734  10.13359014
2042.00 -48.18122422  10.16269416
2044.00 -48.27954325  10.19185177
2046.00 -48.37794436  10.22106301
2048.00 -48.47642754  10.25032792
2050.00 -48.57499273  10.27964654
2052.00 -48.67363990  10.30901891
2054.00 -48.77236902  10.33844508
2056.00 -48.87118004  10.36792507
2058.00 -48.97007292  10.39745893
2060.00 -49.06904762  10.42704670
2062.00 -49.16810412  10.45668842
2064.00 -49.26724236  10.48638412
2066.00 -49.36646231  10.51613385
2068.00 -49.46576393  10.54593764
2070.00 -49.56514719  10.57579554
2072.00 -49.66461203  10.60570758
2074.00 -49.76415844  10.63567380
2076.00 -49.86378635  10.66569425
2078.00 -49.96349575  10.69576895
2080.00 -50.06328658  10.72589796
2082.00 -50.16315881  10.75608130
2084.00 -50.26311240  10.78631902
2086.00 -50.36314732  10.81661115
2088.00 -50.46326351  10.84695775
2090.00 -50.56346095  10.87735883
2092.00 -50.66373959  10.90781445
2094.00 -50.76409940  10.93832464
2096.00 -50.86454034  10.96888944
2098.00 -50.96506236  10.99950888
2100.00 -51.06566543  11.03018302
2102.00 -51.16634951  11.06091188
2104.00 -51.26711455  11.09169551
2106.00 -51.36796053  11.12253394
2108.00 -51.46888740  11.15342721
2110.00 -51.56989513  11.18437536
2112.00 -51.67098366  11.21537843
2114.00 -51.77215297  11.24643645
2116.00 -51.87340302  11.27754947
2118.00 -51.97473376  11.30871753
2120.00 -52.07614516  11.33994066
2122.00 -52.17763717  11.37121889
2124.00 -52.27920976  11.40255228
2126.00 -52.38086289  11.43394085
2128.00 -52.48259651  11.46538465
2130.00 -52.58441060  11.49688371
2132.00 -52.68630510  11.52843807
2134.00 -52.78827999  11.56004778
2136.00 -52.89033522  11.59171285
2138.00 -52.99247074  11.62343335
2140.00 -53.09468653  11.65520929
2142.00 -53.19698254  11.68704073
2144.00 -53.29935874  11.71892770
2146.00 -53.40181507  11.75087023
2148.00 -53.50435151  11.78286837
2150.00 -53.60696802  11.81492215
2152.00 -53.70966454  11.84703161
2154.00 -53.81244105  11.87919679
2156.00 -53.91529751  11.91141772
2158.00 -54.01823387  11.94369445
2160.00 -54.12125010  11.97602700
2162.00 -54.22434615  12.00841543
2164.00 -54.32752199  12.04085976
2166.00 -54.43077757  12.07336004
2168.00 -54.53411286  12.10591629
2170.00 -54.63752781  12.13852857
2172.00 -54.74102239  12.17119690
2174.00 -54.84459656  12.20392132
2176.00 -54.94825027  12.23670188
2178.00 -55.05198349  12.26953860
2180.00 -55.15579618  12.30243152
2182.00 -55.25968829  12.33538069
2184.00 -55.36365979  12.36838614
2186.00 -55.46771063  12.40144790
2188.00 -55.57184079  12.43456602
2190.00 -55.67605020  12.46774053
2192.00 -55.78033885  12.50097147
2194.00 -55.88470668  12.53425887
2196.00 -55.98915365  12.56760277
2198.00 -56.09367973  12.60100321
2200.00 -56.19828488  12.63446023
2202.00 -56.30296905  12.66797386
2204.00 -56.40773221  12.70154414
2206.00 -56.51257431  12.73517110
2208.00 -56.61749532  12.76885479
2210.00 -56.72249519  12.80259524
2212.00 -56.82757389  12.83639248
2214.00 -56.93273137  12.87024656
2216.00 -57.03796759  12.90415751
2218.00 -57.14328252  12.93812536
2220.00 -57.24867611  12.97215016
2222.00 -57.35414832  13.00623193
2224.00 -57.45969911  13.04037072
2226.00 -57.56532844  13.07456656
2228.00 -57.67103628  13.10881950
2230.00 -57.77682257  13.14312955
2232.00 -57.88268729  13.17749677
2234.00 -57.98863038  13.21192119
2236.00 -58.09465182  13.24640284
2238.00 -58.20075155  13.28094176
2240.00 -58.30692954  13.31553798
2242.00 -58.41318575  13.35019155
2244.00 -58.51952013  13.38490250
2246.00 -58.62593265  13.41967086
2248.00 -58.73242326  13.45449668
2250.00 -58.83899193  13.48937998
2252.00 -58.94563862  13.52432080
2254.00 -59.05236327  13.55931918
2256.00 -59.15916586  13.59437516
2258.00 -59.26604634  13.62948877
2260.00 -59.37300467  13.66466004
2262.00 -59.48004081  13.69988902
2264.00 -59.58715472  13.73517573
2266.00 -59.69434636  13.77052022
2268.00 -59.80161568  13.80592252
2270.00 -59.90896265  13.84138266
2272.00 -60.01638723  13.87690068
2274.00 -60.12388937  13.91247662
2276.00 -60.23146904  13.94811052
2278.00 -60.33912619  13.98380240
2280.00 -60.44686078  14.01955230
2282.00 -60.55467277  14.05536026
2284.00 -60.66256212  14.09122632
2286.00 -60.77052879  14.12715050
2288.00 -60.87857274  14.16313285
2290.00 -60.98669392  14.19917340
2292.00 -61.09489230  14.23527219
2294.00 -61.20316784  14.27142924
2296.00 -61.31152048  14.30764461
2298.00 -61.41995020  14.34391831
2300.00 -61.52845695  14.38025039
2302.00 -61.63704069  14.41664088
2304.00 -61.74570138  14.45308981
2306.00 -61.85443898  14.48959723
2308.00 -61.96325344  14.52616316
2310.00 -62.07214473  14.56278765
2312.00 -62.18111280  14.59947072
2314.00 -62.29015761  14.63621241
2316.00 -62.39927913  14.67301276
2318.00 -62.50847730  14.70987180
2320.00 -62.61775209  14.74678956
2322.00 -62.72710346  14.78376609
2324.00 -62.83653136  14.82080141
2326.00 -62.94603576  14.85789556
2328.00 -63.05561661  14.89504857
2330.00 -63.16527387  14.93226048
2332.00 -63.27500750  14.96953133
2334.00 -63.38481746  15.00686114
2336.00 -63.49470371  15.04424996
2338.00 -63.60466620  15.08169781
2340.00 -63.71470489  15.11920474
2342.00 -63.82481975  15.15677077
2344.00 -63.93501073  15.19439594
2346.00 -64.04527778  15.23208029
2348.00 -64.15562088  15.26982384
2350.00 -64.26603996  15.30762664
2352.00 -64.37653501  15.34548871
2354.00 -64.48710596  15.38341010
2356.00 -64.59775279  15.42139083
2358.00 -64.70847544  15.45943094
2360.00 -64.81927388  15.49753046
2362.00 -64.93014807  15.53568943
2364.00 -65.04109796  15.57390789
2366.00 -65.15212351  15.61218586
2368.00 -65.26322468  15.65052338
2370.00 -65.37440143  15.68892048
2372.00 -65.48565371  15.72737720
2374.00 -65.59698150  15.76589357
2376.00 -65.70838473  15.80446963
2378.00 -65.81986337  15.84310540
2380.00 -65.93141738  15.88180093
2382.00 -66.04304672  15.92055624
2384.00 -66.15475135  15.95937137
2386.00 -66.26653122  15.99824636
2388.00 -66.37838628  16.03718123
2390.00 -66.49031651  16.07617602
2392.00 -66.60232186  16.11523077
2394.00 -66.71440228  16.15434550
2396.00 -66.82655773  16.19352026
2398.00 -66.93878817  16.23275507
2400.00 -67.05109356  16.27204996
2402.00 -67.16347386  16.31140498
2404.00 -67.27592903  16.35082015
2406.00 -67.38845901  16.39029551
2408.00 -67.50106378  16.42983109
2410.00 -67.61374328  16.46942692
2412.00 -67.72649748  16.50908304
2414.00 -67.83932634  16.54879948
2416.00 -67.95222980  16.58857627
2418.00 -68.06520784  16.62841345
2420.00 -68.17826040  16.66831105
2422.00 -68.29138744  16.70826910
2424.00 -68.40458893  16.74828763
2426.00 -68.51786482  16.78836668
2428.00 -68.63121507  16.82850628
2430.00 -68.74463963  16.86870647
2432.00 -68.85813847  16.90896727
2434.00 -68.97171154  16.94928872
2436.00 -69.08535879  16.98967085
2438.00 -69.19908019  17.03011369
2440.00 -69.31287570  17.07061729
2442.00 -69.42674526  17.11118166
2444.00 -69.54068885  17.15180684
2446.00 -69.65470641  17.19249287
2448.00 -69.76879791  17.23323977
2450.00 -69.88296329  17.27404759
2452.00 -69.99720253  17.31491634
2454.00 -70.11151557  17.35584607
2456.00 -70.22590237  17.39683681
2458.00 -70.34036290  17.43788858
2460.00 -70.45489710  17.47900143
2462.00 -70.56950495  17.52017538
2464.00 -70.68418638  17.56141046
2466.00 -70.79894136  17.60270672
2468.00 -70.91376986  17.64406417
2470.00 -71.02867182  17.68548285
2472.00 -71.14364720  17.72696280
2474.00 -71.25869596  17.76850404
2476.00 -71.37381806  17.81010661
2478.00 -71.48901345  17.85177054
2480.00 -71.60428210  17.89349586
2482.00 -71.71962395  17.93528261
2484.00 -71.83503897  17.97713081
2486.00 -71.95052711  18.01904050
2488.00 -72.06608834  18.06101170
2490.00 -72.18172260  18.10304446
2492.00 -72.29742986  18.14513880
2494.00 -72.41321007  18.18729475
2496.00 -72.52906319  18.22951235
2498.00 -72.64498918  18.27179163
2500.00 -72.76098799  18.31413261
2502.00 -72.87705958  18.35653533
2504.00 -72.99320390  18.39899983
2506.00 -73.10942093  18.44152613
2508.00 -73.22571060  18.48411426
2510.00 -73.34207289  18.52676426
2512.00 -73.45850774  18.56947615
2514.00 -73.57501511  18.61224998
2516.00 -73.69159496  18.65508576
2518.00 -73.80824725  18.69798353
2520.00 -73.92497194  18.74094333
2522.00 -74.04176897  18.78396517
2524.00 -74.15863831  18.82704911
2526.00 -74.27557992  18.87019515
2528.00 -74.39259375  18.91340335
2530.00 -74.50967975  18.95667372
2532.00 -74.62683789  19.00000630
2534.00 -74.74406813  19.04340111
2536.00 -74.86137041  19.08685820
2538.00 -74.97874470  19.13037759
2540.00 -75.09619095  19.17395931
2542.00 -75.21370912  19.21760339
2544.00 -75.33129917  19.26130986
2546.00 -75.44896105  19.30507876
2548.00 -75.56669472  19.34891012
2550.00 -75.68450013  19.39280395
2552.00 -75.80237725  19.43676031
2554.00 -75.92032603  19.48077920
2556.00 -76.03834642  19.52486068
2558.00 -76.15643839  19.56900476
2560.00 -76.27460189  19.61321148
2562.00 -76.39283687  19.65748087
2564.00 -76.51114330  19.70181296
2566.00 -76.62952112  19.74620777
2568.00 -76.74797031  19.79066534
2570.00 -76.86649080  19.83518571
2572.00 -76.98508257  19.87976889
2574.00 -77.10374556  19.92441492
2576.00 -77.22247973  19.96912383
2578.00 -77.34128504  20.01389565
2580.00 -77.46016145  20.05873041
2582.00 -77.57910891  20.10362814
2584.00 -77.69812738  20.14858887
2586.00 -77.81721682  20.19361263
2588.00 -77.93637717  20.23869945
2590.00 -78.05560840  20.28384936
2592.00 -78.17491047  20.32906239
2594.00 -78.29428333  20.37433857
2596.00 -78.41372694  20.41967792
2598.00 -78.53324125  20.46508049
2600.00 -78.65282622  20.51054629
2602.00 -78.77248180  20.55607536
2604.00 -78.89220796  20.60166773
2606.00 -79.01200465  20.64732343
2608.00 -79.13187182  20.69304248
2610.00 -79.25180944  20.73882492
2612.00 -79.37181745  20.78467078
2614.00 -79.49189582  20.83058008
2616.00 -79.61204449  20.87655286
2618.00 -79.73226344  20.92258914
2620.00 -79.85255261  20.96868895
2622.00 -79.97291195  21.01485233
2624.00 -80.09334143  21.06107930
2626.00 -80.21384101  21.10736989
2628.00 -80.33441063  21.15372413
2630.00 -80.45505026  21.20014205
2632.00 -80.57575984  21.24662367
2634.00 -80.69653934  21.29316904
2636.00 -80.81738872  21.33977817
2638.00 -80.93830792  21.38645110
2640.00 -81.05929691  21.43318785
2642.00 -81.18035564  21.47998846
2644.00 -81.30148407  21.52685295
2646.00 -81.42268215  21.57378135
2648.00 -81.54394984  21.62077369
2650.00 -81.66528709  21.66783000
2652.00 -81.78669387  21.71495031
2654.00 -81.90817012  21.76213464
2656.00 -82.02971580  21.80938303
2658.00 -82.15133088  21.85669551
2660.00 -82.27301530  21.90407209
2662.00 -82.39476902  21.95151282
2664.00 -82.51659200  21.99901771
2666.00 -82.63848419  22.04658681
2668.00 -82.76044555  22.09422013
2670.00 -82.88247604  22.14191770
2672.00 -83.00457560  22.18967956
2674.00 -83.12674421  22.23750573
2676.00 -83.24898180  22.28539624
2678.00 -83.37128835  22.33335112
2680.00 -83.49366380  22.38137039
2682.00 -83.61610811  22.42945409
2684.00 -83.73862123  22.47760224
2686.00 -83.86120313  22.52581487
2688.00 -83.98385375  22.57409201
2690.00 -84.10657306  22.62243369
2692.00 -84.22936101  22.67083993
2694.00 -84.35221755  22.71931077
2696.00 -84.47514265  22.76784622
2698.00 -84.59813625  22.81644633
2700.00 -84.72119831  22.86511111
2702.00 -84.84432880  22.91384060
2704.00 -84.96752765  22.96263481
2706.00 -85.09079484  23.01149379
2708.00 -85.21413031  23.06041756
2710.00 -85.33753402  23.10940614
2712.00 -85.46100593  23.15845956
2714.00 -85.58454599  23.20757786
2716.00 -85.70815415  23.25676105
2718.00 -85.83183039  23.30600917
2720.00 -85.95557464  23.35532224
2722.00 -86.07938686  23.40470029
2724.00 -86.20326702  23.45414335
2726.00 -86.32721506  23.50365145
2728.00 -86.45123095  23.55322461
2730.00 -86.57531463  23.60286285
2732.00 -86.69946606  23.65256622
2734.00 -86.82368520  23.70233473
2736.00 -86.94797201  23.75216841
2738.00 -87.07232644  23.80206729
2740.00 -87.19674844  23.85203140
2742.00 -87.32123797  23.90206076
2744.00 -87.44579499  23.95215540
2746.00 -87.57041944  24.00231535
2748.00 -87.69511130  24.05254063
2750.00 -87.81987051  24.10283127
2752.00 -87.94469702  24.15318730
2754.00 -88.06959080  24.20360875
2756.00 -88.19455180  24.25409563
2758.00 -88.31957997  24.30464799
2760.00 -88.44467527  24.35526584
2762.00 -88.56983766  24.40594921
2764.00 -88.69506708  24.45669814
2766.00 -88.82036350  24.50751263
2768.00 -88.94572688  24.55839273
2770.00 -89.07115715  24.60933846
2772.00 -89.19665429  24.66034984
2774.00 -89.32221825  24.71142690
2776.00 -89.44784898  24.76256968
2778.00 -89.57354644  24.81377818
2780.00 -89.69931058  24.86505245
2782.00 -89.82514136  24.91639250
2784.00 -89.95103873  24.96779837
2786.00 -90.07700265  25.01927008
2788.00 -90.20303308  25.07080765
2790.00 -90.32912996  25.12241111
2792.00 -90.45529326  25.17408050
2794.00 -90.58152293  25.22581582
2796.00 -90.70781892  25.27761712
2798.00 -90.83418120  25.32948442
2800.00 -90.96060971  25.38141773
2802.00 -91.08710441  25.43341710
2804.00 -91.21366525  25.48548254
2806.00 -91.34029220  25.53761408
2808.00 -91.46698520  25.58981174
2810.00 -91.59374422  25.64207556
2812.00 -91.72056920  25.69440556
2814.00 -91.84746010  25.74680176
2816.00 -91.97441688  25.79926419
2818.00 -92.10143949  25.85179287
2820.00 -92.22852788  25.90438784
2822.00 -92.35568202  25.95704911
2824.00 -92.48290186  26.00977671
2826.00 -92.61018735  26.06257068
2828.00 -92.73753844  26.11543102
2830.00 -92.86495510  26.16835777
2832.00 -92.99243728  26.22135096
2834.00 -93.11998492  26.27441060
2836.00 -93.24759800  26.32753673
2838.00 -93.37527646  26.38072937
2840.00 -93.50302025  26.43398854
2842.00 -93.63082934  26.48731428
2844.00 -93.75870367  26.54070660
2846.00 -93.88664321  26.59416553
2848.00 -94.01464790  26.64769110
2850.00 -94.14271771  26.70128332
2852.00 -94.27085258  26.75494224
2854.00 -94.39905248  26.80866786
2856.00 -94.52731735  26.86246022
2858.00 -94.65564715  26.91631935
2860.00 -94.78404184  26.97024525
2862.00 -94.91250138  27.02423797
2864.00 -95.04102571  27.07829752
2866.00 -95.16961479  27.13242394
2868.00 -95.29826858  27.18661724
2870.00 -95.42698703  27.24087745
2872.00 -95.55577009  27.29520459
2874.00 -95.68461773  27.34959869
2876.00 -95.81352989  27.40405978
2878.00 -95.94250653  27.45858787
2880.00 -96.07154761  27.51318300
2882.00 -96.20065308  27.56784519
2884.00 -96.32982290  27.62257445
2886.00 -96.45905701  27.67737083
2888.00 -96.58835538  27.73223433
2890.00 -96.71771796  27.78716499
2892.00 -96.84714470  27.84216283
2894.00 -96.97663557  27.89722787
2896.00 -97.10619050  27.95236014
2898.00 -97.23580947  28.00755966
2900.00 -97.36549241  28.06282646
2902.00 -97.49523930  28.11816056
2904.00 -97.62505008  28.17356198
2906.00 -97.75492471  28.22903075
2908.00 -97.88486314  28.28456689
2910.00 -98.01486532  28.34017043
2912.00 -98.14493122  28.39584139
2914.00 -98.27506078  28.45157980
2916.00 -98.40525397  28.50738567
2918.00 -98.53551073  28.56325904
2920.00 -98.66583102  28.61919992
2922.00 -98.79621480  28.67520834
2924.00 -98.92666201  28.73128433
2926.00 -99.05717262  28.78742790
2928.00 -99.18774658  28.84363908
2930.00 -99.31838385  28.89991790
2932.00 -99.44908437  28.95626437
2934.00 -99.57984810  29.01267853
2936.00 -99.71067500  29.06916039
2938.00 -99.84156502  29.12570998
2940.00 -99.97251812  29.18232732
2942.00 -100.10353425  29.23901244
2944.00 -100.23461337  29.29576535
2946.00 -100.36575543  29.35258609
2948.00 -100.49696038  29.40947467
2950.00 -100.62822818  29.46643112
2952.00 -100.75955878  29.52345546
2954.00 -100.89095215  29.58054772
2956.00 -101.02240822  29.63770792
2958.00 -101.15392697  29.69493607
2960.00 -101.28550833  29.75223221
2962.00 -101.41715228  29.80959636
2964.00 -101.54885875  29.86702854
2966.00 -101.68062771  29.92452877
2968.00 -101.81245911  29.98209708
2970.00 -101.94435290  30.03973348
2972.00 -102.07630904  30.09743801
2974.00 -102.20832749  30.15521069
2976.00 -102.34040819  30.21305153
2978.00 -102.47255111  30.27096056
2980.00 -102.60475619  30.32893780
2982.00 -102.73702339  30.38698328
2984.00 -102.86935267  30.44509701
2986.00 -103.00174398  30.50327903
2988.00 -103.13419727  30.56152935
2990.00 -103.26671250  30.61984800
2992.00 -103.39928963  30.67823499
2994.00 -103.53192860  30.73669036
2996.00 -103.66462938  30.79521411
2998.00 -103.79739191  30.85380629
3000.00 -103.93021615  30.91246690
3002.00 -104.06310206  30.97119597
3004.00 -104.19604958  31.02999352
3006.00 -104.32905868  31.08885958
3008.00 -104.46212931  31.14779416
3010.00 -104.59526142  31.20679730
3012.00 -104.72845497  31.26586900
3014.00 -104.86170991  31.32500930
3016.00 -104.99502619  31.38421821
3018.00 -105.12840378  31.44349576
3020.00 -105.26184262  31.50284197
3022.00 -105.39534266  31.56225686
3024.00 -105.52890387  31.62174045
3026.00 -105.66252620  31.68129276
3028.00 -105.79620960  31.74091383
3030.00 -105.92995402  31.80060366
3032.00 -106.06375942  31.86036228
3034.00 -106.19762576  31.92018971
3036.00 -106.33155299  31.98008598
3038.00 -106.46554105  32.04005110
3040.00 -106.59958992  32.10008510
3042.00 -106.73369953  32.16018799
3044.00 -106.86786986  32.22035981
3046.00 -107.00210084  32.28060056
3048.00 -107.13639243  32.34091028
3050.00 -107.27074460  32.40128899
3052.00 -107.40515728  32.46173670
3054.00 -107.53963044  32.52225343
3056.00 -107.67416403  32.58283921
3058.00 -107.80875801  32.64349407
3060.00 -107.94341233  32.70421801
3062.00 -108.07812694  32.76501106
3064.00 -108.21290179  32.82587325
3066.00 -108.34773685  32.88680459
3068.00 -108.48263207  32.94780511
3070.00 -108.61758739  33.00887482
3072.00 -108.75260278  33.07001375
3074.00 -108.88767818  33.13122192
3076.00 -109.02281356  33.19249934
3078.00 -109.15800887  33.25384605
3080.00 -109.29326405  33.31526206
3082.00 -109.42857908  33.37674739
3084.00 -109.56395388  33.43830206
3086.00 -109.69938844  33.49992609
3088.00 -109.83488269  33.56161951
3090.00 -109.97043659  33.62338233
3092.00 -110.10605009  33.68521458
3094.00 -110.24172316  33.74711627
3096.00 -110.37745574  33.80908743
3098.00 -110.51324779  33.87112808
3100.00 -110.64909926  33.93323823
3102.00 -110.78501010  33.99541792
3104.00 -110.92098028  34.05766715
3106.00 -111.05700973  34.11998595
3108.00 -111.19309843  34.18237433
3110.00 -111.32924632  34.24483233
3112.00 -111.46545335  34.30735996
3114.00 -111.60171949  34.36995723
3116.00 -111.73804468  34.43262418
3118.00 -111.87442888  34.49536081
3120.00 -112.01087204  34.55816716
3122.00 -112.14737411  34.62104324
3124.00 -112.28393506  34.68398907
3126.00 -112.42055483  34.74700466
3128.00 -112.55723338  34.81009005
3130.00 -112.69397067  34.87324525
3132.00 -112.83076664  34.93647028
3134.00 -112.96762125  34.99976516
3136.00 -113.10453445  35.06312991
3138.00 -113.24150620  35.12656455
3140.00 -113.37853646  35.19006910
3142.00 -113.51562517  35.25364357
3144.00 -113.65277229  35.31728800
3146.00 -113.78997778  35.38100240
3148.00 -113.92724158  35.44478678
3150.00 -114.06456366  35.50864117
3152.00 -114.20194397  35.57256559
3154.00 -114.33938245  35.63656006
3156.00 -114.47687907  35.70062459
3158.00 -114.61443378  35.76475921
3160.00 -114.75204653  35.82896393
3162.00 -114.88971727  35.89323878
3164.00 -115.02744597  35.95758377
3166.00 -115.16523257  36.02199893
3168.00 -115.30307703  36.08648427
3170.00 -115.44097930  36.15103981
3172.00 -115.57893934  36.21566557
3174.00 -115.71695709  36.28036157
3176.00 -115.85503252  36.34512783
3178.00 -115.99316558  36.40996436
3180.00 -116.13135622  36.47487120
3182.00 -116.26960440  36.53984835
3184.00 -116.40791006  36.60489584
3186.00 -116.54627317  36.67001368
3188.00 -116.68469367  36.73520189
3190.00 -116.82317153  36.80046050
3192.00 -116.96170669  36.86578951
3194.00 -117.10029911  36.93118896
3196.00 -117.23894875  36.99665885
3198.00 -117.37765555  37.06219922
3200.00 -117.51641947  37.12781006
3202.00 -117.65524047  37.19349141
3204.00 -117.79411849  37.25924329
3206.00 -117.93305350  37.32506570
3208.00 -118.07204544  37.39095868
3210.00 -118.21109427  37.45692223
3212.00 -118.35019995  37.52295638
3214.00 -118.48936242  37.58906115
3216.00 -118.62858165  37.65523655
3218.00 -118.76785758  37.72148260
3220.00 -118.90719017  37.78779932
3222.00 -119.04657938  37.85418674
3224.00 -119.18602515  37.92064485
3226.00 -119.32552744  37.98717370
3228.00 -119.46508621  38.05377328
3230.00 -119.60470140  38.12044363
3232.00 -119.74437298  38.18718476
3234.00 -119.88410089  38.25399669
3236.00 -120.02388510  38.32087943
3238.00 -120.16372555  38.38783300
3240.00 -120.30362219  38.45485743
3242.00 -120.44357499  38.52195272
3244.00 -120.58358390  38.58911891
3246.00 -120.72364886  38.65635599
3248.00 -120.86376983  38.72366401
3250.00 -121.00394678  38.79104296
3252.00 -121.14417964  38.85849287
3254.00 -121.28446838  38.92601375
3256.00 -121.42481294  38.99360564
3258.00 -121.56521329  39.06126853
3260.00 -121.70566938  39.12900245
3262.00 -121.84618115  39.19680742
3264.00 -121.98674857  39.26468345
3266.00 -122.12737158  39.33263056
3268.00 -122.26805015  39.40064878
3270.00 -122.40878422  39.46873811
3272.00 -122.54957375  39.53689857
3274.00 -122.69041869  39.60513018
3276.00 -122.83131900  39.67343297
3278.00 -122.97227463  39.74180694
3280.00 -123.11328553  39.81025211
3282.00 -123.25435166  39.87876850
3284.00 -123.39547297  39.94735613
3286.00 -123.53664942  40.01601501
3288.00 -123.67788095  40.08474517
3290.00 -123.81916753  40.15354661
3292.00 -123.96050911  40.22241936
3294.00 -124.10190563  40.29136344
3296.00 -124.24335706  40.36037885
3298.00 -124.38486335  40.42946562
3300.00 -124.52642445  40.49862376
3302.00 -124.66804031  40.56785329
3304.00 -124.80971090  40.63715423
3306.00 -124.95143615  40.70652660
3308.00 -125.09321604  40.77597040
3310.00 -125.23505050  40.84548566
3312.00 -125.37693950  40.91507240
3314.00 -125.51888298  40.98473062
3316.00 -125.66088091  41.05446036
3318.00 -125.80293323  41.12426161
3320.00 -125.94503990  41.19413441
3322.00 -126.08720088  41.26407876
3324.00 -126.22941611  41.33409469
3326.00 -126.37168555  41.40418221
3328.00 -126.51400916  41.47434133
3330.00 -126.65638688  41.54457207
3332.00 -126.79881868  41.61487445
3334.00 -126.94130450  41.68524849
3336.00 -127.08384430  41.75569420
3338.00 -127.22643803  41.82621160
3340.00 -127.36908565  41.89680069
3342.00 -127.51178711  41.96746151
3344.00 -127.65454237  42.03819407
3346.00 -127.79735137  42.10899837
3348.00 -127.94021407  42.17987445
3350.00 -128.08313043  42.25082230
3352.00 -128.22610040  42.32184196
3354.00 -128.36912393  42.39293343
3356.00 -128.51220098  42.46409673
3358.00 -128.65533150  42.53533188
3360.00 -128.79851544  42.60663890
3362.00 -128.94175276  42.67801779
3364.00 -129.08504341  42.74946858
3366.00 -129.22838734  42.82099127
3368.00 -129.37178452  42.89258589
3370.00 -129.51523489  42.96425246
3372.00 -129.65873840  43.03599098
3374.00 -129.80229502  43.10780147
3376.00 -129.94590468  43.17968396
3378.00 -130.08956736  43.25163844
3380.00 -130.23328300  43.32366495
3382.00 -130.37705155  43.39576348
3384.00 -130.52087297  43.46793407
3386.00 -130.66474721  43.54017673
3388.00 -130.80867423  43.61249146
3390.00 -130.95265398  43.68487829
3392.00 -131.09668642  43.75733723
3394.00 -131.24077149  43.82986830
3396.00 -131.38490915  43.90247151
3398.00 -131.52909935  43.97514687
3400.00 -131.67334206  44.04789441
3402.00 -131.81763722  44.12071413
3404.00 -131.96198478  44.19360606
3406.00 -132.10638470  44.26657020
3408.00 -132.25083694  44.33960657
3410.00 -132.39534144  44.41271519
3412.00 -132.53989817  44.48589607
3414.00 -132.68450707  44.55914923
3416.00 -132.82916810  44.63247468
3418.00 -132.97388121  44.70587243
3420.00 -133.11864635  44.77934251
3422.00 -133.26346349  44.85288492
3424.00 -133.40833256  44.92649967
3426.00 -133.55325354  45.00018680
3428.00 -133.69822637  45.07394630
3430.00 -133.84325100  45.14777820
3432.00 -133.98832739  45.22168250
3434.00 -134.13345549  45.29565923
3436.00 -134.27863525  45.36970840
3438.00 -134.42386664  45.44383001
3440.00 -134.56914960  45.51802410
3442.00 -134.71448408  45.59229066
3444.00 -134.85987005  45.66662972
3446.00 -135.00530745  45.74104128
3448.00 -135.15079624  45.81552537
3450.00 -135.29633637  45.89008200
3452.00 -135.44192779  45.96471118
3454.00 -135.58757047  46.03941292
3456.00 -135.73326435  46.11418725
3458.00 -135.87900938  46.18903417
3460.00 -136.02480553  46.26395369
3462.00 -136.17065274  46.33894584
3464.00 -136.31655096  46.41401062
3466.00 -136.46250016  46.48914806
3468.00 -136.60850029  46.56435815
3470.00 -136.75455129  46.63964093
3472.00 -136.90065313  46.71499640
3474.00 -137.04680575  46.79042457
3476.00 -137.19300911  46.86592546
3478.00 -137.33926317  46.94149908
3480.00 -137.48556788  47.01714545
3482.00 -137.63192318  47.09286458
3484.00 -137.77832904  47.16865648
3486.00 -137.92478542  47.24452117
3488.00 -138.07129225  47.32045866
3490.00 -138.21784950  47.39646897
3492.00 -138.36445712  47.47255210
3494.00 -138.51111507  47.54870807
3496.00 -138.65782329  47.62493690
3498.00 -138.80458175  47.70123860
3500.00 -138.95139039  47.77761318
3502.00 -139.09824917  47.85406065
3504.00 -139.24515804  47.93058103
3506.00 -139.39211696  48.00717433
3508.00 -139.53912588  48.08384057
3510.00 -139.68618475  48.16057975
3512.00 -139.83329353  48.23739189
3514.00 -139.98045218  48.31427701
3516.00 -140.12766064  48.39123511
3518.00 -140.27491887  48.46826622
3520.00 -140.42222682  48.54537033
3522.00 -140.56958445  48.62254747
3524.00 -140.71699171  48.69979765
3526.00 -140.86444855  48.77712089
3528.00 -141.01195493  48.85451718
3530.00 -141.15951081  48.93198656
3532.00 -141.30711613  49.00952902
3534.00 -141.45477085  49.08714458
3536.00 -141.60247492  49.16483327
3538.00 -141.75022830  49.24259507
3540.00 -141.89803094  49.32043002
3542.00 -142.04588280  49.39833813
3544.00 -142.19378382  49.47631940
3546.00 -142.34173397  49.55437384
3548.00 -142.48973319  49.63250148
3550.00 -142.63778144  49.71070232
3552.00 -142.78587868  49.78897638
3554.00 -142.93402485  49.86732367
3556.00 -143.08221992  49.94574419
3558.00 -143.23046383  50.02423797
3560.00 -143.37875654  50.10280501
3562.00 -143.52709800  50.18144534
3564.00 -143.67548817  50.26015895
3566.00 -143.82392700  50.33894586
3568.00 -143.97241445  50.41780609
3570.00 -144.12095046  50.49673964
3572.00 -144.26953500  50.57574653
3574.00 -144.41816801  50.65482677
3576.00 -144.56684945  50.73398038
3578.00 -144.71557927  50.81320735
3580.00 -144.86435743  50.89250772
3582.00 -145.01318388  50.97188148
3584.00 -145.16205858  51.05132865
3586.00 -145.31098148  51.13084925
3588.00 -145.45995253  51.21044328
3590.00 -145.60897168  51.29011075
3592.00 -145.75803890  51.36985168
3594.00 -145.90715413  51.44966608
3596.00 -146.05631733  51.52955396
3598.00 -146.20552845  51.60951533
3600.00 -146.35478744  51.68955021
3602.00 -146.50409427  51.76965860
3604.00 -146.65344888  51.84984052
3606.00 -146.80285123  51.93009598
3608.00 -146.95230127  52.01042498
3610.00 -147.10179895  52.09082755
3612.00 -147.25134424  52.17130369
3614.00 -147.40093707  52.25185342
3616.00 -147.55057742  52.33247674
3618.00 -147.70026522  52.41317367
3620.00 -147.85000044  52.49394421
3622.00 -147.99978303  52.57478839
3624.00 -148.14961294  52.65570620
3626.00 -148.29949013  52.73669767
3628.00 -148.44941454  52.81776280
3630.00 -148.59938615  52.89890160
3632.00 -148.74940489  52.98011409
3634.00 -148.89947072  53.06140027
3636.00 -149.04958360  53.14276016
3638.00 -149.19974348  53.22419377
3640.00 -149.34995031  53.30570111
3642.00 -149.50020405  53.38728219
3644.00 -149.65050465  53.46893702
3646.00 -149.80085207  53.55066561
3648.00 -149.95124626  53.63246797
3650.00 -150.10168717  53.71434411
3652.00 -150.25217476  53.79629405
3654.00 -150.40270898  53.87831779
3656.00 -150.55328979  53.96041535
3658.00 -150.70391714  54.04258673
3660.00 -150.85459098  54.12483195
3662.00 -151.00531126  54.20715102
3664.00 -151.15607795  54.28954394
3666.00 -151.30689100  54.37201073
3668.00 -151.45775035  54.45455140
3670.00 -151.60865597  54.53716596
3672.00 -151.75960780  54.61985441
3674.00 -151.91060581  54.70261678
3676.00 -152.06164994  54.78545306
3678.00 -152.21274015  54.86836328
3680.00 -152.36387639  54.95134744
3682.00 -152.51505862  55.03440554
3684.00 -152.66628680  55.11753761
3686.00 -152.81756087  55.20074364
3688.00 -152.96888078  55.28402366
3690.00 -153.12024651  55.36737767
3692.00 -153.27165798  55.45080568
3694.00 -153.42311518  55.53430770
3696.00 -153.57461803  55.61788374
3698.00 -153.72616651  55.70153382
3700.00 -153.87776056  55.78525793
3702.00 -154.02940013  55.86905609
3704.00 -154.18108519  55.95292832
3706.00 -154.33281569  56.03687461
3708.00 -154.48459158  56.12089499
3710.00 -154.63641280  56.20498945
3712.00 -154.78827933  56.28915802
3714.00 -154.94019111  56.37340069
3716.00 -155.09214810  56.45771748
3718.00 -155.24415024  56.54210840
3720.00 -155.39619751  56.62657346
3722.00 -155.54828983  56.71111267
3724.00 -155.70042719  56.79572603
3726.00 -155.85260952  56.88041356
3728.00 -156.00483678  56.96517527
3730.00 -156.15710892  57.05001116
3732.00 -156.30942591  57.13492124
3734.00 -156.46178768  57.21990553
3736.00 -156.61419421  57.30496404
3738.00 -156.76664543  57.39009676
3740.00 -156.91914132  57.47530372
3742.00 -157.07168181  57.56058492
3744.00 -157.22426686  57.64594037
3746.00 -157.37689644  57.73137008
3748.00 -157.52957048  57.81687406
3750.00 -157.68228896  57.90245231
3752.00 -157.83505181  57.98810485
3754.00 -157.98785900  58.07383169
3756.00 -158.14071048  58.15963283
3758.00 -158.29360620  58.24550829
3760.00 -158.44654611  58.33145807
3762.00 -158.59953018  58.41748218
3764.00 -158.75255836  58.50358063
3766.00 -158.90563059  58.58975342
3768.00 -159.05874684  58.67600058
3770.00 -159.21190706  58.76232210
3772.00 -159.36511120  58.84871800
3774.00 -159.51835922  58.93518829
3776.00 -159.67165107  59.02173296
3778.00 -159.82498670  59.10835204
3780.00 -159.97836607  59.19504552
3782.00 -160.13178914  59.28181343
3784.00 -160.28525586  59.36865576
3786.00 -160.43876617  59.45557252
3788.00 -160.59232005  59.54256373
3790.00 -160.74591743  59.62962940
3792.00 -160.89955828  59.71676952
3794.00 -161.05324255  59.80398411
3796.00 -161.20697019  59.89127318
3798.00 -161.36074117  59.97863673
3800.00 -161.51455542  60.06607478
3802.00 -161.66841291  60.15358733
3804.00 -161.82231359  60.24117439
3806.00 -161.97625742  60.32883597
3808.00 -162.13024434  60.41657208
3810.00 -162.28427432  60.50438272
3812.00 -162.43834731  60.59226790
3814.00 -162.59246326  60.68022763
3816.00 -162.74662213  60.76826192
3818.00 -162.90082387  60.85637078
3820.00 -163.05506843  60.94455421
3822.00 -163.20935578  61.03281222
3824.00 -163.36368585  61.12114483
3826.00 -163.51805862  61.20955203
3828.00 -163.67247403  61.29803384
3830.00 -163.82693204  61.38659026
3832.00 -163.98143260  61.47522130
3834.00 -164.13597567  61.56392697
3836.00 -164.29056119  61.65270728
3838.00 -164.44518914  61.74156223
3840.00 -164.59985945  61.83049183
3842.00 -164.75457208  61.91949610
3844.00 -164.90932700  62.00857503
3846.00 -165.06412414  62.09772863
3848.00 -165.21896348  62.18695692
3850.00 -165.37384495  62.27625989
3852.00 -165.52876852  62.36563756
3854.00 -165.68373415  62.45508994
3856.00 -165.83874177  62.54461703
3858.00 -165.99379136  62.63421883
3860.00 -166.14888286  62.72389536
3862.00 -166.30401623  62.81364663
3864.00 -166.45919142  62.90347263
3866.00 -166.61440839  62.99337339
3868.00 -166.76966709  63.08334889
3870.00 -166.92496748  63.17339916
3872.00 -167.08030951  63.26352420
3874.00 -167.23569314  63.35372402
3876.00 -167.39111831  63.44399861
3878.00 -167.54658499  63.53434800
3880.00 -167.70209313  63.62477218
3882.00 -167.85764268  63.71527117
3884.00 -168.01323360  63.80584497
3886.00 -168.16886585  63.89649358
3888.00 -168.32453937  63.98721702
3890.00 -168.48025412  64.07801529
3892.00 -168.63601006  64.16888840
3894.00 -168.79180714  64.25983635
3896.00 -168.94764532  64.35085916
3898.00 -169.10352454  64.44195682
3900.00 -169.25944477  64.53312934
3902.00 -169.41540597  64.62437674
3904.00 -169.57140807  64.71569902
3906.00 -169.72745105  64.80709617
3908.00 -169.88353484  64.89856822
3910.00 -170.03965942  64.99011517
3912.00 -170.19582473  65.08173702
3914.00 -170.35203073  65.17343378
3916.00 -170.50827736  65.26520546
3918.00 -170.66456460  65.35705205
3920.00 -170.82089239  65.44897358
3922.00 -170.97726068  65.54097005
3924.00 -171.13366943  65.63304145
3926.00 -171.29011860  65.72518780
3928.00 -171.44660814  65.81740911
3930.00 -171.60313801  65.90970537
3932.00 -171.75970815  66.00207660
3934.00 -171.91631853  66.09452281
3936.00 -172.07296910  66.18704399
3938.00 -172.22965981  66.27964016
3940.00 -172.38639062  66.37231131
3942.00 -172.54316149  66.46505746
3944.00 -172.69997236  66.55787862
3946.00 -172.85682319  66.65077478
3948.00 -173.01371395  66.74374596
3950.00 -173.17064457  66.83679215
3952.00 -173.32761503  66.92991337
3954.00 -173.48462526  67.02310963
3956.00 -173.64167523  67.11638091
3958.00 -173.79876490  67.20972725
3960.00 -173.95589421  67.30314863
3962.00 -174.11306312  67.39664506
3964.00 -174.27027159  67.49021655
3966.00 -174.42751957  67.58386311
3968.00 -174.58480702  67.67758474
3970.00 -174.74213388  67.77138144
3972.00 -174.89950013  67.86525323
3974.00 -175.05690570  67.95920010
3976.00 -175.21435056  68.05322207
3978.00 -175.37183466  68.14731913
3980.00 -175.52935796  68.24149130
3982.00 -175.68692040  68.33573857
3984.00 -175.84452195  68.43006096
3986.00 -176.00216256  68.52445847
3988.00 -176.15984219  68.61893110
3990.00 -176.31756079  68.71347886
3992.00 -176.47531831  68.80810176
3994.00 -176.63311471  68.90279979
3996.00 -176.79094994  68.99757298
3998.00 -176.94882397  69.09242131
4000.00 -177.10673674  69.18734479
4002.00 -177.26468821  69.28234344
4004.00 -177.42267834  69.37741725
4006.00 -177.58070707  69.47256623
4008.00 -177.73877437  69.56779038
4010.00 -177.89688019  69.66308971
4012.00 -178.05502449  69.75846423
4014.00 -178.21320722  69.85391394
4016.00 -178.37142833  69.94943884
4018.00 -178.52968778  70.04503894
4020.00 -178.68798552  70.14071425
4022.00 -178.84632152  70.23646476
4024.00 -179.00469572  70.33229049
4026.00 -179.16310808  70.42819143
4028.00 -179.32155856  70.52416759
4030.00 -179.48004711  70.62021899
4032.00 -179.63857369  70.71634561
4034.00 -179.79713824  70.81254747
4036.00 -179.95574073  70.90882457
4038.00 -180.11438112  71.00517691
4040.00 -180.27305935  71.10160450
4042.00 -180.43177538  71.19810735
4044.00 -180.59052917  71.29468545
4046.00 -180.74932067  71.39133882
4048.00 -180.90814983  71.48806745
4050.00 -181.06701662  71.58487135
4052.00 -181.22592099  71.68175053
4054.00 -181.38486289  71.77870499
4056.00 -181.54384227  71.87573473
4058.00 -181.70285911  71.97283975
4060.00 -181.86191333  72.07002007
4062.00 -182.02100492  72.16727569
4064.00 -182.18013381  72.26460660
4066.00 -182.33929996  72.36201282
4068.00 -182.49850334  72.45949434
4070.00 -182.65774389  72.55705118
4072.00 -182.81702157  72.65468333
4074.00 -182.97633634  72.75239080
4076.00 -183.13568814  72.85017360
4078.00 -183.29507694  72.94803172
4080.00 -183.45450270  73.04596517
4082.00 -183.61396536  73.14397396
4084.00 -183.77346488  73.24205808
4086.00 -183.93300122  73.34021755
4088.00 -184.09257433  73.43845236
4090.00 -184.25218417  73.53676253
4092.00 -184.41183070  73.63514804
4094.00 -184.57151386  73.73360891
4096.00 -184.73123362  73.83214515
4098.00 -184.89098993  73.93075674
4100.00 -185.05078274  74.02944370
4102.00 -185.21061201  74.12820604
4104.00 -185.37047770  74.22704375
4106.00 -185.53037976  74.32595683
4108.00 -185.69031815  74.42494529
4110.00 -185.85029282  74.52400914
4112.00 -186.01030373  74.62314838
4114.00 -186.17035083  74.72236301
4116.00 -186.33043408  74.82165303
4118.00 -186.49055343  74.92101845
4120.00 -186.65070885  75.02045927
4122.00 -186.81090027  75.11997549
4124.00 -186.97112768  75.21956712
4126.00 -187.13139100  75.31923416
4128.00 -187.29169021  75.41897661
4130.00 -187.45202526  75.51879448
4132.00 -187.61239610  75.61868776
4134.00 -187.77280269  75.71865647
4136.00 -187.93324498  75.81870060
4138.00 -188.09372293  75.91882016
4140.00 -188.25423650  76.01901515
4142.00 -188.41478564  76.11928558
4144.00 -188.57537031  76.21963144
4146.00 -188.73599046  76.32005274
4148.00 -188.89664604  76.42054948
4150.00 -189.05733702  76.52112167
4152.00 -189.21806335  76.62176930
4154.00 -189.37882499  76.72249238
4156.00 -189.53962189  76.82329092
4158.00 -189.70045400  76.92416491
4160.00 -189.86132128  77.02511436
4162.00 -190.02222370  77.12613926
4164.00 -190.18316119  77.22723964
4166.00 -190.34413373  77.32841547
4168.00 -190.50514126  77.42966678
4170.00 -190.66618374  77.53099355
4172.00 -190.82726113  77.63239580
4174.00 -190.98837338  77.73387352
4176.00 -191.14952045  77.83542672
4178.00 -191.31070230  77.93705540
4180.00 -191.47191887  78.03875956
4182.00 -191.63317013  78.14053921
4184.00 -191.79445603  78.24239434
4186.00 -191.95577653  78.34432496
4188.00 -192.11713158  78.44633107
4190.00 -192.27852114  78.54841268
4192.00 -192.43994517  78.65056977
4194.00 -192.60140361  78.75280237
4196.00 -192.76289644  78.85511047
4198.00 -192.92442359  78.95749406
4200.00 -193.08598504  79.05995316
4202.00 -193.24758073  79.16248777
4204.00 -193.40921061  79.26509788
4206.00 -193.57087466  79.36778350
4208.00 -193.73257282  79.47054463
4210.00 -193.89430504  79.57338128
4212.00 -194.05607129  79.67629344
4214.00 -194.21787152  79.77928111
4216.00 -194.37970569  79.88234431
4218.00 -194.54157375  79.98548302
4220.00 -194.70347566  80.08869726
4222.00 -194.86541137  80.19198701
4224.00 -195.02738084  80.29535230
4226.00 -195.18938403  80.39879310
4228.00 -195.35142089  80.50230944
4230.00 -195.51349138  80.60590131
4232.00 -195.67559545  80.70956871
4234.00 -195.83773306  80.81331164
4236.00 -195.99990417  80.91713010
4238.00 -196.16210874  81.02102410
4240.00 -196.32434671  81.12499364
4242.00 -196.48661805  81.22903871
4244.00 -196.64892271  81.33315932
4246.00 -196.81126064  81.43735548
4248.00 -196.97363181  81.54162718
4250.00 -197.13603617  81.64597442
4252.00 -197.29847368  81.75039720
4254.00 -197.46094429  81.85489553
4256.00 -197.62344795  81.95946941
4258.00 -197.78598463  82.06411884
4260.00 -197.94855429  82.16884381
4262.00 -198.11115687  82.27364434
4264.00 -198.27379233  82.37852041
4266.00 -198.43646063  82.48347204
4268.00 -198.59916173  82.58849922
4270.00 -198.76189558  82.69360196
4272.00 -198.92466213  82.79878025
4274.00 -199.08746136  82.90403410
4276.00 -199.25029320  83.00936351
4278.00 -199.41315762  83.11476847
4280.00 -199.57605458  83.22024899
4282.00 -199.73898402  83.32580507
4284.00 -199.90194591  83.43143672
4286.00 -200.06494021  83.53714392
4288.00 -200.22796686  83.64292668
4290.00 -200.39102583  83.74878501
4292.00 -200.55411707  83.85471890
4294.00 -200.71724054  83.96072835
4296.00 -200.88039619  84.06681337
4298.00 -201.04358399  84.17297396
4300.00 -201.20680388  84.27921011
4302.00 -201.37005583  84.38552182
4304.00 -201.53333979  84.49190910
4306.00 -201.69665572  84.59837195
4308.00 -201.86000356  84.70491036
4310.00 -202.02338329  84.81152435
4312.00 -202.18679486  84.91821390
4314.00 -202.35023822  85.02497902
4316.00 -202.51371333  85.13181970
4318.00 -202.67722015  85.23873596
4320.00 -202.84075862  85.34572779
4322.00 -203.00432872  85.45279518
4324.00 -203.16793040  85.55993815
4326.00 -203.33156360  85.66715668
4328.00 -203.49522830  85.77445078
4330.00 -203.65892444  85.88182046
4332.00 -203.82265199  85.98926570
4334.00 -203.98641089  86.09678652
4336.00 -204.15020111  86.20438290
4338.00 -204.31402260  86.31205486
4340.00 -204.47787533  86.41980238
4342.00 -204.64175923  86.52762548
4344.00 -204.80567429  86.63552414
4346.00 -204.96962044  86.74349838
4348.00 -205.13359764  86.85154818
4350.00 -205.29760586  86.95967356
4352.00 -205.46164505  87.06787450
4354.00 -205.62571516  87.17615101
4356.00 -205.78981616  87.28450310
4358.00 -205.95394800  87.39293075
4360.00 -206.11811064  87.50143396
4362.00 -206.28230402  87.61001275
4364.00 -206.44652812  87.71866710
4366.00 -206.61078289  87.82739702
4368.00 -206.77506828  87.93620251
4370.00 -206.93938425  88.04508357
4372.00 -207.10373076  88.15404019
4374.00 -207.26810776  88.26307237
4376.00 -207.43251522  88.37218012
4378.00 -207.59695308  88.48136343
4380.00 -207.76142131  88.59062231
4382.00 -207.92591987  88.69995675
4384.00 -208.09044870  88.80936675
4386.00 -208.25500776  88.91885232
4388.00 -208.41959703  89.02841344
4390.00 -208.58421644  89.13805013
4392.00 -208.74886596  89.24776237
4394.00 -208.91354554  89.35755017
4396.00 -209.07825514  89.46741354
4398.00 -209.24299472  89.57735245
4400.00 -209.40776424  89.68736693
4402.00 -209.57256365  89.79745696
4404.00 -209.73739291  89.90762254
4406.00 -209.90225198  90.01786368
4408.00 -210.06714081  90.12818037
4410.00 -210.23205936  90.23857261
4412.00 -210.39700759  90.34904040
4414.00 -210.56198545  90.45958374
4416.00 -210.72699291  90.57020262
4418.00 -210.89202991  90.68089706
4420.00 -211.05709643  90.79166704
4422.00 -211.22219240  90.90251256
4424.00 -211.38731780  91.01343363
4426.00 -211.55247257  91.12443024
4428.00 -211.71765668  91.23550240
4430.00 -211.88287008  91.34665009
4432.00 -212.04811274  91.45787332
4434.00 -212.21338460  91.56917208
4436.00 -212.37868562  91.68054639
4438.00 -212.54401576  91.79199622
4440.00 -212.70937499  91.90352159
4442.00 -212.87476325  92.01512249
4444.00 -213.04018050  92.12679893
4446.00 -213.20562671  92.23855089
4448.00 -213.37110182  92.35037837
4450.00 -213.53660580  92.46228138
4452.00 -213.70213860  92.57425992
4454.00 -213.86770018  92.68631398
4456.00 -214.03329050  92.79844355
4458.00 -214.19890952  92.91064865
4460.00 -214.36455718  93.02292927
4462.00 -214.53023346  93.13528539
4464.00 -214.69593830  93.24771704
4466.00 -214.86167167  93.36022419
4468.00 -215.02743353  93.47280686
4470.00 -215.19322382  93.58546503
4472.00 -215.35904251  93.69819871
4474.00 -215.52488955  93.81100790
4476.00 -215.69076491  93.92389258
4478.00 -215.85666853  94.03685277
4480.00 -216.02260039  94.14988846
4482.00 -216.18856043  94.26299964
4484.00 -216.35454861  94.37618632
4486.00 -216.52056489  94.48944849
4488.00 -216.68660923  94.60278615
4490.00 -216.85268158  94.71619930
4492.00 -217.01878191  94.82968793
4494.00 -217.18491017  94.94325205
4496.00 -217.35106632  95.05689165
4498.00 -217.51725031  95.17060674
4500.00 -217.68346211  95.28439730
4502.00 -217.84970167  95.39826333
4504.00 -218.01596894  95.51220484
4506.00 -218.18226390  95.62622182
4508.00 -218.34858649  95.74031426
4510.00 -218.51493667  95.85448218
4512.00 -218.68131440  95.96872555
4514.00 -218.84771964  96.08304439
4516.00 -219.01415234  96.19743869
4518.00 -219.18061247  96.31190844
4520.00 -219.34709998  96.42645365
4522.00 -219.51361483  96.54107431
4524.00 -219.68015698  96.65577041
4526.00 -219.84672638  96.77054197
4528.00 -220.01332299  96.88538896
4530.00 -220.17994677  97.00031140
4532.00 -220.34659769  97.11530928
4534.00 -220.51327569  97.23038259
4536.00 -220.67998073  97.34553133
4538.00 -220.84671277  97.46075551
4540.00 -221.01347178  97.57605511
4542.00 -221.18025770  97.69143014
4544.00 -221.34707050  97.80688058
4546.00 -221.51391014  97.92240645
4548.00 -221.68077656  98.03800773
4550.00 -221.84766974  98.15368443
4552.00 -222.01458962  98.26943654
4554.00 -222.18153617  98.38526405
4556.00 -222.34850935  98.50116697
4558.00 -222.51550910  98.61714529
4560.00 -222.68253540  98.73319901
4562.00 -222.84958820  98.84932812
4564.00 -223.01666745  98.96553263
4566.00 -223.18377312  99.08181252
4568.00 -223.35090516  99.19816780
4570.00 -223.51806353  99.31459847
4572.00 -223.68524819  99.43110451
4574.00 -223.85245910  99.54768593
4576.00 -224.01969621  99.66434272
4578.00 -224.18695949  99.78107489
4580.00 -224.35424889  99.89788242
4582.00 -224.52156437 100.01476531
4584.00 -224.68890589 100.13172356
4586.00 -224.85627340 100.24875717
4588.00 -225.02366687 100.36586613
4590.00 -225.19108625 100.48305045
4592.00 -225.35853151 100.60031011
4594.00 -225.52600259 100.71764511
4596.00 -225.69349947 100.83505545
4598.00 -225.86102209 100.95254113
4600.00 -226.02857041 101.07010214
4602.00 -226.19614440 101.18773848
4604.00 -226.36374401 101.30545014
4606.00 -226.53136920 101.42323713
4608.00 -226.69901993 101.54109943
4610.00 -226.86669616 101.65903705
4612.00 -227.03439784 101.77704998
4614.00 -227.20212493 101.89513821
4616.00 -227.36987740 102.01330175
4618.00 -227.53765520 102.13154059
4620.00 -227.70545829 102.24985473
4622.00 -227.87328662 102.36824415
4624.00 -228.04114017 102.48670887
4626.00 -228.20901887 102.60524886
4628.00 -228.37692271 102.72386414
4630.00 -228.54485162 102.84255470
4632.00 -228.71280557 102.96132052
4634.00 -228.88078453 103.08016162
4636.00 -229.04878844 103.19907798
4638.00 -229.21681727 103.31806960
4640.00 -229.38487097 103.43713647
4642.00 -229.55294951 103.55627860
4644.00 -229.72105284 103.67549598
4646.00 -229.88918092 103.79478860
4648.00 -230.05733371 103.91415646
4650.00 -230.22551117 104.03359955
4652.00 -230.39371326 104.15311788
4654.00 -230.56193993 104.27271143
4656.00 -230.73019115 104.39238021
4658.00 -230.89846687 104.51212421
4660.00 -231.06676705 104.63194342
4662.00 -231.23509166 104.75183783
4664.00 -231.40344064 104.87180746
4666.00 -231.57181397 104.99185229
4668.00 -231.74021159 105.11197231
4670.00 -231.90863347 105.23216753
4672.00 -232.07707956 105.35243793
4674.00 -232.24554983 105.47278352
4676.00 -232.41404424 105.59320429
4678.00 -232.58256273 105.71370023
4680.00 -232.75110528 105.83427134
4682.00 -232.91967183 105.95491762
4684.00 -233.08826236 106.07563905
4686.00 -233.25687681 106.19643565
4688.00 -233.42551515 106.31730739
4690.00 -233.59417733 106.43825429
4692.00 -233.76286333 106.55927632
4694.00 -233.93157308 106.68037349
4696.00 -234.10030656 106.80154580
4698.00 -234.26906372 106.92279323
4700.00 -234.43784452 107.04411578
4702.00 -234.60664892 107.16551346
4704.00 -234.77547689 107.28698624
4706.00 -234.94432837 107.40853414
4708.00 -235.11320332 107.53015714
4710.00 -235.28210172 107.65185523
4712.00 -235.45102351 107.77362843
4714.00 -235.61996866 107.89547671
4716.00 -235.78893712 108.01740007
4718.00 -235.95792885 108.13939851
4720.00 -236.12694382 108.26147203
4722.00 -236.29598198 108.38362062
4724.00 -236.46504329 108.50584426
4726.00 -236.63412771 108.62814297
4728.00 -236.80323520 108.75051673
4730.00 -236.97236572 108.87296554
4732.00 -237.14151923 108.99548939
4734.00 -237.31069569 109.11808828
4736.00 -237.47989506 109.24076220
4738.00 -237.64911729 109.36351115
4740.00 -237.81836235 109.48633512
4742.00 -237.98763019 109.60923411
4744.00 -238.15692078 109.73220811
4746.00 -238.32623407 109.85525711
4748.00 -238.49557002 109.97838112
4750.00 -238.66492860 110.10158012
4752.00 -238.83430977 110.22485411
4754.00 -239.00371347 110.34820308
4756.00 -239.17313967 110.47162704
4758.00 -239.34258834 110.59512596
4760.00 -239.51205943 110.71869986
4762.00 -239.68155290 110.84234871
4764.00 -239.85106870 110.96607253
4766.00 -240.02060681 111.08987129
4768.00 -240.19016717 111.21374500
4770.00 -240.35974976 111.33769365
4772.00 -240.52935452 111.46171723
4774.00 -240.69898142 111.58581574
4776.00 -240.86863042 111.70998918
4778.00 -241.03830147 111.83423753
4780.00 -241.20799454 111.95856079
4782.00 -241.37770959 112.08295896
4784.00 -241.54744657 112.20743202
4786.00 -241.71720545 112.33197998
4788.00 -241.88698619 112.45660283
4790.00 -242.05678874 112.58130056
4792.00 -242.22661307 112.70607317
4794.00 -242.39645913 112.83092064
4796.00 -242.56632688 112.95584298
4798.00 -242.73621629 113.08084018
4800.00 -242.90612732 113.20591223
4802.00 -243.07605992 113.33105913
4804.00 -243.24601405 113.45628086
4806.00 -243.41598968 113.58157743
4808.00 -243.58598676 113.70694883
4810.00 -243.75600525 113.83239505
4812.00 -243.92604512 113.95791609
4814.00 -244.09610632 114.08351193
4816.00 -244.26618882 114.20918258
4818.00 -244.43629257 114.33492802
4820.00 -244.60641753 114.46074826
4822.00 -244.77656367 114.58664328
4824.00 -244.94673094 114.71261308
4826.00 -245.11691931 114.83865765
4828.00 -245.28712872 114.96477698
4830.00 -245.45735916 115.09097108
4832.00 -245.62761056 115.21723992
4834.00 -245.79788290 115.34358352
4836.00 -245.96817614 115.47000185
4838.00 -246.13849022 115.59649492
4840.00 -246.30882513 115.72306271
4842.00 -246.47918080 115.84970523
4844.00 -246.64955722 115.97642245
4846.00 -246.81995432 116.10321439
4848.00 -246.99037209 116.23008103
4850.00 -247.16081046 116.35702236
4852.00 -247.33126942 116.48403838
4854.00 -247.50174891 116.61112908
4856.00 -247.67224889 116.73829445
4858.00 -247.84276933 116.86553449
4860.00 -248.01331019 116.99284920
4862.00 -248.18387143 117.12023855
4864.00 -248.35445300 117.24770256
4866.00 -248.52505487 117.37524120
4868.00 -248.69567700 117.50285448
4870.00 -248.86631934 117.63054239
4872.00 -249.03698187 117.75830492
4874.00 -249.20766453 117.88614206
4876.00 -249.37836730 118.01405380
4878.00 -249.54909012 118.14204015
4880.00 -249.71983297 118.27010109
4882.00 -249.89059580 118.39823661
4884.00 -250.06137857 118.52644672
4886.00 -250.23218124 118.65473139
4888.00 -250.40300377 118.78309063
4890.00 -250.57384613 118.91152443
4892.00 -250.74470827 119.04003278
4894.00 -250.91559015 119.16861567
4896.00 -251.08649174 119.29727309
4898.00 -251.25741299 119.42600505
4900.00 -251.42835388 119.55481153
4902.00 -251.59931434 119.68369252
4904.00 -251.77029436 119.81264803
4906.00 -251.94129388 119.94167803
4908.00 -252.11231287 120.07078252
4910.00 -252.28335130 120.19996150
4912.00 -252.45440911 120.32921496
4914.00 -252.62548627 120.45854289
4916.00 -252.79658274 120.58794529
4918.00 -252.96769849 120.71742214
4920.00 -253.13883347 120.84697344
4922.00 -253.30998765 120.97659918
4924.00 -253.48116098 121.10629936
4926.00 -253.65235342 121.23607396
4928.00 -253.82356494 121.36592298
4930.00 -253.99479550 121.49584642
4932.00 -254.16604506 121.62584426
4934.00 -254.33731357 121.75591649
4936.00 -254.50860101 121.88606312
4938.00 -254.67990733 122.01628412
4940.00 -254.85123249 122.14657951
4942.00 -255.02257645 122.27694925
4944.00 -255.19393917 122.40739336
4946.00 -255.36532063 122.53791182
4948.00 -255.53672076 122.66850462
4950.00 -255.70813955 122.79917175
4952.00 -255.87957694 122.92991322
4954.00 -256.05103290 123.06072900
4956.00 -256.22250739 123.19161910
4958.00 -256.39400037 123.32258350
4960.00 -256.56551181 123.45362220
4962.00 -256.73704165 123.58473518
4964.00 -256.90858988 123.71592245
4966.00 -257.08015644 123.84718399
4968.00 -257.25174129 123.97851980
4970.00 -257.42334440 124.10992986
4972.00 -257.59496574 124.24141418
4974.00 -257.76660525 124.37297273
4976.00 -257.93826291 124.50460552
4978.00 -258.10993866 124.63631253
4980.00 -258.28163249 124.76809376
4982.00 -258.45334433 124.89994920
4984.00 -258.62507417 125.03187884
4986.00 -258.79682195 125.16388267
4988.00 -258.96858765 125.29596069
4990.00 -259.14037121 125.42811288
4992.00 -259.31217261 125.56033925
4994.00 -259.48399180 125.69263977
4996.00 -259.65582874 125.82501445
4998.00 -259.82768340 125.95746327
5000.00 -259.99955574 126.08998622
