wavelength(nm)         real         imag
100.00   3.83762157   0.00059608
102.00   3.83510172   0.00063257
104.00   3.83253199   0.00067051
106.00   3.82991238   0.00070994
108.00   3.82724290   0.00075088
110.00   3.82452354   0.00079337
112.00   3.82175431   0.00083743
114.00   3.81893521   0.00088310
116.00   3.81606623   0.00093039
118.00   3.81314738   0.00097935
120.00   3.81017867   0.00102999
122.00   3.80716008   0.00108235
124.00   3.80409163   0.00113645
126.00   3.80097331   0.00119233
128.00   3.79780513   0.00125000
130.00   3.79458709   0.00130951
132.00   3.79131919   0.00137088
134.00   3.78800142   0.00143413
136.00   3.78463380   0.00149930
138.00   3.78121632   0.00156642
140.00   3.77774899   0.00163551
142.00   3.77423180   0.00170660
144.00   3.77066476   0.00177972
146.00   3.76704787   0.00185490
148.00   3.76338113   0.00193217
150.00   3.75966455   0.00201155
152.00   3.75589811   0.00209308
154.00   3.75208184   0.00217678
156.00   3.74821572   0.00226268
158.00   3.74429976   0.00235081
160.00   3.74033396   0.00244121
162.00   3.73631832   0.00253389
164.00   3.73225285   0.00262888
166.00   3.72813754   0.00272622
168.00   3.72397240   0.00282593
170.00   3.71975744   0.00292805
172.00   3.71549264   0.00303259
174.00   3.71117802   0.00313960
176.00   3.70681357   0.00324909
178.00   3.70239930   0.00336109
180.00   3.69793521   0.00347564
182.00   3.69342130   0.00359277
184.00   3.68885757   0.00371249
186.00   3.68424403   0.00383484
188.00   3.67958068   0.00395986
190.00   3.67486751   0.00408756
192.00   3.67010454   0.00421797
194.00   3.66529176   0.00435113
196.00   3.66042917   0.00448706
198.00   3.65551679   0.00462579
200.00   3.65055460   0.00476735
202.00   3.64554262   0.00491177
204.00   3.64048083   0.00505908
206.00   3.63536926   0.00520930
208.00   3.63020789   0.00536247
210.00   3.62499674   0.00551860
212.00   3.61973580   0.00567774
214.00   3.61442507   0.00583991
216.00   3.60906456   0.00600513
218.00   3.60365427   0.00617344
220.00   3.59819421   0.00634486
222.00   3.59268437   0.00651943
224.00   3.58712475   0.00669717
226.00   3.58151537   0.00687811
228.00   3.57585622   0.00706227
230.00   3.57014730   0.00724970
232.00   3.56438862   0.00744041
234.00   3.55858018   0.00763443
236.00   3.55272198   0.00783179
238.00   3.54681403   0.00803253
240.00   3.54085632   0.00823666
242.00   3.53484887   0.00844423
244.00   3.52879166   0.00865525
246.00   3.52268472   0.00886975
248.00   3.51652803   0.00908777
250.00   3.51032160   0.00930933
252.00   3.50406543   0.00953446
254.00   3.49775953   0.00976318
256.00   3.49140390   0.00999554
258.00   3.48499854   0.01023155
260.00   3.47854346   0.01047124
262.00   3.47203865   0.01071464
264.00   3.46548412   0.01096179
266.00   3.45887988   0.01121271
268.00   3.45222592   0.01146742
270.00   3.44552225   0.01172596
272.00   3.43876887   0.01198835
274.00   3.43196579   0.01225463
276.00   3.42511300   0.01252481
278.00   3.41821051   0.01279894
280.00   3.41125833   0.01307704
282.00   3.40425646   0.01335913
284.00   3.39720489   0.01364524
286.00   3.39010364   0.01393541
288.00   3.38295270   0.01422967
290.00   3.37575209   0.01452803
292.00   3.36850179   0.01483053
294.00   3.36120182   0.01513719
296.00   3.35385218   0.01544806
298.00   3.34645287   0.01576314
300.00   3.33900390   0.01608248
302.00   3.33150526   0.01640610
304.00   3.32395696   0.01673403
306.00   3.31635902   0.01706629
308.00   3.30871141   0.01740292
310.00   3.30101416   0.01774394
312.00   3.29326727   0.01808939
314.00   3.28547073   0.01843929
316.00   3.27762456   0.01879366
318.00   3.26972875   0.01915255
320.00   3.26178331   0.01951597
322.00   3.25378824   0.01988395
324.00   3.24574354   0.02025653
326.00   3.23764923   0.02063372
328.00   3.22950530   0.02101557
330.00   3.22131175   0.02140209
332.00   3.21306859   0.02179332
334.00   3.20477583   0.02218928
336.00   3.19643346   0.02259001
338.00   3.18804150   0.02299552
340.00   3.17959994   0.02340586
342.00   3.17110878   0.02382104
344.00   3.16256804   0.02424110
346.00   3.15397772   0.02466606
348.00   3.14533781   0.02509596
350.00   3.13664833   0.02553081
352.00   3.12790927   0.02597066
354.00   3.11912064   0.02641552
356.00   3.11028245   0.02686543
358.00   3.10139470   0.02732041
360.00   3.09245738   0.02778049
362.00   3.08347052   0.02824570
364.00   3.07443410   0.02871607
366.00   3.06534814   0.02919163
368.00   3.05621264   0.02967241
370.00   3.04702759   0.03015842
372.00   3.03779302   0.03064971
374.00   3.02850891   0.03114630
376.00   3.01917528   0.03164822
378.00   3.00979212   0.03215549
380.00   3.00035945   0.03266815
382.00   2.99087726   0.03318622
384.00   2.98134557   0.03370973
386.00   2.97176437   0.03423872
388.00   2.96213367   0.03477320
390.00   2.95245347   0.03531320
392.00   2.94272377   0.03585876
394.00   2.93294459   0.03640990
396.00   2.92311593   0.03696665
398.00   2.91323778   0.03752905
400.00   2.90331016   0.03809710
402.00   2.89333307   0.03867086
404.00   2.88330651   0.03925033
406.00   2.87323049   0.03983556
408.00   2.86310501   0.04042657
410.00   2.85293007   0.04102338
412.00   2.84270569   0.04162604
414.00   2.83243186   0.04223455
416.00   2.82210859   0.04284896
418.00   2.81173588   0.04346929
420.00   2.80131375   0.04409557
422.00   2.79084218   0.04472782
424.00   2.78032120   0.04536608
426.00   2.76975080   0.04601037
428.00   2.75913098   0.04666073
430.00   2.74846175   0.04731717
432.00   2.73774312   0.04797973
434.00   2.72697510   0.04864844
436.00   2.71615767   0.04932332
438.00   2.70529086   0.05000440
440.00   2.69437466   0.05069171
442.00   2.68340909   0.05138529
444.00   2.67239413   0.05208514
446.00   2.66132981   0.05279131
448.00   2.65021612   0.05350383
450.00   2.63905307   0.05422271
452.00   2.62784066   0.05494800
454.00   2.61657890   0.05567971
456.00   2.60526780   0.05641788
458.00   2.59390735   0.05716252
460.00   2.58249757   0.05791368
462.00   2.57103846   0.05867138
464.00   2.55953002   0.05943565
466.00   2.54797226   0.06020651
468.00   2.53636518   0.06098399
470.00   2.52470879   0.06176813
472.00   2.51300309   0.06255895
474.00   2.50124810   0.06335647
476.00   2.48944380   0.06416073
478.00   2.47759022   0.06497175
480.00   2.46568735   0.06578956
482.00   2.45373520   0.06661420
484.00   2.44173377   0.06744568
486.00   2.42968308   0.06828403
488.00   2.41758311   0.06912929
490.00   2.40543389   0.06998148
492.00   2.39323542   0.07084063
494.00   2.38098770   0.07170677
496.00   2.36869073   0.07257993
498.00   2.35634452   0.07346012
500.00   2.34394908   0.07434739
502.00   2.33150442   0.07524176
504.00   2.31901053   0.07614326
506.00   2.30646742   0.07705191
508.00   2.29387510   0.07796774
510.00   2.28123358   0.07889079
512.00   2.26854286   0.07982107
514.00   2.25580294   0.08075863
516.00   2.24301383   0.08170347
518.00   2.23017554   0.08265564
520.00   2.21728807   0.08361516
522.00   2.20435143   0.08458207
524.00   2.19136563   0.08555637
526.00   2.17833066   0.08653811
528.00   2.16524653   0.08752732
530.00   2.15211326   0.08852401
532.00   2.13893084   0.08952823
534.00   2.12569928   0.09053999
536.00   2.11241859   0.09155932
538.00   2.09908878   0.09258625
540.00   2.08570984   0.09362082
542.00   2.07228178   0.09466304
544.00   2.05880462   0.09571295
546.00   2.04527836   0.09677057
548.00   2.03170299   0.09783594
550.00   2.01807854   0.09890907
552.00   2.00440500   0.09999000
554.00   1.99068238   0.10107875
556.00   1.97691068   0.10217536
558.00   1.96308992   0.10327985
560.00   1.94922009   0.10439224
562.00   1.93530121   0.10551258
564.00   1.92133328   0.10664087
566.00   1.90731631   0.10777716
568.00   1.89325030   0.10892147
570.00   1.87913525   0.11007382
572.00   1.86497118   0.11123425
574.00   1.85075810   0.11240278
576.00   1.83649600   0.11357944
578.00   1.82218489   0.11476426
580.00   1.80782478   0.11595727
582.00   1.79341567   0.11715849
584.00   1.77895758   0.11836795
586.00   1.76445051   0.11958568
588.00   1.74989446   0.12081171
590.00   1.73528944   0.12204606
592.00   1.72063546   0.12328877
594.00   1.70593252   0.12453986
596.00   1.69118063   0.12579935
598.00   1.67637980   0.12706728
600.00   1.66153003   0.12834367
602.00   1.64663133   0.12962855
604.00   1.63168370   0.13092196
606.00   1.61668716   0.13222390
608.00   1.60164171   0.13353443
610.00   1.58654735   0.13485355
612.00   1.57140409   0.13618130
614.00   1.55621194   0.13751771
616.00   1.54097090   0.13886281
618.00   1.52568099   0.14021662
620.00   1.51034220   0.14157916
622.00   1.49495455   0.14295048
624.00   1.47951804   0.14433059
626.00   1.46403268   0.14571952
628.00   1.44849847   0.14711730
630.00   1.43291543   0.14852396
632.00   1.41728355   0.14993953
634.00   1.40160285   0.15136403
636.00   1.38587333   0.15279748
638.00   1.37009500   0.15423993
640.00   1.35426786   0.15569140
642.00   1.33839192   0.15715190
644.00   1.32246720   0.15862148
646.00   1.30649369   0.16010016
648.00   1.29047140   0.16158796
650.00   1.27440035   0.16308492
652.00   1.25828053   0.16459105
654.00   1.24211195   0.16610640
656.00   1.22589463   0.16763098
658.00   1.20962856   0.16916483
660.00   1.19331376   0.17070796
662.00   1.17695023   0.17226042
664.00   1.16053798   0.17382222
666.00   1.14407702   0.17539340
668.00   1.12756734   0.17697397
670.00   1.11100897   0.17856398
672.00   1.09440191   0.18016344
674.00   1.07774616   0.18177238
676.00   1.06104174   0.18339084
678.00   1.04428864   0.18501883
680.00   1.02748688   0.18665639
682.00   1.01063647   0.18830354
684.00   0.99373740   0.18996032
686.00   0.97678969   0.19162674
688.00   0.95979335   0.19330284
690.00   0.94274839   0.19498864
692.00   0.92565480   0.19668417
694.00   0.90851260   0.19838945
696.00   0.89132180   0.20010453
698.00   0.87408240   0.20182941
700.00   0.85679440   0.20356414
702.00   0.83945783   0.20530873
704.00   0.82207268   0.20706322
706.00   0.80463897   0.20882762
708.00   0.78715669   0.21060198
710.00   0.76962587   0.21238631
712.00   0.75204649   0.21418065
714.00   0.73441859   0.21598502
716.00   0.71674215   0.21779945
718.00   0.69901719   0.21962396
720.00   0.68124371   0.22145859
722.00   0.66342173   0.22330335
724.00   0.64555125   0.22515829
726.00   0.62763228   0.22702342
728.00   0.60966483   0.22889877
730.00   0.59164890   0.23078437
732.00   0.57358450   0.23268024
734.00   0.55547165   0.23458642
736.00   0.53731034   0.23650294
738.00   0.51910058   0.23842981
740.00   0.50084239   0.24036706
742.00   0.48253578   0.24231473
744.00   0.46418074   0.24427284
746.00   0.44577729   0.24624141
748.00   0.42732543   0.24822048
750.00   0.40882518   0.25021008
752.00   0.39027654   0.25221022
754.00   0.37167951   0.25422093
756.00   0.35303412   0.25624225
758.00   0.33434036   0.25827420
760.00   0.31559824   0.26031681
762.00   0.29680778   0.26237010
764.00   0.27796897   0.26443410
766.00   0.25908184   0.26650884
768.00   0.24014637   0.26859435
770.00   0.22116260   0.27069065
772.00   0.20213051   0.27279777
774.00   0.18305013   0.27491574
776.00   0.16392145   0.27704458
778.00   0.14474449   0.27918432
780.00   0.12551925   0.28133499
782.00   0.10624575   0.28349662
784.00   0.08692399   0.28566923
786.00   0.06755398   0.28785284
788.00   0.04813573   0.29004750
790.00   0.02866925   0.29225322
792.00   0.00915454   0.29447003
794.00  -0.01040838   0.29669795
796.00  -0.03001952   0.29893703
798.00  -0.04967885   0.30118727
800.00  -0.06938637   0.30344871
802.00  -0.08914208   0.30572138
804.00  -0.10894596   0.30800530
806.00  -0.12879801   0.31030050
808.00  -0.14869821   0.31260700
810.00  -0.16864656   0.31492484
812.00  -0.18864305   0.31725404
814.00  -0.20868768   0.31959463
816.00  -0.22878042   0.32194663
818.00  -0.24892128   0.32431007
820.00  -0.26911025   0.32668498
822.00  -0.28934731   0.32907138
824.00  -0.30963246   0.33146931
826.00  -0.32996568   0.33387879
828.00  -0.35034698   0.33629984
830.00  -0.37077634   0.33873249
832.00  -0.39125376   0.34117677
834.00  -0.41177921   0.34363271
836.00  -0.43235271   0.34610033
838.00  -0.45297423   0.34857966
840.00  -0.47364376   0.35107073
842.00  -0.49436131   0.35357356
844.00  -0.51512685   0.35608819
846.00  -0.53594039   0.35861463
848.00  -0.55680190   0.36115291
850.00  -0.57771139   0.36370306
852.00  -0.59866885   0.36626511
854.00  -0.61967426   0.36883909
856.00  -0.64072761   0.37142501
858.00  -0.66182890   0.37402292
860.00  -0.68297812   0.37663283
862.00  -0.70417526   0.37925477
864.00  -0.72542031   0.38188876
866.00  -0.74671326   0.38453484
868.00  -0.76805410   0.38719304
870.00  -0.78944282   0.38986337
872.00  -0.81087941   0.39254586
874.00  -0.83236387   0.39524055
876.00  -0.85389618   0.39794746
878.00  -0.87547634   0.40066661
880.00  -0.89710434   0.40339803
882.00  -0.91878016   0.40614175
884.00  -0.94050380   0.40889779
886.00  -0.96227524   0.41166619
888.00  -0.98409449   0.41444696
890.00  -1.00596152   0.41724014
892.00  -1.02787634   0.42004574
894.00  -1.04983892   0.42286381
896.00  -1.07184927   0.42569436
898.00  -1.09390737   0.42853742
900.00  -1.11601321   0.43139302
902.00  -1.13816678   0.43426118
904.00  -1.16036808   0.43714194
906.00  -1.18261709   0.44003531
908.00  -1.20491380   0.44294132
910.00  -1.22725821   0.44586000
912.00  -1.24965031   0.44879138
914.00  -1.27209008   0.45173549
916.00  -1.29457752   0.45469234
918.00  -1.31711261   0.45766197
920.00  -1.33969535   0.46064440
922.00  -1.36232572   0.46363966
924.00  -1.38500373   0.46664778
926.00  -1.40772935   0.46966878
928.00  -1.43050258   0.47270268
930.00  -1.45332341   0.47574952
932.00  -1.47619182   0.47880933
934.00  -1.49910782   0.48188212
936.00  -1.52207138   0.48496792
938.00  -1.54508250   0.48806677
940.00  -1.56814117   0.49117868
942.00  -1.59124738   0.49430368
944.00  -1.61440112   0.49744181
946.00  -1.63760238   0.50059308
948.00  -1.66085115   0.50375752
950.00  -1.68414742   0.50693516
952.00  -1.70749117   0.51012603
954.00  -1.73088241   0.51333014
956.00  -1.75432112   0.51654754
958.00  -1.77780728   0.51977824
960.00  -1.80134090   0.52302226
962.00  -1.82492196   0.52627965
964.00  -1.84855044   0.52955042
966.00  -1.87222635   0.53283459
968.00  -1.89594966   0.53613221
970.00  -1.91972037   0.53944328
972.00  -1.94353847   0.54276784
974.00  -1.96740395   0.54610591
976.00  -1.99131680   0.54945753
978.00  -2.01527701   0.55282271
980.00  -2.03928456   0.55620148
982.00  -2.06333946   0.55959388
984.00  -2.08744168   0.56299991
986.00  -2.11159121   0.56641962
988.00  -2.13578806   0.56985303
990.00  -2.16003220   0.57330016
992.00  -2.18432363   0.57676103
994.00  -2.20866233   0.58023569
996.00  -2.23304830   0.58372414
998.00  -2.25748153   0.58722643
1000.00  -2.28196199   0.59074257
1002.00  -2.30648970   0.59427258
1004.00  -2.33106463   0.59781651
1006.00  -2.35568677   0.60137436
1008.00  -2.38035611   0.60494618
1010.00  -2.40507265   0.60853197
1012.00  -2.42983636   0.61213178
1014.00  -2.45464725   0.61574563
1016.00  -2.47950530   0.61937353
1018.00  -2.50441050   0.62301553
1020.00  -2.52936284   0.62667164
1022.00  -2.55436231   0.63034189
1024.00  -2.57940889   0.63402631
1026.00  -2.60450259   0.63772492
1028.00  -2.62964338   0.64143774
1030.00  -2.65483125   0.64516481
1032.00  -2.68006621   0.64890616
1034.00  -2.70534822   0.65266179
1036.00  -2.73067729   0.65643175
1038.00  -2.75605341   0.66021606
1040.00  -2.78147655   0.66401474
1042.00  -2.80694672   0.66782782
1044.00  -2.83246390   0.67165533
1046.00  -2.85802808   0.67549729
1048.00  -2.88363924   0.67935372
1050.00  -2.90929739   0.68322466
1052.00  -2.93500250   0.68711013
1054.00  -2.96075457   0.69101015
1056.00  -2.98655358   0.69492476
1058.00  -3.01239953   0.69885396
1060.00  -3.03829240   0.70279781
1062.00  -3.06423218   0.70675631
1064.00  -3.09021887   0.71072949
1066.00  -3.11625244   0.71471738
1068.00  -3.14233290   0.71872001
1070.00  -3.16846022   0.72273740
1072.00  -3.19463440   0.72676958
1074.00  -3.22085542   0.73081657
1076.00  -3.24712328   0.73487839
1078.00  -3.27343796   0.73895508
1080.00  -3.29979946   0.74304666
1082.00  -3.32620776   0.74715316
1084.00  -3.35266284   0.75127460
1086.00  -3.37916471   0.75541100
1088.00  -3.40571334   0.75956240
1090.00  -3.43230873   0.76372881
1092.00  -3.45895086   0.76791027
1094.00  -3.48563973   0.77210680
1096.00  -3.51237532   0.77631842
1098.00  -3.53915762   0.78054516
1100.00  -3.56598662   0.78478705
1102.00  -3.59286231   0.78904411
1104.00  -3.61978468   0.79331636
1106.00  -3.64675371   0.79760384
1108.00  -3.67376939   0.80190657
1110.00  -3.70083172   0.80622457
1112.00  -3.72794068   0.81055787
1114.00  -3.75509625   0.81490650
1116.00  -3.78229844   0.81927047
1118.00  -3.80954722   0.82364982
1120.00  -3.83684259   0.82804458
1122.00  -3.86418453   0.83245476
1124.00  -3.89157304   0.83688039
1126.00  -3.91900809   0.84132150
1128.00  -3.94648968   0.84577811
1130.00  -3.97401780   0.85025025
1132.00  -4.00159243   0.85473795
1134.00  -4.02921357   0.85924122
1136.00  -4.05688120   0.86376010
1138.00  -4.08459531   0.86829461
1140.00  -4.11235589   0.87284478
1142.00  -4.14016293   0.87741062
1144.00  -4.16801641   0.88199217
1146.00  -4.19591632   0.88658946
1148.00  -4.22386266   0.89120250
1150.00  -4.25185540   0.89583132
1152.00  -4.27989455   0.90047595
1154.00  -4.30798008   0.90513641
1156.00  -4.33611198   0.90981273
1158.00  -4.36429025   0.91450494
1160.00  -4.39251486   0.91921305
1162.00  -4.42078582   0.92393710
1164.00  -4.44910310   0.92867710
1166.00  -4.47746669   0.93343309
1168.00  -4.50587659   0.93820509
1170.00  -4.53433278   0.94299313
1172.00  -4.56283525   0.94779722
1174.00  -4.59138398   0.95261740
1176.00  -4.61997897   0.95745369
1178.00  -4.64862020   0.96230612
1180.00  -4.67730766   0.96717470
1182.00  -4.70604133   0.97205948
1184.00  -4.73482122   0.97696046
1186.00  -4.76364730   0.98187768
1188.00  -4.79251956   0.98681116
1190.00  -4.82143799   0.99176092
1192.00  -4.85040257   0.99672700
1194.00  -4.87941331   1.00170941
1196.00  -4.90847017   1.00670819
1198.00  -4.93757316   1.01172335
1200.00  -4.96672225   1.01675492
1202.00  -4.99591744   1.02180293
1204.00  -5.02515872   1.02686741
1206.00  -5.05444606   1.03194836
1208.00  -5.08377947   1.03704583
1210.00  -5.11315892   1.04215984
1212.00  -5.14258440   1.04729041
1214.00  -5.17205591   1.05243756
1216.00  -5.20157343   1.05760132
1218.00  -5.23113694   1.06278173
1220.00  -5.26074644   1.06797879
1222.00  -5.29040192   1.07319254
1224.00  -5.32010335   1.07842300
1226.00  -5.34985073   1.08367019
1228.00  -5.37964404   1.08893415
1230.00  -5.40948328   1.09421489
1232.00  -5.43936842   1.09951245
1234.00  -5.46929947   1.10482683
1236.00  -5.49927639   1.11015808
1238.00  -5.52929919   1.11550622
1240.00  -5.55936785   1.12087126
1242.00  -5.58948236   1.12625324
1244.00  -5.61964270   1.13165217
1246.00  -5.64984886   1.13706810
1248.00  -5.68010083   1.14250103
1250.00  -5.71039859   1.14795099
1252.00  -5.74074214   1.15341801
1254.00  -5.77113146   1.15890212
1256.00  -5.80156654   1.16440333
1258.00  -5.83204736   1.16992168
1260.00  -5.86257392   1.17545718
1262.00  -5.89314619   1.18100987
1264.00  -5.92376417   1.18657976
1266.00  -5.95442785   1.19216688
1268.00  -5.98513720   1.19777126
1270.00  -6.01589222   1.20339292
1272.00  -6.04669290   1.20903189
1274.00  -6.07753922   1.21468818
1276.00  -6.10843117   1.22036183
1278.00  -6.13936874   1.22605286
1280.00  -6.17035190   1.23176129
1282.00  -6.20138066   1.23748715
1284.00  -6.23245500   1.24323046
1286.00  -6.26357490   1.24899125
1288.00  -6.29474035   1.25476954
1290.00  -6.32595134   1.26056535
1292.00  -6.35720786   1.26637872
1294.00  -6.38850988   1.27220966
1296.00  -6.41985741   1.27805820
1298.00  -6.45125042   1.28392437
1300.00  -6.48268891   1.28980818
1302.00  -6.51417285   1.29570967
1304.00  -6.54570224   1.30162885
1306.00  -6.57727706   1.30756576
1308.00  -6.60889731   1.31352041
1310.00  -6.64056296   1.31949283
1312.00  -6.67227400   1.32548305
1314.00  -6.70403042   1.33149109
1316.00  -6.73583221   1.33751697
1318.00  -6.76767936   1.34356072
1320.00  -6.79957184   1.34962236
1322.00  -6.83150965   1.35570191
1324.00  -6.86349278   1.36179941
1326.00  -6.89552120   1.36791488
1328.00  -6.92759491   1.37404833
1330.00  -6.95971390   1.38019980
1332.00  -6.99187814   1.38636930
1334.00  -7.02408763   1.39255687
1336.00  -7.05634236   1.39876252
1338.00  -7.08864230   1.40498628
1340.00  -7.12098745   1.41122818
1342.00  -7.15337780   1.41748824
1344.00  -7.18581332   1.42376648
1346.00  -7.21829401   1.43006293
1348.00  -7.25081985   1.43637761
1350.00  -7.28339083   1.44271054
1352.00  -7.31600693   1.44906176
1354.00  -7.34866815   1.45543127
1356.00  -7.38137446   1.46181912
1358.00  -7.41412586   1.46822532
1360.00  -7.44692233   1.47464989
1362.00  -7.47976385   1.48109287
1364.00  -7.51265042   1.48755427
1366.00  -7.54558201   1.49403412
1368.00  -7.57855863   1.50053244
1370.00  -7.61158024   1.50704925
1372.00  -7.64464684   1.51358459
1374.00  -7.67775842   1.52013847
1376.00  -7.71091496   1.52671092
1378.00  -7.74411644   1.53330196
1380.00  -7.77736286   1.53991162
1382.00  -7.81065420   1.54653992
1384.00  -7.84399044   1.55318688
1386.00  -7.87737157   1.55985253
1388.00  -7.91079758   1.56653689
1390.00  -7.94426846   1.57323999
1392.00  -7.97778418   1.57996184
1394.00  -8.01134474   1.58670249
1396.00  -8.04495013   1.59346193
1398.00  -8.07860032   1.60024021
1400.00  -8.11229530   1.60703735
1402.00  -8.14603507   1.61385336
1404.00  -8.17981960   1.62068827
1406.00  -8.21364888   1.62754212
1408.00  -8.24752290   1.63441491
1410.00  -8.28144164   1.64130667
1412.00  -8.31540509   1.64821744
1414.00  -8.34941324   1.65514722
1416.00  -8.38346607   1.66209605
1418.00  -8.41756357   1.66906395
1420.00  -8.45170572   1.67605094
1422.00  -8.48589251   1.68305705
1424.00  -8.52012392   1.69008230
1426.00  -8.55439995   1.69712671
1428.00  -8.58872057   1.70419030
1430.00  -8.62308578   1.71127311
1432.00  -8.65749555   1.71837515
1434.00  -8.69194987   1.72549645
1436.00  -8.72644874   1.73263704
1438.00  -8.76099213   1.73979692
1440.00  -8.79558003   1.74697614
1442.00  -8.83021243   1.75417471
1444.00  -8.86488931   1.76139265
1446.00  -8.89961065   1.76862999
1448.00  -8.93437645   1.77588676
1450.00  -8.96918669   1.78316297
1452.00  -9.00404136   1.79045865
1454.00  -9.03894043   1.79777383
1456.00  -9.07388390   1.80510852
1458.00  -9.10887175   1.81246275
1460.00  -9.14390397   1.81983655
1462.00  -9.17898054   1.82722993
1464.00  -9.21410145   1.83464292
1466.00  -9.24926668   1.84207555
1468.00  -9.28447622   1.84952783
1470.00  -9.31973006   1.85699979
1472.00  -9.35502817   1.86449146
1474.00  -9.39037055   1.87200286
1476.00  -9.42575718   1.87953400
1478.00  -9.46118805   1.88708492
1480.00  -9.49666314   1.89465564
1482.00  -9.53218243   1.90224617
1484.00  -9.56774592   1.90985655
1486.00  -9.60335358   1.91748680
1488.00  -9.63900540   1.92513694
1490.00  -9.67470138   1.93280699
1492.00  -9.71044148   1.94049697
1494.00  -9.74622571   1.94820692
1496.00  -9.78205404   1.95593685
1498.00  -9.81792645   1.96368678
1500.00  -9.85384294   1.97145675
1502.00  -9.88980349   1.97924677
1504.00  -9.92580809   1.98705686
1506.00  -9.96185671   1.99488705
1508.00  -9.99794935   2.00273736
1510.00 -10.03408599   2.01060782
1512.00 -10.07026661   2.01849845
1514.00 -10.10649121   2.02640926
1516.00 -10.14275976   2.03434029
1518.00 -10.17907225   2.04229156
1520.00 -10.21542866   2.05026309
1522.00 -10.25182899   2.05825490
1524.00 -10.28827321   2.06626702
1526.00 -10.32476131   2.07429946
1528.00 -10.36129327   2.08235226
1530.00 -10.39786909   2.09042543
1532.00 -10.43448874   2.09851901
1534.00 -10.47115221   2.10663300
1536.00 -10.50785949   2.11476743
1538.00 -10.54461055   2.12292234
1540.00 -10.58140540   2.13109773
1542.00 -10.61824400   2.13929363
1544.00 -10.65512634   2.14751007
1546.00 -10.69205242   2.15574707
1548.00 -10.72902221   2.16400465
1550.00 -10.76603570   2.17228283
1552.00 -10.80309287   2.18058164
1554.00 -10.84019371   2.18890110
1556.00 -10.87733821   2.19724123
1558.00 -10.91452634   2.20560205
1560.00 -10.95175810   2.21398360
1562.00 -10.98903347   2.22238588
1564.00 -11.02635242   2.23080893
1566.00 -11.06371496   2.23925276
1568.00 -11.10112105   2.24771740
1570.00 -11.13857070   2.25620287
1572.00 -11.17606387   2.26470920
1574.00 -11.21360056   2.27323640
1576.00 -11.25118075   2.28178450
1578.00 -11.28880443   2.29035353
1580.00 -11.32647157   2.29894349
1582.00 -11.36418217   2.30755443
1584.00 -11.40193621   2.31618635
1586.00 -11.43973367   2.32483929
1588.00 -11.47757454   2.33351326
1590.00 -11.51545880   2.34220829
1592.00 -11.55338644   2.35092439
1594.00 -11.59135744   2.35966160
1596.00 -11.62937179   2.36841994
1598.00 -11.66742946   2.37719942
1600.00 -11.70553045   2.38600007
1602.00 -11.74367474   2.39482191
1604.00 -11.78186232   2.40366497
1606.00 -11.82009316   2.41252926
1608.00 -11.85836725   2.42141482
1610.00 -11.89668459   2.43032165
1612.00 -11.93504514   2.43924979
1614.00 -11.97344889   2.44819926
1616.00 -12.01189584   2.45717007
1618.00 -12.05038596   2.46616226
1620.00 -12.08891924   2.47517584
1622.00 -12.12749566   2.48421084
1624.00 -12.16611521   2.49326727
1626.00 -12.20477787   2.50234516
1628.00 -12.24348363   2.51144454
1630.00 -12.28223246   2.52056542
1632.00 -12.32102436   2.52970783
1634.00 -12.35985931   2.53887179
1636.00 -12.39873729   2.54805732
1638.00 -12.43765828   2.55726444
1640.00 -12.47662228   2.56649318
1642.00 -12.51562926   2.57574355
1644.00 -12.55467921   2.58501559
1646.00 -12.59377211   2.59430931
1648.00 -12.63290795   2.60362474
1650.00 -12.67208671   2.61296189
1652.00 -12.71130837   2.62232079
1654.00 -12.75057292   2.63170146
1656.00 -12.78988035   2.64110392
1658.00 -12.82923063   2.65052820
1660.00 -12.86862376   2.65997431
1662.00 -12.90805971   2.66944228
1664.00 -12.94753847   2.67893214
1666.00 -12.98706002   2.68844390
1668.00 -13.02662435   2.69797758
1670.00 -13.06623144   2.70753321
1672.00 -13.10588127   2.71711081
1674.00 -13.14557383   2.72671039
1676.00 -13.18530911   2.73633200
1678.00 -13.22508708   2.74597563
1680.00 -13.26490773   2.75564132
1682.00 -13.30477105   2.76532909
1684.00 -13.34467701   2.77503896
1686.00 -13.38462561   2.78477096
1688.00 -13.42461682   2.79452509
1690.00 -13.46465063   2.80430140
1692.00 -13.50472702   2.81409989
1694.00 -13.54484598   2.82392059
1696.00 -13.58500749   2.83376352
1698.00 -13.62521154   2.84362870
1700.00 -13.66545810   2.85351616
1702.00 -13.70574716   2.86342591
1704.00 -13.74607871   2.87335798
1706.00 -13.78645273   2.88331239
1708.00 -13.82686920   2.89328916
1710.00 -13.86732811   2.90328832
1712.00 -13.90782944   2.91330988
1714.00 -13.94837317   2.92335387
1716.00 -13.98895929   2.93342030
1718.00 -14.02958778   2.94350920
1720.00 -14.07025862   2.95362060
1722.00 -14.11097180   2.96375451
1724.00 -14.15172730   2.97391095
1726.00 -14.19252511   2.98408994
1728.00 -14.23336521   2.99429152
1730.00 -14.27424757   3.00451569
1732.00 -14.31517220   3.01476249
1734.00 -14.35613906   3.02503192
1736.00 -14.39714814   3.03532402
1738.00 -14.43819943   3.04563881
1740.00 -14.47929291   3.05597630
1742.00 -14.52042857   3.06633651
1744.00 -14.56160637   3.07671948
1746.00 -14.60282632   3.08712522
1748.00 -14.64408839   3.09755375
1750.00 -14.68539257   3.10800509
1752.00 -14.72673883   3.11847927
1754.00 -14.76812717   3.12897630
1756.00 -14.80955757   3.13949621
1758.00 -14.85103000   3.15003902
1760.00 -14.89254446   3.16060475
1762.00 -14.93410092   3.17119342
1764.00 -14.97569937   3.18180505
1766.00 -15.01733980   3.19243966
1768.00 -15.05902218   3.20309728
1770.00 -15.10074650   3.21377793
1772.00 -15.14251274   3.22448162
1774.00 -15.18432088   3.23520838
1776.00 -15.22617092   3.24595824
1778.00 -15.26806283   3.25673120
1780.00 -15.30999659   3.26752729
1782.00 -15.35197219   3.27834654
1784.00 -15.39398961   3.28918896
1786.00 -15.43604883   3.30005458
1788.00 -15.47814985   3.31094341
1790.00 -15.52029263   3.32185548
1792.00 -15.56247716   3.33279081
1794.00 -15.60470344   3.34374942
1796.00 -15.64697143   3.35473133
1798.00 -15.68928113   3.36573656
1800.00 -15.73163251   3.37676513
1802.00 -15.77402556   3.38781707
1804.00 -15.81646026   3.39889239
1806.00 -15.85893659   3.40999111
1808.00 -15.90145455   3.42111327
1810.00 -15.94401410   3.43225887
1812.00 -15.98661524   3.44342793
1814.00 -16.02925794   3.45462049
1816.00 -16.07194219   3.46583656
1818.00 -16.11466798   3.47707616
1820.00 -16.15743528   3.48833930
1822.00 -16.20024408   3.49962603
1824.00 -16.24309436   3.51093634
1826.00 -16.28598610   3.52227027
1828.00 -16.32891929   3.53362783
1830.00 -16.37189391   3.54500905
1832.00 -16.41490994   3.55641394
1834.00 -16.45796736   3.56784254
1836.00 -16.50106617   3.57929485
1838.00 -16.54420633   3.59077089
1840.00 -16.58738784   3.60227070
1842.00 -16.63061067   3.61379429
1844.00 -16.67387481   3.62534167
1846.00 -16.71718025   3.63691288
1848.00 -16.76052695   3.64850793
1850.00 -16.80391492   3.66012684
1852.00 -16.84734412   3.67176964
1854.00 -16.89081455   3.68343634
1856.00 -16.93432618   3.69512696
1858.00 -16.97787899   3.70684153
1860.00 -17.02147298   3.71858006
1862.00 -17.06510812   3.73034258
1864.00 -17.10878440   3.74212910
1866.00 -17.15250179   3.75393965
1868.00 -17.19626029   3.76577424
1870.00 -17.24005986   3.77763291
1872.00 -17.28390050   3.78951566
1874.00 -17.32778220   3.80142252
1876.00 -17.37170492   3.81335351
1878.00 -17.41566865   3.82530865
1880.00 -17.45967338   3.83728796
1882.00 -17.50371909   3.84929145
1884.00 -17.54780576   3.86131916
1886.00 -17.59193337   3.87337110
1888.00 -17.63610190   3.88544729
1890.00 -17.68031135   3.89754775
1892.00 -17.72456168   3.90967250
1894.00 -17.76885289   3.92182156
1896.00 -17.81318495   3.93399495
1898.00 -17.85755785   3.94619270
1900.00 -17.90197157   3.95841482
1902.00 -17.94642609   3.97066133
1904.00 -17.99092140   3.98293225
1906.00 -18.03545747   3.99522761
1908.00 -18.08003429   4.00754742
1910.00 -18.12465185   4.01989170
1912.00 -18.16931011   4.03226048
1914.00 -18.21400908   4.04465377
1916.00 -18.25874872   4.05707159
1918.00 -18.30352902   4.06951397
1920.00 -18.34834996   4.08198091
1922.00 -18.39321153   4.09447246
1924.00 -18.43811371   4.10698861
1926.00 -18.48305648   4.11952940
1928.00 -18.52803982   4.13209485
1930.00 -18.57306371   4.14468497
1932.00 -18.61812814   4.15729978
1934.00 -18.66323308   4.16993930
1936.00 -18.70837853   4.18260356
1938.00 -18.75356446   4.19529257
1940.00 -18.79879085   4.20800635
1942.00 -18.84405769   4.22074493
1944.00 -18.88936496   4.23350832
1946.00 -18.93471264   4.24629655
1948.00 -18.98010071   4.25910962
1950.00 -19.02552916   4.27194757
1952.00 -19.07099796   4.28481041
1954.00 -19.11650711   4.29769816
1956.00 -19.16205657   4.31061085
1958.00 -19.20764634   4.32354848
1960.00 -19.25327639   4.33651109
1962.00 -19.29894671   4.34949869
1964.00 -19.34465728   4.36251130
1966.00 -19.39040808   4.37554894
1968.00 -19.43619909   4.38861162
1970.00 -19.48203030   4.40169938
1972.00 -19.52790168   4.41481223
1974.00 -19.57381322   4.42795019
1976.00 -19.61976491   4.44111328
1978.00 -19.66575671   4.45430151
1980.00 -19.71178862   4.46751491
1982.00 -19.75786062   4.48075350
1984.00 -19.80397268   4.49401730
1986.00 -19.85012480   4.50730632
1988.00 -19.89631695   4.52062059
1990.00 -19.94254911   4.53396012
1992.00 -19.98882126   4.54732494
1994.00 -20.03513339   4.56071506
1996.00 -20.08148548   4.57413051
1998.00 -20.12787752   4.58757130
2000.00 -20.17430947   4.60103745
2002.00 -20.22078133   4.61452899
2004.00 -20.26729307   4.62804592
2006.00 -20.31384469   4.64158828
2008.00 -20.36043615   4.65515608
2010.00 -20.40706744   4.66874933
2012.00 -20.45373855   4.68236807
2014.00 -20.50044945   4.69601230
2016.00 -20.54720012   4.70968205
2018.00 -20.59399056   4.72337734
2020.00 -20.64082073   4.73709818
2022.00 -20.68769063   4.75084460
2024.00 -20.73460022   4.76461661
2026.00 -20.78154950   4.77841424
2028.00 -20.82853845   4.79223750
2030.00 -20.87556705   4.80608641
2032.00 -20.92263527   4.81996099
2034.00 -20.96974311   4.83386126
2036.00 -21.01689053   4.84778725
2038.00 -21.06407753   4.86173895
2040.00 -21.11130409   4.87571641
2042.00 -21.15857018   4.88971964
2044.00 -21.20587579   4.90374865
2046.00 -21.25322090   4.91780346
2048.00 -21.30060549   4.93188410
2050.00 -21.34802955   4.94599058
2052.00 -21.39549305   4.96012292
2054.00 -21.44299597   4.97428114
2056.00 -21.49053830   4.98846526
2058.00 -21.53812002   5.00267531
2060.00 -21.58574111   5.01691128
2062.00 -21.63340155   5.03117322
2064.00 -21.68110132   5.04546113
2066.00 -21.72884041   5.05977503
2068.00 -21.77661879   5.07411495
2070.00 -21.82443645   5.08848090
2072.00 -21.87229337   5.10287290
2074.00 -21.92018953   5.11729097
2076.00 -21.96812491   5.13173513
2078.00 -22.01609949   5.14620539
2080.00 -22.06411325   5.16070178
2082.00 -22.11216618   5.17522432
2084.00 -22.16025825   5.18977302
2086.00 -22.20838945   5.20434790
2088.00 -22.25655976   5.21894898
2090.00 -22.30476916   5.23357628
2092.00 -22.35301763   5.24822982
2094.00 -22.40130516   5.26290961
2096.00 -22.44963171   5.27761568
2098.00 -22.49799728   5.29234805
2100.00 -22.54640185   5.30710672
2102.00 -22.59484539   5.32189173
2104.00 -22.64332789   5.33670309
2106.00 -22.69184934   5.35154082
2108.00 -22.74040970   5.36640493
2110.00 -22.78900896   5.38129545
2112.00 -22.83764711   5.39621239
2114.00 -22.88632412   5.41115577
2116.00 -22.93503997   5.42612562
2118.00 -22.98379465   5.44112194
2120.00 -23.03258814   5.45614476
2122.00 -23.08142042   5.47119410
2124.00 -23.13029146   5.48626997
2126.00 -23.17920126   5.50137240
2128.00 -23.22814978   5.51650139
2130.00 -23.27713702   5.53165698
2132.00 -23.32616296   5.54683917
2134.00 -23.37522756   5.56204799
2136.00 -23.42433083   5.57728345
2138.00 -23.47347273   5.59254558
2140.00 -23.52265324   5.60783439
2142.00 -23.57187236   5.62314989
2144.00 -23.62113005   5.63849212
2146.00 -23.67042631   5.65386107
2148.00 -23.71976110   5.66925679
2150.00 -23.76913442   5.68467927
2152.00 -23.81854624   5.70012855
2154.00 -23.86799655   5.71560463
2156.00 -23.91748532   5.73110754
2158.00 -23.96701253   5.74663730
2160.00 -24.01657818   5.76219391
2162.00 -24.06618223   5.77777741
2164.00 -24.11582466   5.79338781
2166.00 -24.16550547   5.80902512
2168.00 -24.21522463   5.82468937
2170.00 -24.26498212   5.84038057
2172.00 -24.31477792   5.85609874
2174.00 -24.36461201   5.87184390
2176.00 -24.41448437   5.88761607
2178.00 -24.46439499   5.90341526
2180.00 -24.51434385   5.91924150
2182.00 -24.56433092   5.93509479
2184.00 -24.61435618   5.95097517
2186.00 -24.66441963   5.96688264
2188.00 -24.71452123   5.98281722
2190.00 -24.76466097   5.99877894
2192.00 -24.81483883   6.01476781
2194.00 -24.86505478   6.03078384
2196.00 -24.91530882   6.04682706
2198.00 -24.96560092   6.06289748
2200.00 -25.01593106   6.07899513
2202.00 -25.06629923   6.09512001
2204.00 -25.11670540   6.11127215
2206.00 -25.16714955   6.12745156
2208.00 -25.21763167   6.14365827
2210.00 -25.26815173   6.15989229
2212.00 -25.31870971   6.17615363
2214.00 -25.36930561   6.19244231
2216.00 -25.41993939   6.20875836
2218.00 -25.47061104   6.22510179
2220.00 -25.52132053   6.24147262
2222.00 -25.57206786   6.25787086
2224.00 -25.62285299   6.27429654
2226.00 -25.67367592   6.29074966
2228.00 -25.72453661   6.30723026
2230.00 -25.77543505   6.32373834
2232.00 -25.82637123   6.34027392
2234.00 -25.87734512   6.35683702
2236.00 -25.92835670   6.37342766
2238.00 -25.97940595   6.39004586
2240.00 -26.03049286   6.40669162
2242.00 -26.08161740   6.42336498
2244.00 -26.13277955   6.44006595
2246.00 -26.18397930   6.45679454
2248.00 -26.23521662   6.47355077
2250.00 -26.28649150   6.49033466
2252.00 -26.33780392   6.50714623
2254.00 -26.38915385   6.52398549
2256.00 -26.44054127   6.54085247
2258.00 -26.49196618   6.55774717
2260.00 -26.54342854   6.57466962
2262.00 -26.59492834   6.59161983
2264.00 -26.64646556   6.60859782
2266.00 -26.69804018   6.62560361
2268.00 -26.74965217   6.64263722
2270.00 -26.80130153   6.65969865
2272.00 -26.85298822   6.67678794
2274.00 -26.90471224   6.69390509
2276.00 -26.95647355   6.71105012
2278.00 -27.00827214   6.72822306
2280.00 -27.06010800   6.74542391
2282.00 -27.11198110   6.76265270
2284.00 -27.16389141   6.77990944
2286.00 -27.21583893   6.79719414
2288.00 -27.26782363   6.81450684
2290.00 -27.31984549   6.83184753
2292.00 -27.37190450   6.84921625
2294.00 -27.42400063   6.86661300
2296.00 -27.47613386   6.88403780
2298.00 -27.52830417   6.90149068
2300.00 -27.58051154   6.91897164
2302.00 -27.63275596   6.93648071
2304.00 -27.68503740   6.95401790
2306.00 -27.73735585   6.97158322
2308.00 -27.78971128   6.98917670
2310.00 -27.84210367   7.00679836
2312.00 -27.89453301   7.02444820
2314.00 -27.94699927   7.04212624
2316.00 -27.99950243   7.05983251
2318.00 -28.05204248   7.07756702
2320.00 -28.10461940   7.09532978
2322.00 -28.15723316   7.11312081
2324.00 -28.20988374   7.13094014
2326.00 -28.26257113   7.14878777
2328.00 -28.31529530   7.16666372
2330.00 -28.36805623   7.18456801
2332.00 -28.42085392   7.20250065
2334.00 -28.47368832   7.22046167
2336.00 -28.52655943   7.23845107
2338.00 -28.57946723   7.25646889
2340.00 -28.63241169   7.27451512
2342.00 -28.68539280   7.29258979
2344.00 -28.73841053   7.31069292
2346.00 -28.79146486   7.32882451
2348.00 -28.84455578   7.34698460
2350.00 -28.89768327   7.36517319
2352.00 -28.95084730   7.38339030
2354.00 -29.00404785   7.40163595
2356.00 -29.05728491   7.41991015
2358.00 -29.11055846   7.43821292
2360.00 -29.16386847   7.45654428
2362.00 -29.21721492   7.47490424
2364.00 -29.27059780   7.49329283
2366.00 -29.32401708   7.51171004
2368.00 -29.37747274   7.53015591
2370.00 -29.43096477   7.54863045
2372.00 -29.48449315   7.56713367
2374.00 -29.53805784   7.58566559
2376.00 -29.59165884   7.60422623
2378.00 -29.64529613   7.62281560
2380.00 -29.69896968   7.64143372
2382.00 -29.75267947   7.66008061
2384.00 -29.80642548   7.67875628
2386.00 -29.86020769   7.69746075
2388.00 -29.91402609   7.71619403
2390.00 -29.96788065   7.73495614
2392.00 -30.02177136   7.75374710
2394.00 -30.07569818   7.77256692
2396.00 -30.12966111   7.79141562
2398.00 -30.18366012   7.81029321
2400.00 -30.23769519   7.82919972
2402.00 -30.29176630   7.84813515
2404.00 -30.34587343   7.86709952
2406.00 -30.40001656   7.88609286
2408.00 -30.45419567   7.90511517
2410.00 -30.50841074   7.92416646
2412.00 -30.56266175   7.94324677
2414.00 -30.61694868   7.96235610
2416.00 -30.67127151   7.98149446
2418.00 -30.72563022   8.00066188
2420.00 -30.78002478   8.01985837
2422.00 -30.83445518   8.03908395
2424.00 -30.88892140   8.05833863
2426.00 -30.94342342   8.07762242
2428.00 -30.99796122   8.09693535
2430.00 -31.05253477   8.11627743
2432.00 -31.10714406   8.13564868
2434.00 -31.16178906   8.15504910
2436.00 -31.21646976   8.17447872
2438.00 -31.27118613   8.19393756
2440.00 -31.32593816   8.21342562
2442.00 -31.38072582   8.23294292
2444.00 -31.43554910   8.25248949
2446.00 -31.49040797   8.27206533
2448.00 -31.54530241   8.29167046
2450.00 -31.60023240   8.31130489
2452.00 -31.65519793   8.33096865
2454.00 -31.71019897   8.35066175
2456.00 -31.76523550   8.37038419
2458.00 -31.82030749   8.39013601
2460.00 -31.87541494   8.40991721
2462.00 -31.93055782   8.42972781
2464.00 -31.98573611   8.44956783
2466.00 -32.04094979   8.46943727
2468.00 -32.09619883   8.48933616
2470.00 -32.15148322   8.50926451
2472.00 -32.20680294   8.52922234
2474.00 -32.26215796   8.54920966
2476.00 -32.31754827   8.56922649
2478.00 -32.37297385   8.58927284
2480.00 -32.42843467   8.60934873
2482.00 -32.48393072   8.62945418
2484.00 -32.53946196   8.64958919
2486.00 -32.59502840   8.66975379
2488.00 -32.65062999   8.68994798
2490.00 -32.70626672   8.71017179
2492.00 -32.76193858   8.73042523
2494.00 -32.81764554   8.75070832
2496.00 -32.87338758   8.77102106
2498.00 -32.92916467   8.79136348
2500.00 -32.98497681   8.81173559
2502.00 -33.04082396   8.83213741
2504.00 -33.09670611   8.85256895
2506.00 -33.15262324   8.87303022
2508.00 -33.20857532   8.89352125
2510.00 -33.26456234   8.91404204
2512.00 -33.32058427   8.93459262
2514.00 -33.37664110   8.95517299
2516.00 -33.43273280   8.97578317
2518.00 -33.48885935   8.99642317
2520.00 -33.54502074   9.01709302
2522.00 -33.60121693   9.03779273
2524.00 -33.65744792   9.05852231
2526.00 -33.71371368   9.07928177
2528.00 -33.77001418   9.10007113
2530.00 -33.82634941   9.12089041
2532.00 -33.88271935   9.14173963
2534.00 -33.93912398   9.16261878
2536.00 -33.99556327   9.18352790
2538.00 -34.05203721   9.20446699
2540.00 -34.10854578   9.22543608
2542.00 -34.16508894   9.24643517
2544.00 -34.22166669   9.26746428
2546.00 -34.27827900   9.28852342
2548.00 -34.33492585   9.30961262
2550.00 -34.39160723   9.33073187
2552.00 -34.44832310   9.35188121
2554.00 -34.50507345   9.37306064
2556.00 -34.56185826   9.39427018
2558.00 -34.61867750   9.41550984
2560.00 -34.67553116   9.43677964
2562.00 -34.73241922   9.45807959
2564.00 -34.78934165   9.47940971
2566.00 -34.84629844   9.50077001
2568.00 -34.90328955   9.52216051
2570.00 -34.96031498   9.54358121
2572.00 -35.01737470   9.56503215
2574.00 -35.07446869   9.58651332
2576.00 -35.13159693   9.60802474
2578.00 -35.18875940   9.62956644
2580.00 -35.24595607   9.65113841
2582.00 -35.30318693   9.67274069
2584.00 -35.36045196   9.69437328
2586.00 -35.41775113   9.71603619
2588.00 -35.47508442   9.73772944
2590.00 -35.53245182   9.75945305
2592.00 -35.58985330   9.78120703
2594.00 -35.64728884   9.80299139
2596.00 -35.70475841   9.82480615
2598.00 -35.76226201   9.84665133
2600.00 -35.81979960   9.86852693
2602.00 -35.87737118   9.89043297
2604.00 -35.93497670   9.91236947
2606.00 -35.99261616   9.93433643
2608.00 -36.05028954   9.95633388
2610.00 -36.10799681   9.97836183
2612.00 -36.16573795  10.00042029
2614.00 -36.22351293  10.02250928
2616.00 -36.28132175  10.04462880
2618.00 -36.33916438  10.06677888
2620.00 -36.39704080  10.08895953
2622.00 -36.45495098  10.11117077
2624.00 -36.51289490  10.13341260
2626.00 -36.57087255  10.15568504
2628.00 -36.62888391  10.17798810
2630.00 -36.68692894  10.20032181
2632.00 -36.74500764  10.22268617
2634.00 -36.80311998  10.24508119
2636.00 -36.86126593  10.26750690
2638.00 -36.91944549  10.28996330
2640.00 -36.97765862  10.31245041
2642.00 -37.03590530  10.33496824
2644.00 -37.09418552  10.35751681
2646.00 -37.15249925  10.38009613
2648.00 -37.21084648  10.40270621
2650.00 -37.26922717  10.42534708
2652.00 -37.32764132  10.44801873
2654.00 -37.38608889  10.47072119
2656.00 -37.44456987  10.49345447
2658.00 -37.50308424  10.51621859
2660.00 -37.56163197  10.53901355
2662.00 -37.62021305  10.56183937
2664.00 -37.67882745  10.58469607
2666.00 -37.73747515  10.60758365
2668.00 -37.79615613  10.63050214
2670.00 -37.85487037  10.65345155
2672.00 -37.91361785  10.67643188
2674.00 -37.97239854  10.69944315
2676.00 -38.03121243  10.72248539
2678.00 -38.09005950  10.74555859
2680.00 -38.14893971  10.76866278
2682.00 -38.20785306  10.79179796
2684.00 -38.26679952  10.81496416
2686.00 -38.32577907  10.83816138
2688.00 -38.38479169  10.86138964
2690.00 -38.44383735  10.88464894
2692.00 -38.50291604  10.90793932
2694.00 -38.56202773  10.93126077
2696.00 -38.62117241  10.95461332
2698.00 -38.68035004  10.97799697
2700.00 -38.73956062  11.00141174
2702.00 -38.79880412  11.02485764
2704.00 -38.85808051  11.04833469
2706.00 -38.91738978  11.07184289
2708.00 -38.97673191  11.09538227
2710.00 -39.03610686  11.11895283
2712.00 -39.09551464  11.14255459
2714.00 -39.15495520  11.16618757
2716.00 -39.21442853  11.18985177
2718.00 -39.27393461  11.21354721
2720.00 -39.33347342  11.23727390
2722.00 -39.39304493  11.26103185
2724.00 -39.45264913  11.28482108
2726.00 -39.51228599  11.30864161
2728.00 -39.57195549  11.33249344
2730.00 -39.63165762  11.35637659
2732.00 -39.69139234  11.38029106
2734.00 -39.75115964  11.40423688
2736.00 -39.81095949  11.42821406
2738.00 -39.87079188  11.45222261
2740.00 -39.93065679  11.47626254
2742.00 -39.99055418  11.50033387
2744.00 -40.05048405  11.52443661
2746.00 -40.11044636  11.54857077
2748.00 -40.17044110  11.57273636
2750.00 -40.23046825  11.59693340
2752.00 -40.29052778  11.62116191
2754.00 -40.35061968  11.64542189
2756.00 -40.41074392  11.66971335
2758.00 -40.47090048  11.69403631
2760.00 -40.53108933  11.71839079
2762.00 -40.59131047  11.74277679
2764.00 -40.65156386  11.76719433
2766.00 -40.71184948  11.79164343
2768.00 -40.77216732  11.81612408
2770.00 -40.83251735  11.84063631
2772.00 -40.89289955  11.86518014
2774.00 -40.95331390  11.88975556
2776.00 -41.01376038  11.91436260
2778.00 -41.07423896  11.93900127
2780.00 -41.13474962  11.96367157
2782.00 -41.19529235  11.98837353
2784.00 -41.25586712  12.01310716
2786.00 -41.31647391  12.03787247
2788.00 -41.37711270  12.06266946
2790.00 -41.43778346  12.08749816
2792.00 -41.49848618  12.11235858
2794.00 -41.55922083  12.13725072
2796.00 -41.61998739  12.16217460
2798.00 -41.68078585  12.18713024
2800.00 -41.74161617  12.21211765
2802.00 -41.80247834  12.23713683
2804.00 -41.86337234  12.26218781
2806.00 -41.92429814  12.28727059
2808.00 -41.98525572  12.31238518
2810.00 -42.04624506  12.33753161
2812.00 -42.10726614  12.36270987
2814.00 -42.16831894  12.38791999
2816.00 -42.22940344  12.41316198
2818.00 -42.29051961  12.43843584
2820.00 -42.35166743  12.46374159
2822.00 -42.41284689  12.48907925
2824.00 -42.47405795  12.51444882
2826.00 -42.53530061  12.53985032
2828.00 -42.59657483  12.56528376
2830.00 -42.65788059  12.59074915
2832.00 -42.71921788  12.61624651
2834.00 -42.78058667  12.64177584
2836.00 -42.84198694  12.66733716
2838.00 -42.90341866  12.69293048
2840.00 -42.96488183  12.71855581
2842.00 -43.02637641  12.74421317
2844.00 -43.08790238  12.76990257
2846.00 -43.14945973  12.79562401
2848.00 -43.21104842  12.82137752
2850.00 -43.27266844  12.84716310
2852.00 -43.33431977  12.87298077
2854.00 -43.39600239  12.89883053
2856.00 -43.45771626  12.92471240
2858.00 -43.51946138  12.95062640
2860.00 -43.58123772  12.97657253
2862.00 -43.64304526  13.00255080
2864.00 -43.70488397  13.02856123
2866.00 -43.76675384  13.05460383
2868.00 -43.82865485  13.08067862
2870.00 -43.89058696  13.10678559
2872.00 -43.95255016  13.13292477
2874.00 -44.01454443  13.15909617
2876.00 -44.07656975  13.18529980
2878.00 -44.13862609  13.21153566
2880.00 -44.20071344  13.23780378
2882.00 -44.26283176  13.26410417
2884.00 -44.32498105  13.29043683
2886.00 -44.38716127  13.31680178
2888.00 -44.44937241  13.34319902
2890.00 -44.51161444  13.36962858
2892.00 -44.57388735  13.39609046
2894.00 -44.63619110  13.42258468
2896.00 -44.69852569  13.44911124
2898.00 -44.76089108  13.47567016
2900.00 -44.82328726  13.50226145
2902.00 -44.88571420  13.52888512
2904.00 -44.94817188  13.55554119
2906.00 -45.01066028  13.58222966
2908.00 -45.07317938  13.60895054
2910.00 -45.13572916  13.63570385
2912.00 -45.19830959  13.66248960
2914.00 -45.26092065  13.68930780
2916.00 -45.32356232  13.71615847
2918.00 -45.38623459  13.74304160
2920.00 -45.44893742  13.76995722
2922.00 -45.51167079  13.79690534
2924.00 -45.57443469  13.82388597
2926.00 -45.63722909  13.85089911
2928.00 -45.70005397  13.87794479
2930.00 -45.76290931  13.90502300
2932.00 -45.82579509  13.93213377
2934.00 -45.88871128  13.95927711
2936.00 -45.95165786  13.98645302
2938.00 -46.01463481  14.01366151
2940.00 -46.07764212  14.04090261
2942.00 -46.14067975  14.06817632
2944.00 -46.20374768  14.09548264
2946.00 -46.26684590  14.12282160
2948.00 -46.32997438  14.15019320
2950.00 -46.39313310  14.17759746
2952.00 -46.45632203  14.20503438
2954.00 -46.51954117  14.23250398
2956.00 -46.58279047  14.26000627
2958.00 -46.64606993  14.28754125
2960.00 -46.70937952  14.31510895
2962.00 -46.77271922  14.34270937
2964.00 -46.83608900  14.37034252
2966.00 -46.89948885  14.39800841
2968.00 -46.96291874  14.42570706
2970.00 -47.02637865  14.45343847
2972.00 -47.08986856  14.48120266
2974.00 -47.15338845  14.50899964
2976.00 -47.21693829  14.53682941
2978.00 -47.28051806  14.56469199
2980.00 -47.34412775  14.59258740
2982.00 -47.40776733  14.62051563
2984.00 -47.47143677  14.64847671
2986.00 -47.53513606  14.67647064
2988.00 -47.59886517  14.70449744
2990.00 -47.66262408  14.73255710
2992.00 -47.72641277  14.76064966
2994.00 -47.79023122  14.78877511
2996.00 -47.85407941  14.81693346
2998.00 -47.91795731  14.84512474
3000.00 -47.98186490  14.87334894
3002.00 -48.04580216  14.90160608
3004.00 -48.10976907  14.92989618
3006.00 -48.17376560  14.95821923
3008.00 -48.23779174  14.98657525
3010.00 -48.30184746  15.01496426
3012.00 -48.36593274  15.04338625
3014.00 -48.43004756  15.07184126
3016.00 -48.49419190  15.10032927
3018.00 -48.55836573  15.12885031
3020.00 -48.62256903  15.15740438
3022.00 -48.68680178  15.18599150
3024.00 -48.75106396  15.21461168
3026.00 -48.81535554  15.24326492
3028.00 -48.87967651  15.27195124
3030.00 -48.94402684  15.30067064
3032.00 -49.00840651  15.32942315
3034.00 -49.07281550  15.35820876
3036.00 -49.13725379  15.38702749
3038.00 -49.20172134  15.41587935
3040.00 -49.26621816  15.44476435
3042.00 -49.33074420  15.47368250
3044.00 -49.39529945  15.50263381
3046.00 -49.45988388  15.53161829
3048.00 -49.52449748  15.56063595
3050.00 -49.58914022  15.58968680
3052.00 -49.65381208  15.61877086
3054.00 -49.71851304  15.64788812
3056.00 -49.78324308  15.67703861
3058.00 -49.84800217  15.70622233
3060.00 -49.91279029  15.73543929
3062.00 -49.97760742  15.76468951
3064.00 -50.04245354  15.79397299
3066.00 -50.10732862  15.82328974
3068.00 -50.17223265  15.85263977
3070.00 -50.23716559  15.88202310
3072.00 -50.30212744  15.91143973
3074.00 -50.36711817  15.94088968
3076.00 -50.43213775  15.97037295
3078.00 -50.49718616  15.99988955
3080.00 -50.56226339  16.02943949
3082.00 -50.62736940  16.05902279
3084.00 -50.69250418  16.08863945
3086.00 -50.75766771  16.11828949
3088.00 -50.82285996  16.14797291
3090.00 -50.88808091  16.17768972
3092.00 -50.95333054  16.20743994
3094.00 -51.01860883  16.23722357
3096.00 -51.08391575  16.26704062
3098.00 -51.14925128  16.29689111
3100.00 -51.21461540  16.32677504
3102.00 -51.28000810  16.35669242
3104.00 -51.34542933  16.38664327
3106.00 -51.41087910  16.41662759
3108.00 -51.47635736  16.44664539
3110.00 -51.54186410  16.47669668
3112.00 -51.60739931  16.50678147
3114.00 -51.67296294  16.53689978
3116.00 -51.73855499  16.56705161
3118.00 -51.80417544  16.59723697
3120.00 -51.86982425  16.62745586
3122.00 -51.93550141  16.65770831
3124.00 -52.00120689  16.68799432
3126.00 -52.06694068  16.71831390
3128.00 -52.13270275  16.74866706
3130.00 -52.19849308  16.77905381
3132.00 -52.26431164  16.80947415
3134.00 -52.33015842  16.83992810
3136.00 -52.39603339  16.87041568
3138.00 -52.46193653  16.90093687
3140.00 -52.52786782  16.93149171
3142.00 -52.59382724  16.96208019
3144.00 -52.65981476  16.99270232
3146.00 -52.72583036  17.02335813
3148.00 -52.79187402  17.05404760
3150.00 -52.85794572  17.08477076
3152.00 -52.92404543  17.11552761
3154.00 -52.99017314  17.14631817
3156.00 -53.05632881  17.17714244
3158.00 -53.12251244  17.20800043
3160.00 -53.18872399  17.23889215
3162.00 -53.25496345  17.26981760
3164.00 -53.32123079  17.30077681
3166.00 -53.38752599  17.33176978
3168.00 -53.45384903  17.36279652
3170.00 -53.52019989  17.39385703
3172.00 -53.58657853  17.42495133
3174.00 -53.65298495  17.45607942
3176.00 -53.71941912  17.48724132
3178.00 -53.78588102  17.51843704
3180.00 -53.85237062  17.54966657
3182.00 -53.91888790  17.58092994
3184.00 -53.98543285  17.61222715
3186.00 -54.05200543  17.64355821
3188.00 -54.11860563  17.67492313
3190.00 -54.18523343  17.70632192
3192.00 -54.25188879  17.73775459
3194.00 -54.31857171  17.76922114
3196.00 -54.38528215  17.80072159
3198.00 -54.45202010  17.83225594
3200.00 -54.51878554  17.86382421
3202.00 -54.58557843  17.89542640
3204.00 -54.65239876  17.92706252
3206.00 -54.71924651  17.95873258
3208.00 -54.78612165  17.99043659
3210.00 -54.85302417  18.02217456
3212.00 -54.91995404  18.05394650
3214.00 -54.98691123  18.08575242
3216.00 -55.05389573  18.11759232
3218.00 -55.12090751  18.14946621
3220.00 -55.18794656  18.18137410
3222.00 -55.25501284  18.21331601
3224.00 -55.32210634  18.24529194
3226.00 -55.38922704  18.27730189
3228.00 -55.45637491  18.30934589
3230.00 -55.52354992  18.34142393
3232.00 -55.59075207  18.37353602
3234.00 -55.65798132  18.40568218
3236.00 -55.72523766  18.43786241
3238.00 -55.79252105  18.47007672
3240.00 -55.85983149  18.50232513
3242.00 -55.92716894  18.53460763
3244.00 -55.99453339  18.56692424
3246.00 -56.06192481  18.59927496
3248.00 -56.12934318  18.63165981
3250.00 -56.19678848  18.66407879
3252.00 -56.26426069  18.69653191
3254.00 -56.33175978  18.72901918
3256.00 -56.39928573  18.76154061
3258.00 -56.46683852  18.79409621
3260.00 -56.53441812  18.82668598
3262.00 -56.60202453  18.85930994
3264.00 -56.66965770  18.89196808
3266.00 -56.73731762  18.92466043
3268.00 -56.80500428  18.95738699
3270.00 -56.87271763  18.99014776
3272.00 -56.94045768  19.02294276
3274.00 -57.00822438  19.05577200
3276.00 -57.07601772  19.08863547
3278.00 -57.14383768  19.12153320
3280.00 -57.21168423  19.15446519
3282.00 -57.27955736  19.18743144
3284.00 -57.34745704  19.22043197
3286.00 -57.41538324  19.25346678
3288.00 -57.48333595  19.28653589
3290.00 -57.55131515  19.31963929
3292.00 -57.61932080  19.35277700
3294.00 -57.68735290  19.38594903
3296.00 -57.75541141  19.41915539
3298.00 -57.82349631  19.45239607
3300.00 -57.89160759  19.48567110
3302.00 -57.95974522  19.51898048
3304.00 -58.02790917  19.55232421
3306.00 -58.09609944  19.58570231
3308.00 -58.16431598  19.61911478
3310.00 -58.23255879  19.65256163
3312.00 -58.30082783  19.68604288
3314.00 -58.36912309  19.71955852
3316.00 -58.43744455  19.75310856
3318.00 -58.50579217  19.78669302
3320.00 -58.57416595  19.82031190
3322.00 -58.64256585  19.85396521
3324.00 -58.71099186  19.88765295
3326.00 -58.77944396  19.92137514
3328.00 -58.84792211  19.95513178
3330.00 -58.91642630  19.98892289
3332.00 -58.98495651  20.02274846
3334.00 -59.05351271  20.05660851
3336.00 -59.12209489  20.09050304
3338.00 -59.19070301  20.12443206
3340.00 -59.25933706  20.15839559
3342.00 -59.32799702  20.19239362
3344.00 -59.39668286  20.22642616
3346.00 -59.46539455  20.26049323
3348.00 -59.53413209  20.29459483
3350.00 -59.60289545  20.32873097
3352.00 -59.67168459  20.36290165
3354.00 -59.74049951  20.39710689
3356.00 -59.80934018  20.43134669
3358.00 -59.87820657  20.46562106
3360.00 -59.94709867  20.49993000
3362.00 -60.01601645  20.53427353
3364.00 -60.08495989  20.56865165
3366.00 -60.15392897  20.60306437
3368.00 -60.22292367  20.63751169
3370.00 -60.29194396  20.67199363
3372.00 -60.36098982  20.70651019
3374.00 -60.43006122  20.74106138
3376.00 -60.49915816  20.77564721
3378.00 -60.56828060  20.81026768
3380.00 -60.63742852  20.84492280
3382.00 -60.70660190  20.87961259
3384.00 -60.77580072  20.91433703
3386.00 -60.84502495  20.94909616
3388.00 -60.91427458  20.98388996
3390.00 -60.98354958  21.01871845
3392.00 -61.05284992  21.05358164
3394.00 -61.12217559  21.08847953
3396.00 -61.19152657  21.12341213
3398.00 -61.26090283  21.15837945
3400.00 -61.33030434  21.19338149
3402.00 -61.39973110  21.22841826
3404.00 -61.46918306  21.26348978
3406.00 -61.53866023  21.29859604
3408.00 -61.60816256  21.33373705
3410.00 -61.67769004  21.36891283
3412.00 -61.74724264  21.40412337
3414.00 -61.81682035  21.43936869
3416.00 -61.88642314  21.47464880
3418.00 -61.95605099  21.50996369
3420.00 -62.02570388  21.54531337
3422.00 -62.09538178  21.58069787
3424.00 -62.16508467  21.61611717
3426.00 -62.23481253  21.65157129
3428.00 -62.30456534  21.68706023
3430.00 -62.37434308  21.72258401
3432.00 -62.44414571  21.75814262
3434.00 -62.51397323  21.79373609
3436.00 -62.58382561  21.82936440
3438.00 -62.65370283  21.86502757
3440.00 -62.72360485  21.90072561
3442.00 -62.79353167  21.93645853
3444.00 -62.86348326  21.97222632
3446.00 -62.93345960  22.00802900
3448.00 -63.00346066  22.04386658
3450.00 -63.07348643  22.07973905
3452.00 -63.14353687  22.11564644
3454.00 -63.21361198  22.15158874
3456.00 -63.28371172  22.18756595
3458.00 -63.35383607  22.22357810
3460.00 -63.42398502  22.25962519
3462.00 -63.49415853  22.29570721
3464.00 -63.56435659  22.33182418
3466.00 -63.63457918  22.36797611
3468.00 -63.70482627  22.40416300
3470.00 -63.77509784  22.44038486
3472.00 -63.84539386  22.47664169
3474.00 -63.91571432  22.51293350
3476.00 -63.98605920  22.54926031
3478.00 -64.05642847  22.58562211
3480.00 -64.12682210  22.62201890
3482.00 -64.19724008  22.65845071
3484.00 -64.26768239  22.69491753
3486.00 -64.33814900  22.73141938
3488.00 -64.40863989  22.76795625
3490.00 -64.47915504  22.80452815
3492.00 -64.54969442  22.84113510
3494.00 -64.62025801  22.87777709
3496.00 -64.69084580  22.91445413
3498.00 -64.76145775  22.95116624
3500.00 -64.83209385  22.98791341
3502.00 -64.90275408  23.02469566
3504.00 -64.97343841  23.06151298
3506.00 -65.04414681  23.09836539
3508.00 -65.11487928  23.13525289
3510.00 -65.18563578  23.17217549
3512.00 -65.25641629  23.20913320
3514.00 -65.32722079  23.24612601
3516.00 -65.39804926  23.28315394
3518.00 -65.46890168  23.32021700
3520.00 -65.53977802  23.35731518
3522.00 -65.61067827  23.39444851
3524.00 -65.68160239  23.43161697
3526.00 -65.75255037  23.46882058
3528.00 -65.82352219  23.50605935
3530.00 -65.89451781  23.54333327
3532.00 -65.96553723  23.58064237
3534.00 -66.03658042  23.61798663
3536.00 -66.10764735  23.65536608
3538.00 -66.17873801  23.69278071
3540.00 -66.24985237  23.73023053
3542.00 -66.32099041  23.76771555
3544.00 -66.39215210  23.80523577
3546.00 -66.46333743  23.84279120
3548.00 -66.53454637  23.88038185
3550.00 -66.60577891  23.91800772
3552.00 -66.67703501  23.95566881
3554.00 -66.74831466  23.99336514
3556.00 -66.81961783  24.03109671
3558.00 -66.89094450  24.06886352
3560.00 -66.96229465  24.10666559
3562.00 -67.03366826  24.14450291
3564.00 -67.10506531  24.18237549
3566.00 -67.17648576  24.22028334
3568.00 -67.24792961  24.25822647
3570.00 -67.31939683  24.29620488
3572.00 -67.39088739  24.33421857
3574.00 -67.46240128  24.37226756
3576.00 -67.53393846  24.41035184
3578.00 -67.60549893  24.44847143
3580.00 -67.67708266  24.48662633
3582.00 -67.74868961  24.52481654
3584.00 -67.82031979  24.56304207
3586.00 -67.89197315  24.60130293
3588.00 -67.96364968  24.63959912
3590.00 -68.03534936  24.67793065
3592.00 -68.10707216  24.71629753
3594.00 -68.17881806  24.75469975
3596.00 -68.25058704  24.79313733
3598.00 -68.32237908  24.83161026
3600.00 -68.39419416  24.87011857
3602.00 -68.46603225  24.90866224
3604.00 -68.53789333  24.94724129
3606.00 -68.60977738  24.98585573
3608.00 -68.68168437  25.02450555
3610.00 -68.75361429  25.06319076
3612.00 -68.82556711  25.10191138
3614.00 -68.89754281  25.14066740
3616.00 -68.96954137  25.17945883
3618.00 -69.04156276  25.21828567
3620.00 -69.11360697  25.25714794
3622.00 -69.18567397  25.29604563
3624.00 -69.25776373  25.33497875
3626.00 -69.32987625  25.37394732
3628.00 -69.40201149  25.41295132
3630.00 -69.47416943  25.45199077
3632.00 -69.54635005  25.49106567
3634.00 -69.61855333  25.53017604
3636.00 -69.69077925  25.56932186
3638.00 -69.76302778  25.60850316
3640.00 -69.83529890  25.64771993
3642.00 -69.90759259  25.68697217
3644.00 -69.97990882  25.72625991
3646.00 -70.05224759  25.76558313
3648.00 -70.12460885  25.80494185
3650.00 -70.19699260  25.84433607
3652.00 -70.26939881  25.88376579
3654.00 -70.34182745  25.92323102
3656.00 -70.41427850  25.96273177
3658.00 -70.48675195  26.00226804
3660.00 -70.55924777  26.04183984
3662.00 -70.63176594  26.08144717
3664.00 -70.70430643  26.12109003
3666.00 -70.77686923  26.16076844
3668.00 -70.84945430  26.20048239
3670.00 -70.92206164  26.24023189
3672.00 -70.99469122  26.28001694
3674.00 -71.06734300  26.31983756
3676.00 -71.14001699  26.35969375
3678.00 -71.21271314  26.39958550
3680.00 -71.28543144  26.43951283
3682.00 -71.35817187  26.47947574
3684.00 -71.43093440  26.51947424
3686.00 -71.50371902  26.55950833
3688.00 -71.57652569  26.59957801
3690.00 -71.64935441  26.63968330
3692.00 -71.72220514  26.67982419
3694.00 -71.79507786  26.72000069
3696.00 -71.86797255  26.76021280
3698.00 -71.94088920  26.80046053
3700.00 -72.01382777  26.84074389
3702.00 -72.08678825  26.88106288
3704.00 -72.15977061  26.92141750
3706.00 -72.23277483  26.96180776
3708.00 -72.30580089  27.00223366
3710.00 -72.37884877  27.04269521
3712.00 -72.45191845  27.08319241
3714.00 -72.52500989  27.12372527
3716.00 -72.59812309  27.16429379
3718.00 -72.67125801  27.20489798
3720.00 -72.74441465  27.24553784
3722.00 -72.81759296  27.28621337
3724.00 -72.89079294  27.32692459
3726.00 -72.96401456  27.36767148
3728.00 -73.03725780  27.40845407
3730.00 -73.11052263  27.44927236
3732.00 -73.18380904  27.49012634
3734.00 -73.25711700  27.53101602
3736.00 -73.33044649  27.57194141
3738.00 -73.40379749  27.61290252
3740.00 -73.47716997  27.65389933
3742.00 -73.55056392  27.69493187
3744.00 -73.62397931  27.73600014
3746.00 -73.69741612  27.77710413
3748.00 -73.77087432  27.81824386
3750.00 -73.84435390  27.85941933
3752.00 -73.91785484  27.90063054
3754.00 -73.99137710  27.94187750
3756.00 -74.06492068  27.98316020
3758.00 -74.13848554  28.02447867
3760.00 -74.21207167  28.06583289
3762.00 -74.28567904  28.10722288
3764.00 -74.35930764  28.14864863
3766.00 -74.43295743  28.19011016
3768.00 -74.50662840  28.23160746
3770.00 -74.58032052  28.27314055
3772.00 -74.65403378  28.31470942
3774.00 -74.72776815  28.35631408
3776.00 -74.80152361  28.39795453
3778.00 -74.87530013  28.43963079
3780.00 -74.94909770  28.48134284
3782.00 -75.02291630  28.52309070
3784.00 -75.09675589  28.56487437
3786.00 -75.17061646  28.60669385
3788.00 -75.24449799  28.64854915
3790.00 -75.31840046  28.69044028
3792.00 -75.39232384  28.73236723
3794.00 -75.46626811  28.77433001
3796.00 -75.54023324  28.81632862
3798.00 -75.61421923  28.85836307
3800.00 -75.68822604  28.90043337
3802.00 -75.76225365  28.94253951
3804.00 -75.83630205  28.98468150
3806.00 -75.91037120  29.02685935
3808.00 -75.98446109  29.06907305
3810.00 -76.05857169  29.11132261
3812.00 -76.13270299  29.15360804
3814.00 -76.20685496  29.19592934
3816.00 -76.28102758  29.23828652
3818.00 -76.35522083  29.28067957
3820.00 -76.42943468  29.32310850
3822.00 -76.50366911  29.36557332
3824.00 -76.57792411  29.40807402
3826.00 -76.65219965  29.45061062
3828.00 -76.72649570  29.49318311
3830.00 -76.80081225  29.53579151
3832.00 -76.87514927  29.57843580
3834.00 -76.94950674  29.62111601
3836.00 -77.02388465  29.66383212
3838.00 -77.09828296  29.70658415
3840.00 -77.17270166  29.74937210
3842.00 -77.24714072  29.79219597
3844.00 -77.32160012  29.83505577
3846.00 -77.39607984  29.87795149
3848.00 -77.47057986  29.92088315
3850.00 -77.54510016  29.96385074
3852.00 -77.61964071  30.00685428
3854.00 -77.69420150  30.04989375
3856.00 -77.76878249  30.09296918
3858.00 -77.84338368  30.13608055
3860.00 -77.91800503  30.17922788
3862.00 -77.99264652  30.22241116
3864.00 -78.06730814  30.26563041
3866.00 -78.14198986  30.30888562
3868.00 -78.21669165  30.35217680
3870.00 -78.29141351  30.39550395
3872.00 -78.36615540  30.43886707
3874.00 -78.44091730  30.48226617
3876.00 -78.51569920  30.52570126
3878.00 -78.59050106  30.56917233
3880.00 -78.66532288  30.61267938
3882.00 -78.74016461  30.65622243
3884.00 -78.81502626  30.69980147
3886.00 -78.88990778  30.74341651
3888.00 -78.96480917  30.78706755
3890.00 -79.03973039  30.83075460
3892.00 -79.11467143  30.87447765
3894.00 -79.18963227  30.91823672
3896.00 -79.26461288  30.96203180
3898.00 -79.33961324  31.00586289
3900.00 -79.41463332  31.04973001
3902.00 -79.48967312  31.09363315
3904.00 -79.56473260  31.13757232
3906.00 -79.63981175  31.18154751
3908.00 -79.71491054  31.22555874
3910.00 -79.79002894  31.26960601
3912.00 -79.86516695  31.31368932
3914.00 -79.94032453  31.35780867
3916.00 -80.01550167  31.40196406
3918.00 -80.09069834  31.44615550
3920.00 -80.16591452  31.49038300
3922.00 -80.24115019  31.53464655
3924.00 -80.31640533  31.57894615
3926.00 -80.39167992  31.62328182
3928.00 -80.46697392  31.66765355
3930.00 -80.54228733  31.71206135
3932.00 -80.61762013  31.75650521
3934.00 -80.69297227  31.80098515
3936.00 -80.76834376  31.84550117
3938.00 -80.84373456  31.89005326
3940.00 -80.91914466  31.93464143
3942.00 -80.99457402  31.97926569
3944.00 -81.07002264  32.02392604
3946.00 -81.14549048  32.06862247
3948.00 -81.22097753  32.11335500
3950.00 -81.29648376  32.15812362
3952.00 -81.37200916  32.20292834
3954.00 -81.44755370  32.24776916
3956.00 -81.52311735  32.29264608
3958.00 -81.59870011  32.33755911
3960.00 -81.67430194  32.38250825
3962.00 -81.74992282  32.42749350
3964.00 -81.82556274  32.47251487
3966.00 -81.90122167  32.51757235
3968.00 -81.97689958  32.56266595
3970.00 -82.05259647  32.60779568
3972.00 -82.12831229  32.65296153
3974.00 -82.20404705  32.69816350
3976.00 -82.27980070  32.74340161
3978.00 -82.35557324  32.78867585
3980.00 -82.43136463  32.83398623
3982.00 -82.50717486  32.87933274
3984.00 -82.58300390  32.92471540
3986.00 -82.65885174  32.97013419
3988.00 -82.73471835  33.01558914
3990.00 -82.81060372  33.06108023
3992.00 -82.88650781  33.10660747
3994.00 -82.96243060  33.15217086
3996.00 -83.03837208  33.19777041
3998.00 -83.11433223  33.24340612
4000.00 -83.19031102  33.28907799
4002.00 -83.26630842  33.33478602
4004.00 -83.34232443  33.38053022
4006.00 -83.41835901  33.42631058
4008.00 -83.49441215  33.47212712
4010.00 -83.57048382  33.51797982
4012.00 -83.64657401  33.56386870
4014.00 -83.72268268  33.60979376
4016.00 -83.79880982  33.65575500
4018.00 -83.87495541  33.70175241
4020.00 -83.95111943  33.74778601
4022.00 -84.02730185  33.79385580
4024.00 -84.10350265  33.83996178
4026.00 -84.17972181  33.88610394
4028.00 -84.25595932  33.93228230
4030.00 -84.33221514  33.97849686
4032.00 -84.40848925  34.02474761
4034.00 -84.48478164  34.07103456
4036.00 -84.56109228  34.11735771
4038.00 -84.63742116  34.16371706
4040.00 -84.71376824  34.21011263
4042.00 -84.79013351  34.25654439
4044.00 -84.86651695  34.30301237
4046.00 -84.94291853  34.34951656
4048.00 -85.01933824  34.39605697
4050.00 -85.09577604  34.44263359
4052.00 -85.17223193  34.48924642
4054.00 -85.24870588  34.53589548
4056.00 -85.32519786  34.58258076
4058.00 -85.40170786  34.62930227
4060.00 -85.47823585  34.67606000
4062.00 -85.55478182  34.72285396
4064.00 -85.63134573  34.76968414
4066.00 -85.70792758  34.81655056
4068.00 -85.78452733  34.86345322
4070.00 -85.86114497  34.91039211
4072.00 -85.93778048  34.95736723
4074.00 -86.01443383  35.00437860
4076.00 -86.09110500  35.05142621
4078.00 -86.16779397  35.09851006
4080.00 -86.24450072  35.14563016
4082.00 -86.32122523  35.19278650
4084.00 -86.39796747  35.23997909
4086.00 -86.47472743  35.28720793
4088.00 -86.55150508  35.33447303
4090.00 -86.62830040  35.38177437
4092.00 -86.70511337  35.42911198
4094.00 -86.78194397  35.47648584
4096.00 -86.85879218  35.52389596
4098.00 -86.93565798  35.57134234
4100.00 -87.01254133  35.61882498
4102.00 -87.08944223  35.66634389
4104.00 -87.16636066  35.71389906
4106.00 -87.24329658  35.76149050
4108.00 -87.32024998  35.80911821
4110.00 -87.39722084  35.85678219
4112.00 -87.47420913  35.90448244
4114.00 -87.55121484  35.95221897
4116.00 -87.62823794  35.99999177
4118.00 -87.70527841  36.04780085
4120.00 -87.78233623  36.09564621
4122.00 -87.85941138  36.14352784
4124.00 -87.93650384  36.19144576
4126.00 -88.01361358  36.23939996
4128.00 -88.09074059  36.28739045
4130.00 -88.16788484  36.33541722
4132.00 -88.24504631  36.38348028
4134.00 -88.32222498  36.43157962
4136.00 -88.39942084  36.47971526
4138.00 -88.47663385  36.52788719
4140.00 -88.55386399  36.57609541
4142.00 -88.63111125  36.62433993
4144.00 -88.70837560  36.67262074
4146.00 -88.78565703  36.72093785
4148.00 -88.86295551  36.76929125
4150.00 -88.94027101  36.81768096
4152.00 -89.01760353  36.86610697
4154.00 -89.09495303  36.91456928
4156.00 -89.17231950  36.96306789
4158.00 -89.24970291  37.01160281
4160.00 -89.32710324  37.06017404
4162.00 -89.40452048  37.10878157
4164.00 -89.48195459  37.15742541
4166.00 -89.55940557  37.20610556
4168.00 -89.63687338  37.25482202
4170.00 -89.71435801  37.30357479
4172.00 -89.79185943  37.35236388
4174.00 -89.86937763  37.40118928
4176.00 -89.94691258  37.45005099
4178.00 -90.02446427  37.49894903
4180.00 -90.10203266  37.54788338
4182.00 -90.17961774  37.59685405
4184.00 -90.25721949  37.64586103
4186.00 -90.33483788  37.69490434
4188.00 -90.41247290  37.74398398
4190.00 -90.49012453  37.79309993
4192.00 -90.56779273  37.84225221
4194.00 -90.64547750  37.89144081
4196.00 -90.72317881  37.94066574
4198.00 -90.80089663  37.98992700
4200.00 -90.87863096  38.03922458
4202.00 -90.95638176  38.08855850
4204.00 -91.03414902  38.13792874
4206.00 -91.11193271  38.18733531
4208.00 -91.18973281  38.23677822
4210.00 -91.26754931  38.28625746
4212.00 -91.34538217  38.33577303
4214.00 -91.42323139  38.38532493
4216.00 -91.50109693  38.43491317
4218.00 -91.57897878  38.48453775
4220.00 -91.65687692  38.53419866
4222.00 -91.73479132  38.58389591
4224.00 -91.81272196  38.63362950
4226.00 -91.89066883  38.68339943
4228.00 -91.96863190  38.73320570
4230.00 -92.04661115  38.78304831
4232.00 -92.12460655  38.83292726
4234.00 -92.20261810  38.88284255
4236.00 -92.28064576  38.93279418
4238.00 -92.35868952  38.98278216
4240.00 -92.43674935  39.03280648
4242.00 -92.51482524  39.08286715
4244.00 -92.59291715  39.13296416
4246.00 -92.67102508  39.18309752
4248.00 -92.74914900  39.23326722
4250.00 -92.82728889  39.28347327
4252.00 -92.90544473  39.33371567
4254.00 -92.98361649  39.38399442
4256.00 -93.06180416  39.43430952
4258.00 -93.14000771  39.48466097
4260.00 -93.21822713  39.53504876
4262.00 -93.29646239  39.58547291
4264.00 -93.37471347  39.63593341
4266.00 -93.45298036  39.68643026
4268.00 -93.53126302  39.73696346
4270.00 -93.60956144  39.78753301
4272.00 -93.68787560  39.83813892
4274.00 -93.76620547  39.88878118
4276.00 -93.84455104  39.93945980
4278.00 -93.92291228  39.99017477
4280.00 -94.00128918  40.04092609
4282.00 -94.07968171  40.09171377
4284.00 -94.15808985  40.14253780
4286.00 -94.23651358  40.19339819
4288.00 -94.31495289  40.24429494
4290.00 -94.39340774  40.29522804
4292.00 -94.47187811  40.34619750
4294.00 -94.55036400  40.39720332
4296.00 -94.62886537  40.44824549
4298.00 -94.70738220  40.49932402
4300.00 -94.78591448  40.55043891
4302.00 -94.86446218  40.60159016
4304.00 -94.94302528  40.65277776
4306.00 -95.02160376  40.70400172
4308.00 -95.10019761  40.75526205
4310.00 -95.17880679  40.80655873
4312.00 -95.25743129  40.85789177
4314.00 -95.33607108  40.90926117
4316.00 -95.41472616  40.96066693
4318.00 -95.49339649  41.01210905
4320.00 -95.57208205  41.06358753
4322.00 -95.65078282  41.11510236
4324.00 -95.72949879  41.16665356
4326.00 -95.80822993  41.21824112
4328.00 -95.88697623  41.26986504
4330.00 -95.96573765  41.32152532
4332.00 -96.04451418  41.37322195
4334.00 -96.12330580  41.42495495
4336.00 -96.20211249  41.47672431
4338.00 -96.28093422  41.52853003
4340.00 -96.35977098  41.58037211
4342.00 -96.43862274  41.63225055
4344.00 -96.51748949  41.68416534
4346.00 -96.59637120  41.73611650
4348.00 -96.67526786  41.78810402
4350.00 -96.75417943  41.84012790
4352.00 -96.83310591  41.89218814
4354.00 -96.91204727  41.94428474
4356.00 -96.99100348  41.99641769
4358.00 -97.06997454  42.04858701
4360.00 -97.14896041  42.10079269
4362.00 -97.22796108  42.15303472
4364.00 -97.30697652  42.20531311
4366.00 -97.38600672  42.25762787
4368.00 -97.46505166  42.30997898
4370.00 -97.54411131  42.36236645
4372.00 -97.62318565  42.41479027
4374.00 -97.70227466  42.46725046
4376.00 -97.78137833  42.51974700
4378.00 -97.86049662  42.57227990
4380.00 -97.93962953  42.62484916
4382.00 -98.01877703  42.67745477
4384.00 -98.09793909  42.73009674
4386.00 -98.17711571  42.78277507
4388.00 -98.25630685  42.83548975
4390.00 -98.33551249  42.88824078
4392.00 -98.41473263  42.94102818
4394.00 -98.49396723  42.99385192
4396.00 -98.57321627  43.04671202
4398.00 -98.65247974  43.09960848
4400.00 -98.73175761  43.15254128
4402.00 -98.81104986  43.20551044
4404.00 -98.89035647  43.25851596
4406.00 -98.96967743  43.31155782
4408.00 -99.04901270  43.36463604
4410.00 -99.12836228  43.41775061
4412.00 -99.20772614  43.47090152
4414.00 -99.28710425  43.52408879
4416.00 -99.36649660  43.57731241
4418.00 -99.44590317  43.63057238
4420.00 -99.52532394  43.68386869
4422.00 -99.60475888  43.73720135
4424.00 -99.68420798  43.79057036
4426.00 -99.76367122  43.84397572
4428.00 -99.84314857  43.89741742
4430.00 -99.92264001  43.95089547
4432.00 -100.00214552  44.00440987
4434.00 -100.08166509  44.05796060
4436.00 -100.16119869  44.11154768
4438.00 -100.24074631  44.16517111
4440.00 -100.32030791  44.21883087
4442.00 -100.39988348  44.27252698
4444.00 -100.47947301  44.32625943
4446.00 -100.55907646  44.38002822
4448.00 -100.63869382  44.43383335
4450.00 -100.71832508  44.48767481
4452.00 -100.79797020  44.54155262
4454.00 -100.87762916  44.59546676
4456.00 -100.95730196  44.64941723
4458.00 -101.03698856  44.70340405
4460.00 -101.11668894  44.75742719
4462.00 -101.19640310  44.81148668
4464.00 -101.27613099  44.86558249
4466.00 -101.35587261  44.91971464
4468.00 -101.43562794  44.97388311
4470.00 -101.51539695  45.02808792
4472.00 -101.59517962  45.08232906
4474.00 -101.67497594  45.13660652
4476.00 -101.75478587  45.19092032
4478.00 -101.83460941  45.24527044
4480.00 -101.91444653  45.29965688
4482.00 -101.99429722  45.35407965
4484.00 -102.07416144  45.40853875
4486.00 -102.15403918  45.46303416
4488.00 -102.23393043  45.51756590
4490.00 -102.31383515  45.57213396
4492.00 -102.39375333  45.62673834
4494.00 -102.47368495  45.68137904
4496.00 -102.55362999  45.73605606
4498.00 -102.63358842  45.79076939
4500.00 -102.71356024  45.84551904
4502.00 -102.79354541  45.90030500
4504.00 -102.87354392  45.95512728
4506.00 -102.95355574  46.00998587
4508.00 -103.03358086  46.06488077
4510.00 -103.11361926  46.11981198
4512.00 -103.19367091  46.17477950
4514.00 -103.27373580  46.22978332
4516.00 -103.35381390  46.28482346
4518.00 -103.43390520  46.33989989
4520.00 -103.51400967  46.39501264
4522.00 -103.59412730  46.45016168
4524.00 -103.67425806  46.50534703
4526.00 -103.75440193  46.56056868
4528.00 -103.83455890  46.61582662
4530.00 -103.91472894  46.67112087
4532.00 -103.99491203  46.72645141
4534.00 -104.07510815  46.78181825
4536.00 -104.15531729  46.83722138
4538.00 -104.23553942  46.89266080
4540.00 -104.31577452  46.94813652
4542.00 -104.39602257  47.00364852
4544.00 -104.47628355  47.05919682
4546.00 -104.55655744  47.11478140
4548.00 -104.63684423  47.17040227
4550.00 -104.71714389  47.22605942
4552.00 -104.79745639  47.28175285
4554.00 -104.87778173  47.33748257
4556.00 -104.95811987  47.39324857
4558.00 -105.03847081  47.44905085
4560.00 -105.11883452  47.50488940
4562.00 -105.19921097  47.56076423
4564.00 -105.27960016  47.61667533
4566.00 -105.36000205  47.67262271
4568.00 -105.44041664  47.72860636
4570.00 -105.52084389  47.78462628
4572.00 -105.60128379  47.84068247
4574.00 -105.68173632  47.89677492
4576.00 -105.76220146  47.95290364
4578.00 -105.84267919  48.00906862
4580.00 -105.92316948  48.06526987
4582.00 -106.00367233  48.12150737
4584.00 -106.08418770  48.17778114
4586.00 -106.16471558  48.23409116
4588.00 -106.24525595  48.29043744
4590.00 -106.32580879  48.34681997
4592.00 -106.40637407  48.40323876
4594.00 -106.48695178  48.45969380
4596.00 -106.56754190  48.51618508
4598.00 -106.64814441  48.57271261
4600.00 -106.72875929  48.62927639
4602.00 -106.80938651  48.68587641
4604.00 -106.89002607  48.74251268
4606.00 -106.97067793  48.79918518
4608.00 -107.05134207  48.85589393
4610.00 -107.13201849  48.91263891
4612.00 -107.21270715  48.96942013
4614.00 -107.29340804  49.02623758
4616.00 -107.37412114  49.08309126
4618.00 -107.45484643  49.13998117
4620.00 -107.53558388  49.19690731
4622.00 -107.61633349  49.25386967
4624.00 -107.69709522  49.31086826
4626.00 -107.77786905  49.36790308
4628.00 -107.85865498  49.42497411
4630.00 -107.93945297  49.48208136
4632.00 -108.02026302  49.53922483
4634.00 -108.10108509  49.59640451
4636.00 -108.18191917  49.65362041
4638.00 -108.26276523  49.71087252
4640.00 -108.34362327  49.76816083
4642.00 -108.42449326  49.82548536
4644.00 -108.50537517  49.88284609
4646.00 -108.58626899  49.94024302
4648.00 -108.66717470  49.99767615
4650.00 -108.74809229  50.05514548
4652.00 -108.82902172  50.11265101
4654.00 -108.90996298  50.17019274
4656.00 -108.99091604  50.22777066
4658.00 -109.07188090  50.28538476
4660.00 -109.15285753  50.34303506
4662.00 -109.23384591  50.40072155
4664.00 -109.31484602  50.45844422
4666.00 -109.39585784  50.51620307
4668.00 -109.47688135  50.57399810
4670.00 -109.55791653  50.63182931
4672.00 -109.63896337  50.68969670
4674.00 -109.72002183  50.74760026
4676.00 -109.80109191  50.80553999
4678.00 -109.88217358  50.86351590
4680.00 -109.96326682  50.92152797
4682.00 -110.04437161  50.97957620
4684.00 -110.12548793  51.03766060
4686.00 -110.20661577  51.09578116
4688.00 -110.28775510  51.15393788
4690.00 -110.36890590  51.21213076
4692.00 -110.45006816  51.27035979
4694.00 -110.53124185  51.32862497
4696.00 -110.61242696  51.38692630
4698.00 -110.69362346  51.44526378
4700.00 -110.77483134  51.50363740
4702.00 -110.85605057  51.56204717
4704.00 -110.93728113  51.62049307
4706.00 -111.01852301  51.67897512
4708.00 -111.09977619  51.73749330
4710.00 -111.18104065  51.79604761
4712.00 -111.26231636  51.85463805
4714.00 -111.34360331  51.91326463
4716.00 -111.42490147  51.97192733
4718.00 -111.50621084  52.03062615
4720.00 -111.58753138  52.08936109
4722.00 -111.66886308  52.14813215
4724.00 -111.75020592  52.20693933
4726.00 -111.83155988  52.26578263
4728.00 -111.91292494  52.32466203
4730.00 -111.99430108  52.38357754
4732.00 -112.07568829  52.44252916
4734.00 -112.15708653  52.50151689
4736.00 -112.23849579  52.56054071
4738.00 -112.31991606  52.61960064
4740.00 -112.40134731  52.67869666
4742.00 -112.48278952  52.73782877
4744.00 -112.56424268  52.79699698
4746.00 -112.64570676  52.85620127
4748.00 -112.72718174  52.91544165
4750.00 -112.80866761  52.97471812
4752.00 -112.89016435  53.03403066
4754.00 -112.97167193  53.09337928
4756.00 -113.05319034  53.15276398
4758.00 -113.13471955  53.21218475
4760.00 -113.21625955  53.27164160
4762.00 -113.29781032  53.33113450
4764.00 -113.37937184  53.39066348
4766.00 -113.46094409  53.45022851
4768.00 -113.54252705  53.50982961
4770.00 -113.62412069  53.56946676
4772.00 -113.70572501  53.62913997
4774.00 -113.78733998  53.68884923
4776.00 -113.86896559  53.74859453
4778.00 -113.95060180  53.80837589
4780.00 -114.03224861  53.86819328
4782.00 -114.11390599  53.92804672
4784.00 -114.19557393  53.98793619
4786.00 -114.27725240  54.04786170
4788.00 -114.35894139  54.10782324
4790.00 -114.44064087  54.16782081
4792.00 -114.52235083  54.22785440
4794.00 -114.60407125  54.28792402
4796.00 -114.68580211  54.34802966
4798.00 -114.76754338  54.40817131
4800.00 -114.84929506  54.46834898
4802.00 -114.93105711  54.52856267
4804.00 -115.01282953  54.58881236
4806.00 -115.09461229  54.64909805
4808.00 -115.17640537  54.70941975
4810.00 -115.25820875  54.76977745
4812.00 -115.34002242  54.83017115
4814.00 -115.42184636  54.89060084
4816.00 -115.50368053  54.95106652
4818.00 -115.58552494  55.01156819
4820.00 -115.66737955  55.07210585
4822.00 -115.74924435  55.13267949
4824.00 -115.83111931  55.19328910
4826.00 -115.91300443  55.25393469
4828.00 -115.99489967  55.31461626
4830.00 -116.07680503  55.37533380
4832.00 -116.15872048  55.43608730
4834.00 -116.24064600  55.49687676
4836.00 -116.32258157  55.55770219
4838.00 -116.40452718  55.61856357
4840.00 -116.48648280  55.67946091
4842.00 -116.56844842  55.74039420
4844.00 -116.65042401  55.80136344
4846.00 -116.73240956  55.86236862
4848.00 -116.81440505  55.92340975
4850.00 -116.89641046  55.98448681
4852.00 -116.97842577  56.04559981
4854.00 -117.06045096  56.10674874
4856.00 -117.14248601  56.16793361
4858.00 -117.22453090  56.22915439
4860.00 -117.30658561  56.29041110
4862.00 -117.38865014  56.35170373
4864.00 -117.47072444  56.41303228
4866.00 -117.55280851  56.47439673
4868.00 -117.63490233  56.53579710
4870.00 -117.71700588  56.59723338
4872.00 -117.79911913  56.65870555
4874.00 -117.88124208  56.72021363
4876.00 -117.96337470  56.78175760
4878.00 -118.04551696  56.84333747
4880.00 -118.12766887  56.90495323
4882.00 -118.20983038  56.96660487
4884.00 -118.29200149  57.02829239
4886.00 -118.37418218  57.09001580
4888.00 -118.45637242  57.15177508
4890.00 -118.53857220  57.21357024
4892.00 -118.62078150  57.27540126
4894.00 -118.70300030  57.33726815
4896.00 -118.78522857  57.39917091
4898.00 -118.86746632  57.46110952
4900.00 -118.94971350  57.52308399
4902.00 -119.03197011  57.58509431
4904.00 -119.11423612  57.64714048
4906.00 -119.19651152  57.70922249
4908.00 -119.27879629  57.77134035
4910.00 -119.36109041  57.83349405
4912.00 -119.44339385  57.89568358
4914.00 -119.52570661  57.95790894
4916.00 -119.60802866  58.02017013
4918.00 -119.69035998  58.08246714
4920.00 -119.77270055  58.14479998
4922.00 -119.85505036  58.20716863
4924.00 -119.93740938  58.26957309
4926.00 -120.01977761  58.33201337
4928.00 -120.10215501  58.39448945
4930.00 -120.18454157  58.45700134
4932.00 -120.26693727  58.51954902
4934.00 -120.34934210  58.58213250
4936.00 -120.43175602  58.64475177
4938.00 -120.51417904  58.70740683
4940.00 -120.59661111  58.77009768
4942.00 -120.67905224  58.83282430
4944.00 -120.76150239  58.89558671
4946.00 -120.84396155  58.95838488
4948.00 -120.92642971  59.02121883
4950.00 -121.00890683  59.08408854
4952.00 -121.09139291  59.14699402
4954.00 -121.17388792  59.20993525
4956.00 -121.25639185  59.27291224
4958.00 -121.33890467  59.33592498
4960.00 -121.42142638  59.39897347
4962.00 -121.50395694  59.46205770
4964.00 -121.58649634  59.52517767
4966.00 -121.66904457  59.58833338
4968.00 -121.75160160  59.65152482
4970.00 -121.83416741  59.71475198
4972.00 -121.91674199  59.77801488
4974.00 -121.99932532  59.84131349
4976.00 -122.08191738  59.90464782
4978.00 -122.16451814  59.96801786
4980.00 -122.24712760  60.03142362
4982.00 -122.32974573  60.09486507
4984.00 -122.41237252  60.15834223
4986.00 -122.49500794  60.22185509
4988.00 -122.57765197  60.28540364
4990.00 -122.66030461  60.34898788
4992.00 -122.74296583  60.41260780
4994.00 -122.82563560  60.47626341
4996.00 -122.90831393  60.53995470
4998.00 -122.99100077  60.60368165
5000.00 -123.07369612  60.66744428
