wavelength(nm)         real         imag
100.00   3.83054076   0.00066375
102.00   3.82773488   0.00070437
104.00   3.82487345   0.00074662
106.00   3.82195648   0.00079052
108.00   3.81898398   0.00083612
110.00   3.81595594   0.00088343
112.00   3.81287236   0.00093249
114.00   3.80973325   0.00098334
116.00   3.80653860   0.00103601
118.00   3.80328843   0.00109052
120.00   3.79998272   0.00114691
122.00   3.79662148   0.00120521
124.00   3.79320472   0.00126545
126.00   3.78973243   0.00132767
128.00   3.78620462   0.00139190
130.00   3.78262129   0.00145816
132.00   3.77898243   0.00152649
134.00   3.77528806   0.00159693
136.00   3.77153816   0.00166949
138.00   3.76773275   0.00174423
140.00   3.76387183   0.00182116
142.00   3.75995539   0.00190032
144.00   3.75598345   0.00198174
146.00   3.75195599   0.00206545
148.00   3.74787302   0.00215149
150.00   3.74373455   0.00223989
152.00   3.73954058   0.00233067
154.00   3.73529110   0.00242387
156.00   3.73098613   0.00251953
158.00   3.72662565   0.00261766
160.00   3.72220968   0.00271832
162.00   3.71773821   0.00282152
164.00   3.71321126   0.00292729
166.00   3.70862881   0.00303568
168.00   3.70399087   0.00314672
170.00   3.69929744   0.00326042
172.00   3.69454853   0.00337683
174.00   3.68974414   0.00349598
176.00   3.68488427   0.00361790
178.00   3.67996892   0.00374262
180.00   3.67499810   0.00387018
182.00   3.66997180   0.00400059
184.00   3.66489002   0.00413391
186.00   3.65975278   0.00427015
188.00   3.65456007   0.00440935
190.00   3.64931190   0.00455155
192.00   3.64400826   0.00469677
194.00   3.63864917   0.00484504
196.00   3.63323461   0.00499640
198.00   3.62776460   0.00515088
200.00   3.62223914   0.00530851
202.00   3.61665823   0.00546933
204.00   3.61102187   0.00563335
206.00   3.60533006   0.00580063
208.00   3.59958281   0.00597118
210.00   3.59378011   0.00614504
212.00   3.58792198   0.00632224
214.00   3.58200842   0.00650281
216.00   3.57603942   0.00668679
218.00   3.57001499   0.00687421
220.00   3.56393513   0.00706509
222.00   3.55779985   0.00725947
224.00   3.55160914   0.00745739
226.00   3.54536301   0.00765886
228.00   3.53906147   0.00786394
230.00   3.53270451   0.00807264
232.00   3.52629215   0.00828499
234.00   3.51982437   0.00850104
236.00   3.51330119   0.00872081
238.00   3.50672260   0.00894433
240.00   3.50008861   0.00917164
242.00   3.49339923   0.00940276
244.00   3.48665445   0.00963774
246.00   3.47985428   0.00987659
248.00   3.47299872   0.01011935
250.00   3.46608778   0.01036606
252.00   3.45912145   0.01061675
254.00   3.45209975   0.01087144
256.00   3.44502266   0.01113017
258.00   3.43789021   0.01139297
260.00   3.43070238   0.01165987
262.00   3.42345919   0.01193090
264.00   3.41616063   0.01220610
266.00   3.40880672   0.01248550
268.00   3.40139744   0.01276913
270.00   3.39393282   0.01305701
272.00   3.38641284   0.01334919
274.00   3.37883751   0.01364569
276.00   3.37120684   0.01394655
278.00   3.36352083   0.01425180
280.00   3.35577948   0.01456146
282.00   3.34798280   0.01487557
284.00   3.34013078   0.01519417
286.00   3.33222344   0.01551727
288.00   3.32426077   0.01584493
290.00   3.31624279   0.01617716
292.00   3.30816949   0.01651399
294.00   3.30004087   0.01685547
296.00   3.29185694   0.01720162
298.00   3.28361771   0.01755247
300.00   3.27532318   0.01790806
302.00   3.26697334   0.01826842
304.00   3.25856821   0.01863357
306.00   3.25010779   0.01900355
308.00   3.24159208   0.01937839
310.00   3.23302109   0.01975812
312.00   3.22439482   0.02014278
314.00   3.21571327   0.02053240
316.00   3.20697645   0.02092700
318.00   3.19818435   0.02132662
320.00   3.18933700   0.02173130
322.00   3.18043438   0.02214105
324.00   3.17147650   0.02255592
326.00   3.16246337   0.02297593
328.00   3.15339499   0.02340112
330.00   3.14427137   0.02383152
332.00   3.13509250   0.02426716
334.00   3.12585839   0.02470807
336.00   3.11656905   0.02515428
338.00   3.10722449   0.02560583
340.00   3.09782469   0.02606274
342.00   3.08836968   0.02652506
344.00   3.07885945   0.02699280
346.00   3.06929400   0.02746600
348.00   3.05967335   0.02794469
350.00   3.04999749   0.02842891
352.00   3.04026643   0.02891868
354.00   3.03048017   0.02941404
356.00   3.02063872   0.02991502
358.00   3.01074209   0.03042165
360.00   3.00079027   0.03093395
362.00   2.99078327   0.03145197
364.00   2.98072110   0.03197574
366.00   2.97060376   0.03250528
368.00   2.96043125   0.03304063
370.00   2.95020358   0.03358182
372.00   2.93992075   0.03412887
374.00   2.92958277   0.03468183
376.00   2.91918964   0.03524072
378.00   2.90874137   0.03580558
380.00   2.89823796   0.03637643
382.00   2.88767942   0.03695331
384.00   2.87706575   0.03753625
386.00   2.86639695   0.03812528
388.00   2.85567303   0.03872043
390.00   2.84489400   0.03932173
392.00   2.83405985   0.03992922
394.00   2.82317060   0.04054292
396.00   2.81222624   0.04116287
398.00   2.80122680   0.04178910
400.00   2.79017225   0.04242164
402.00   2.77906262   0.04306053
404.00   2.76789791   0.04370578
406.00   2.75667813   0.04435744
408.00   2.74540326   0.04501554
410.00   2.73407334   0.04568010
412.00   2.72268835   0.04635116
414.00   2.71124830   0.04702875
416.00   2.69975320   0.04771290
418.00   2.68820305   0.04840365
420.00   2.67659786   0.04910101
422.00   2.66493763   0.04980504
424.00   2.65322237   0.05051575
426.00   2.64145208   0.05123318
428.00   2.62962677   0.05195736
430.00   2.61774644   0.05268831
432.00   2.60581110   0.05342609
434.00   2.59382075   0.05417070
436.00   2.58177540   0.05492219
438.00   2.56967506   0.05568058
440.00   2.55751973   0.05644592
442.00   2.54530940   0.05721822
444.00   2.53304410   0.05799752
446.00   2.52072383   0.05878385
448.00   2.50834858   0.05957724
450.00   2.49591837   0.06037773
452.00   2.48343321   0.06118535
454.00   2.47089308   0.06200012
456.00   2.45829802   0.06282207
458.00   2.44564800   0.06365125
460.00   2.43294306   0.06448768
462.00   2.42018318   0.06533139
464.00   2.40736837   0.06618241
466.00   2.39449864   0.06704077
468.00   2.38157400   0.06790651
470.00   2.36859446   0.06877966
472.00   2.35556000   0.06966024
474.00   2.34247065   0.07054829
476.00   2.32932641   0.07144385
478.00   2.31612728   0.07234693
480.00   2.30287328   0.07325758
482.00   2.28956439   0.07417582
484.00   2.27620064   0.07510168
486.00   2.26278203   0.07603520
488.00   2.24930856   0.07697641
490.00   2.23578023   0.07792534
492.00   2.22219706   0.07888201
494.00   2.20855906   0.07984647
496.00   2.19486621   0.08081874
498.00   2.18111855   0.08179885
500.00   2.16731605   0.08278684
502.00   2.15345875   0.08378273
504.00   2.13954663   0.08478656
506.00   2.12557971   0.08579835
508.00   2.11155800   0.08681815
510.00   2.09748149   0.08784597
512.00   2.08335019   0.08888186
514.00   2.06916412   0.08992583
516.00   2.05492328   0.09097793
518.00   2.04062767   0.09203819
520.00   2.02627729   0.09310663
522.00   2.01187217   0.09418328
524.00   1.99741229   0.09526819
526.00   1.98289768   0.09636137
528.00   1.96832832   0.09746286
530.00   1.95370424   0.09857270
532.00   1.93902544   0.09969090
534.00   1.92429192   0.10081751
536.00   1.90950369   0.10195255
538.00   1.89466076   0.10309606
540.00   1.87976313   0.10424806
542.00   1.86481081   0.10540859
544.00   1.84980381   0.10657768
546.00   1.83474212   0.10775536
548.00   1.81962577   0.10894165
550.00   1.80445475   0.11013660
552.00   1.78922908   0.11134023
554.00   1.77394875   0.11255257
556.00   1.75861378   0.11377366
558.00   1.74322418   0.11500352
560.00   1.72777994   0.11624219
562.00   1.71228107   0.11748969
564.00   1.69672759   0.11874607
566.00   1.68111950   0.12001134
568.00   1.66545680   0.12128554
570.00   1.64973951   0.12256870
572.00   1.63396763   0.12386085
574.00   1.61814116   0.12516203
576.00   1.60226011   0.12647226
578.00   1.58632450   0.12779157
580.00   1.57033432   0.12912000
582.00   1.55428959   0.13045758
584.00   1.53819030   0.13180433
586.00   1.52203648   0.13316029
588.00   1.50582812   0.13452549
590.00   1.48956523   0.13589996
592.00   1.47324782   0.13728373
594.00   1.45687590   0.13867683
596.00   1.44044947   0.14007929
598.00   1.42396854   0.14149115
600.00   1.40743312   0.14291243
602.00   1.39084322   0.14434317
604.00   1.37419883   0.14578339
606.00   1.35749998   0.14723312
608.00   1.34074666   0.14869241
610.00   1.32393888   0.15016127
612.00   1.30707666   0.15163974
614.00   1.29015999   0.15312785
616.00   1.27318889   0.15462563
618.00   1.25616336   0.15613312
620.00   1.23908341   0.15765033
622.00   1.22194905   0.15917731
624.00   1.20476029   0.16071408
626.00   1.18751713   0.16226067
628.00   1.17021957   0.16381712
630.00   1.15286764   0.16538346
632.00   1.13546133   0.16695971
634.00   1.11800065   0.16854591
636.00   1.10048562   0.17014209
638.00   1.08291623   0.17174827
640.00   1.06529250   0.17336450
642.00   1.04761443   0.17499079
644.00   1.02988203   0.17662719
646.00   1.01209531   0.17827371
648.00   0.99425427   0.17993040
650.00   0.97635893   0.18159728
652.00   0.95840929   0.18327439
654.00   0.94040536   0.18496174
656.00   0.92234715   0.18665939
658.00   0.90423467   0.18836735
660.00   0.88606791   0.19008565
662.00   0.86784690   0.19181433
664.00   0.84957163   0.19355342
666.00   0.83124212   0.19530294
668.00   0.81285838   0.19706294
670.00   0.79442041   0.19883343
672.00   0.77592822   0.20061445
674.00   0.75738181   0.20240603
676.00   0.73878121   0.20420820
678.00   0.72012641   0.20602100
680.00   0.70141742   0.20784444
682.00   0.68265425   0.20967857
684.00   0.66383691   0.21152341
686.00   0.64496541   0.21337899
688.00   0.62603975   0.21524535
690.00   0.60705995   0.21712251
692.00   0.58802600   0.21901051
694.00   0.56893793   0.22090937
696.00   0.54979574   0.22281912
698.00   0.53059943   0.22473981
700.00   0.51134901   0.22667145
702.00   0.49204450   0.22861407
704.00   0.47268590   0.23056772
706.00   0.45327322   0.23253241
708.00   0.43380647   0.23450818
710.00   0.41428566   0.23649506
712.00   0.39471078   0.23849308
714.00   0.37508187   0.24050227
716.00   0.35539891   0.24252266
718.00   0.33566193   0.24455428
720.00   0.31587092   0.24659716
722.00   0.29602590   0.24865133
724.00   0.27612688   0.25071683
726.00   0.25617386   0.25279367
728.00   0.23616686   0.25488190
730.00   0.21610587   0.25698154
732.00   0.19599092   0.25909263
734.00   0.17582201   0.26121519
736.00   0.15559914   0.26334925
738.00   0.13532233   0.26549485
740.00   0.11499159   0.26765201
742.00   0.09460692   0.26982076
744.00   0.07416833   0.27200114
746.00   0.05367584   0.27419318
748.00   0.03312945   0.27639690
750.00   0.01252916   0.27861234
752.00  -0.00812500   0.28083952
754.00  -0.02883304   0.28307848
756.00  -0.04959494   0.28532925
758.00  -0.07041070   0.28759185
760.00  -0.09128030   0.28986632
762.00  -0.11220374   0.29215269
764.00  -0.13318101   0.29445098
766.00  -0.15421209   0.29676123
768.00  -0.17529699   0.29908347
770.00  -0.19643568   0.30141773
772.00  -0.21762817   0.30376404
774.00  -0.23887444   0.30612243
776.00  -0.26017448   0.30849292
778.00  -0.28152829   0.31087555
780.00  -0.30293585   0.31327035
782.00  -0.32439716   0.31567735
784.00  -0.34591220   0.31809658
786.00  -0.36748097   0.32052807
788.00  -0.38910346   0.32297185
790.00  -0.41077965   0.32542795
792.00  -0.43250955   0.32789640
794.00  -0.45429313   0.33037722
796.00  -0.47613040   0.33287046
798.00  -0.49802133   0.33537614
800.00  -0.51996593   0.33789428
802.00  -0.54196418   0.34042493
804.00  -0.56401607   0.34296810
806.00  -0.58612160   0.34552384
808.00  -0.60828074   0.34809216
810.00  -0.63049351   0.35067311
812.00  -0.65275987   0.35326671
814.00  -0.67507983   0.35587298
816.00  -0.69745338   0.35849197
818.00  -0.71988050   0.36112369
820.00  -0.74236119   0.36376818
822.00  -0.76489543   0.36642548
824.00  -0.78748322   0.36909560
826.00  -0.81012455   0.37177859
828.00  -0.83281941   0.37447446
830.00  -0.85556778   0.37718325
832.00  -0.87836966   0.37990500
834.00  -0.90122503   0.38263972
836.00  -0.92413390   0.38538745
838.00  -0.94709624   0.38814822
840.00  -0.97011205   0.39092206
842.00  -0.99318132   0.39370899
844.00  -1.01630404   0.39650906
846.00  -1.03948020   0.39932228
848.00  -1.06270978   0.40214870
850.00  -1.08599278   0.40498833
852.00  -1.10932919   0.40784121
854.00  -1.13271900   0.41070736
856.00  -1.15616220   0.41358683
858.00  -1.17965878   0.41647963
860.00  -1.20320872   0.41938580
862.00  -1.22681203   0.42230536
864.00  -1.25046868   0.42523835
866.00  -1.27417867   0.42818480
868.00  -1.29794198   0.43114473
870.00  -1.32175862   0.43411818
872.00  -1.34562856   0.43710518
874.00  -1.36955179   0.44010575
876.00  -1.39352832   0.44311993
878.00  -1.41755812   0.44614774
880.00  -1.44164119   0.44918921
882.00  -1.46577751   0.45224438
884.00  -1.48996708   0.45531327
886.00  -1.51420988   0.45839592
888.00  -1.53850591   0.46149235
890.00  -1.56285515   0.46460259
892.00  -1.58725759   0.46772667
894.00  -1.61171323   0.47086463
896.00  -1.63622205   0.47401648
898.00  -1.66078405   0.47718227
900.00  -1.68539920   0.48036202
902.00  -1.71006751   0.48355576
904.00  -1.73478896   0.48676352
906.00  -1.75956353   0.48998532
908.00  -1.78439123   0.49322121
910.00  -1.80927204   0.49647120
912.00  -1.83420594   0.49973533
914.00  -1.85919293   0.50301363
916.00  -1.88423300   0.50630613
918.00  -1.90932613   0.50961285
920.00  -1.93447232   0.51293383
922.00  -1.95967155   0.51626910
924.00  -1.98492382   0.51961867
926.00  -2.01022911   0.52298260
928.00  -2.03558741   0.52636089
930.00  -2.06099871   0.52975359
932.00  -2.08646301   0.53316072
934.00  -2.11198028   0.53658232
936.00  -2.13755052   0.54001840
938.00  -2.16317372   0.54346901
940.00  -2.18884986   0.54693416
942.00  -2.21457894   0.55041390
944.00  -2.24036095   0.55390824
946.00  -2.26619587   0.55741723
948.00  -2.29208369   0.56094088
950.00  -2.31802440   0.56447922
952.00  -2.34401800   0.56803230
954.00  -2.37006446   0.57160012
956.00  -2.39616378   0.57518274
958.00  -2.42231594   0.57878016
960.00  -2.44852095   0.58239243
962.00  -2.47477877   0.58601958
964.00  -2.50108941   0.58966162
966.00  -2.52745286   0.59331860
968.00  -2.55386909   0.59699053
970.00  -2.58033810   0.60067746
972.00  -2.60685988   0.60437940
974.00  -2.63343442   0.60809639
976.00  -2.66006171   0.61182846
978.00  -2.68674172   0.61557564
980.00  -2.71347446   0.61933795
982.00  -2.74025992   0.62311542
984.00  -2.76709807   0.62690809
986.00  -2.79398891   0.63071598
988.00  -2.82093242   0.63453913
990.00  -2.84792861   0.63837755
992.00  -2.87497744   0.64223129
994.00  -2.90207892   0.64610036
996.00  -2.92923303   0.64998481
998.00  -2.95643976   0.65388465
1000.00  -2.98369910   0.65779991
1002.00  -3.01101103   0.66173064
1004.00  -3.03837555   0.66567684
1006.00  -3.06579264   0.66963856
1008.00  -3.09326229   0.67361583
1010.00  -3.12078449   0.67760866
1012.00  -3.14835923   0.68161710
1014.00  -3.17598649   0.68564116
1016.00  -3.20366627   0.68968089
1018.00  -3.23139855   0.69373630
1020.00  -3.25918332   0.69780743
1022.00  -3.28702057   0.70189430
1024.00  -3.31491028   0.70599695
1026.00  -3.34285245   0.71011540
1028.00  -3.37084707   0.71424969
1030.00  -3.39889411   0.71839983
1032.00  -3.42699357   0.72256587
1034.00  -3.45514544   0.72674782
1036.00  -3.48334971   0.73094572
1038.00  -3.51160636   0.73515960
1040.00  -3.53991538   0.73938948
1042.00  -3.56827676   0.74363540
1044.00  -3.59669049   0.74789738
1046.00  -3.62515655   0.75217545
1048.00  -3.65367493   0.75646965
1050.00  -3.68224563   0.76077999
1052.00  -3.71086862   0.76510651
1054.00  -3.73954390   0.76944924
1056.00  -3.76827145   0.77380820
1058.00  -3.79705127   0.77818343
1060.00  -3.82588333   0.78257495
1062.00  -3.85476764   0.78698280
1064.00  -3.88370416   0.79140699
1066.00  -3.91269290   0.79584757
1068.00  -3.94173385   0.80030455
1070.00  -3.97082698   0.80477797
1072.00  -3.99997228   0.80926785
1074.00  -4.02916975   0.81377423
1076.00  -4.05841937   0.81829713
1078.00  -4.08772113   0.82283658
1080.00  -4.11707501   0.82739261
1082.00  -4.14648101   0.83196525
1084.00  -4.17593911   0.83655452
1086.00  -4.20544930   0.84116047
1088.00  -4.23501157   0.84578310
1090.00  -4.26462589   0.85042246
1092.00  -4.29429227   0.85507857
1094.00  -4.32401069   0.85975146
1096.00  -4.35378114   0.86444116
1098.00  -4.38360359   0.86914769
1100.00  -4.41347805   0.87387109
1102.00  -4.44340450   0.87861139
1104.00  -4.47338292   0.88336860
1106.00  -4.50341331   0.88814277
1108.00  -4.53349564   0.89293392
1110.00  -4.56362991   0.89774207
1112.00  -4.59381611   0.90256726
1114.00  -4.62405421   0.90740951
1116.00  -4.65434422   0.91226886
1118.00  -4.68468611   0.91714533
1120.00  -4.71507988   0.92203894
1122.00  -4.74552550   0.92694974
1124.00  -4.77602297   0.93187774
1126.00  -4.80657228   0.93682298
1128.00  -4.83717341   0.94178548
1130.00  -4.86782634   0.94676527
1132.00  -4.89853108   0.95176238
1134.00  -4.92928759   0.95677683
1136.00  -4.96009587   0.96180867
1138.00  -4.99095591   0.96685791
1140.00  -5.02186770   0.97192458
1142.00  -5.05283121   0.97700871
1144.00  -5.08384644   0.98211033
1146.00  -5.11491338   0.98722947
1148.00  -5.14603201   0.99236615
1150.00  -5.17720231   0.99752041
1152.00  -5.20842428   1.00269227
1154.00  -5.23969790   1.00788176
1156.00  -5.27102316   1.01308890
1158.00  -5.30240004   1.01831374
1160.00  -5.33382854   1.02355628
1162.00  -5.36530863   1.02881657
1164.00  -5.39684031   1.03409464
1166.00  -5.42842356   1.03939050
1168.00  -5.46005837   1.04470418
1170.00  -5.49174472   1.05003572
1172.00  -5.52348261   1.05538515
1174.00  -5.55527201   1.06075249
1176.00  -5.58711292   1.06613776
1178.00  -5.61900532   1.07154100
1180.00  -5.65094920   1.07696224
1182.00  -5.68294454   1.08240150
1184.00  -5.71499134   1.08785881
1186.00  -5.74708957   1.09333420
1188.00  -5.77923923   1.09882770
1190.00  -5.81144029   1.10433933
1192.00  -5.84369276   1.10986913
1194.00  -5.87599660   1.11541711
1196.00  -5.90835182   1.12098332
1198.00  -5.94075839   1.12656777
1200.00  -5.97321631   1.13217049
1202.00  -6.00572555   1.13779152
1204.00  -6.03828611   1.14343088
1206.00  -6.07089797   1.14908859
1208.00  -6.10356111   1.15476470
1210.00  -6.13627553   1.16045921
1212.00  -6.16904121   1.16617217
1214.00  -6.20185814   1.17190359
1216.00  -6.23472630   1.17765352
1218.00  -6.26764568   1.18342196
1220.00  -6.30061626   1.18920896
1222.00  -6.33363803   1.19501455
1224.00  -6.36671098   1.20083873
1226.00  -6.39983509   1.20668156
1228.00  -6.43301036   1.21254305
1230.00  -6.46623675   1.21842322
1232.00  -6.49951427   1.22432212
1234.00  -6.53284290   1.23023977
1236.00  -6.56622261   1.23617618
1238.00  -6.59965341   1.24213140
1240.00  -6.63313527   1.24810545
1242.00  -6.66666819   1.25409836
1244.00  -6.70025214   1.26011015
1246.00  -6.73388711   1.26614085
1248.00  -6.76757309   1.27219049
1250.00  -6.80131007   1.27825910
1252.00  -6.83509802   1.28434671
1254.00  -6.86893695   1.29045334
1256.00  -6.90282682   1.29657901
1258.00  -6.93676763   1.30272377
1260.00  -6.97075937   1.30888762
1262.00  -7.00480201   1.31507062
1264.00  -7.03889555   1.32127277
1266.00  -7.07303997   1.32749410
1268.00  -7.10723526   1.33373466
1270.00  -7.14148140   1.33999445
1272.00  -7.17577837   1.34627351
1274.00  -7.21012617   1.35257188
1276.00  -7.24452478   1.35888956
1278.00  -7.27897418   1.36522660
1280.00  -7.31347436   1.37158301
1282.00  -7.34802531   1.37795884
1284.00  -7.38262700   1.38435409
1286.00  -7.41727944   1.39076881
1288.00  -7.45198259   1.39720301
1290.00  -7.48673646   1.40365673
1292.00  -7.52154101   1.41013000
1294.00  -7.55639625   1.41662283
1296.00  -7.59130215   1.42313526
1298.00  -7.62625869   1.42966732
1300.00  -7.66126588   1.43621902
1302.00  -7.69632368   1.44279041
1304.00  -7.73143208   1.44938150
1306.00  -7.76659108   1.45599233
1308.00  -7.80180065   1.46262291
1310.00  -7.83706079   1.46927329
1312.00  -7.87237147   1.47594348
1314.00  -7.90773268   1.48263351
1316.00  -7.94314440   1.48934341
1318.00  -7.97860663   1.49607321
1320.00  -8.01411935   1.50282292
1322.00  -8.04968254   1.50959259
1324.00  -8.08529619   1.51638224
1326.00  -8.12096027   1.52319189
1328.00  -8.15667479   1.53002158
1330.00  -8.19243972   1.53687132
1332.00  -8.22825504   1.54374115
1334.00  -8.26412075   1.55063109
1336.00  -8.30003683   1.55754117
1338.00  -8.33600326   1.56447141
1340.00  -8.37202003   1.57142185
1342.00  -8.40808712   1.57839251
1344.00  -8.44420451   1.58538342
1346.00  -8.48037220   1.59239460
1348.00  -8.51659017   1.59942608
1350.00  -8.55285840   1.60647789
1352.00  -8.58917688   1.61355005
1354.00  -8.62554559   1.62064260
1356.00  -8.66196451   1.62775555
1358.00  -8.69843364   1.63488894
1360.00  -8.73495296   1.64204279
1362.00  -8.77152244   1.64921714
1364.00  -8.80814208   1.65641199
1366.00  -8.84481187   1.66362739
1368.00  -8.88153177   1.67086336
1370.00  -8.91830179   1.67811992
1372.00  -8.95512191   1.68539711
1374.00  -8.99199210   1.69269495
1376.00  -9.02891236   1.70001346
1378.00  -9.06588266   1.70735267
1380.00  -9.10290300   1.71471262
1382.00  -9.13997336   1.72209332
1384.00  -9.17709372   1.72949480
1386.00  -9.21426407   1.73691709
1388.00  -9.25148439   1.74436022
1390.00  -9.28875467   1.75182421
1392.00  -9.32607488   1.75930909
1394.00  -9.36344503   1.76681488
1396.00  -9.40086508   1.77434162
1398.00  -9.43833503   1.78188933
1400.00  -9.47585485   1.78945803
1402.00  -9.51342454   1.79704775
1404.00  -9.55104407   1.80465852
1406.00  -9.58871344   1.81229037
1408.00  -9.62643262   1.81994332
1410.00  -9.66420161   1.82761739
1412.00  -9.70202038   1.83531262
1414.00  -9.73988892   1.84302903
1416.00  -9.77780721   1.85076665
1418.00  -9.81577524   1.85852550
1420.00  -9.85379299   1.86630561
1422.00  -9.89186044   1.87410701
1424.00  -9.92997759   1.88192971
1426.00  -9.96814441   1.88977376
1428.00 -10.00636089   1.89763917
1430.00 -10.04462702   1.90552598
1432.00 -10.08294277   1.91343420
1434.00 -10.12130813   1.92136386
1436.00 -10.15972309   1.92931500
1438.00 -10.19818763   1.93728763
1440.00 -10.23670172   1.94528179
1442.00 -10.27526537   1.95329749
1444.00 -10.31387855   1.96133477
1446.00 -10.35254125   1.96939365
1448.00 -10.39125344   1.97747416
1450.00 -10.43001512   1.98557632
1452.00 -10.46882626   1.99370016
1454.00 -10.50768686   2.00184571
1456.00 -10.54659689   2.01001299
1458.00 -10.58555634   2.01820202
1460.00 -10.62456519   2.02641285
1462.00 -10.66362343   2.03464548
1464.00 -10.70273104   2.04289995
1466.00 -10.74188801   2.05117628
1468.00 -10.78109431   2.05947450
1470.00 -10.82034994   2.06779463
1472.00 -10.85965487   2.07613670
1474.00 -10.89900910   2.08450074
1476.00 -10.93841259   2.09288678
1478.00 -10.97786534   2.10129483
1480.00 -11.01736734   2.10972492
1482.00 -11.05691856   2.11817709
1484.00 -11.09651898   2.12665135
1486.00 -11.13616860   2.13514774
1488.00 -11.17586740   2.14366627
1490.00 -11.21561535   2.15220697
1492.00 -11.25541245   2.16076988
1494.00 -11.29525867   2.16935501
1496.00 -11.33515400   2.17796239
1498.00 -11.37509843   2.18659205
1500.00 -11.41509193   2.19524401
1502.00 -11.45513450   2.20391830
1504.00 -11.49522610   2.21261495
1506.00 -11.53536674   2.22133397
1508.00 -11.57555639   2.23007540
1510.00 -11.61579503   2.23883926
1512.00 -11.65608264   2.24762558
1514.00 -11.69641922   2.25643439
1516.00 -11.73680475   2.26526570
1518.00 -11.77723920   2.27411954
1520.00 -11.81772257   2.28299595
1522.00 -11.85825482   2.29189494
1524.00 -11.89883596   2.30081654
1526.00 -11.93946596   2.30976078
1528.00 -11.98014480   2.31872768
1530.00 -12.02087247   2.32771727
1532.00 -12.06164895   2.33672957
1534.00 -12.10247423   2.34576461
1536.00 -12.14334828   2.35482242
1538.00 -12.18427110   2.36390301
1540.00 -12.22524266   2.37300642
1542.00 -12.26626294   2.38213267
1544.00 -12.30733194   2.39128179
1546.00 -12.34844963   2.40045380
1548.00 -12.38961599   2.40964873
1550.00 -12.43083102   2.41886660
1552.00 -12.47209469   2.42810743
1554.00 -12.51340698   2.43737126
1556.00 -12.55476789   2.44665811
1558.00 -12.59617738   2.45596801
1560.00 -12.63763545   2.46530097
1562.00 -12.67914208   2.47465703
1564.00 -12.72069725   2.48403620
1566.00 -12.76230094   2.49343853
1568.00 -12.80395314   2.50286402
1570.00 -12.84565383   2.51231271
1572.00 -12.88740299   2.52178462
1574.00 -12.92920061   2.53127978
1576.00 -12.97104666   2.54079820
1578.00 -13.01294114   2.55033993
1580.00 -13.05488402   2.55990497
1582.00 -13.09687529   2.56949337
1584.00 -13.13891492   2.57910513
1586.00 -13.18100291   2.58874029
1588.00 -13.22313924   2.59839888
1590.00 -13.26532388   2.60808091
1592.00 -13.30755682   2.61778641
1594.00 -13.34983805   2.62751542
1596.00 -13.39216754   2.63726794
1598.00 -13.43454529   2.64704401
1600.00 -13.47697126   2.65684366
1602.00 -13.51944545   2.66666690
1604.00 -13.56196783   2.67651377
1606.00 -13.60453840   2.68638428
1608.00 -13.64715712   2.69627847
1610.00 -13.68982400   2.70619635
1612.00 -13.73253899   2.71613795
1614.00 -13.77530210   2.72610331
1616.00 -13.81811330   2.73609243
1618.00 -13.86097258   2.74610535
1620.00 -13.90387991   2.75614210
1622.00 -13.94683528   2.76620269
1624.00 -13.98983868   2.77628715
1626.00 -14.03289008   2.78639551
1628.00 -14.07598947   2.79652779
1630.00 -14.11913682   2.80668402
1632.00 -14.16233213   2.81686421
1634.00 -14.20557538   2.82706840
1636.00 -14.24886654   2.83729662
1638.00 -14.29220560   2.84754887
1640.00 -14.33559254   2.85782520
1642.00 -14.37902734   2.86812562
1644.00 -14.42250999   2.87845016
1646.00 -14.46604047   2.88879884
1648.00 -14.50961876   2.89917170
1650.00 -14.55324485   2.90956874
1652.00 -14.59691870   2.91999000
1654.00 -14.64064032   2.93043551
1656.00 -14.68440968   2.94090528
1658.00 -14.72822676   2.95139934
1660.00 -14.77209154   2.96191772
1662.00 -14.81600401   2.97246044
1664.00 -14.85996414   2.98302752
1666.00 -14.90397193   2.99361899
1668.00 -14.94802735   3.00423488
1670.00 -14.99213038   3.01487520
1672.00 -15.03628102   3.02553998
1674.00 -15.08047923   3.03622926
1676.00 -15.12472500   3.04694304
1678.00 -15.16901831   3.05768136
1680.00 -15.21335915   3.06844424
1682.00 -15.25774750   3.07923171
1684.00 -15.30218333   3.09004378
1686.00 -15.34666664   3.10088049
1688.00 -15.39119740   3.11174185
1690.00 -15.43577559   3.12262790
1692.00 -15.48040120   3.13353865
1694.00 -15.52507421   3.14447413
1696.00 -15.56979460   3.15543437
1698.00 -15.61456236   3.16641939
1700.00 -15.65937745   3.17742920
1702.00 -15.70423988   3.18846385
1704.00 -15.74914961   3.19952335
1706.00 -15.79410663   3.21060772
1708.00 -15.83911092   3.22171699
1710.00 -15.88416247   3.23285119
1712.00 -15.92926125   3.24401033
1714.00 -15.97440725   3.25519445
1716.00 -16.01960045   3.26640356
1718.00 -16.06484082   3.27763769
1720.00 -16.11012836   3.28889687
1722.00 -16.15546305   3.30018111
1724.00 -16.20084485   3.31149045
1726.00 -16.24627377   3.32282490
1728.00 -16.29174978   3.33418450
1730.00 -16.33727285   3.34556925
1732.00 -16.38284298   3.35697920
1734.00 -16.42846014   3.36841435
1736.00 -16.47412431   3.37987475
1738.00 -16.51983548   3.39136040
1740.00 -16.56559363   3.40287134
1742.00 -16.61139874   3.41440758
1744.00 -16.65725080   3.42596916
1746.00 -16.70314977   3.43755609
1748.00 -16.74909565   3.44916840
1750.00 -16.79508841   3.46080611
1752.00 -16.84112804   3.47246925
1754.00 -16.88721452   3.48415784
1756.00 -16.93334784   3.49587190
1758.00 -16.97952796   3.50761146
1760.00 -17.02575487   3.51937654
1762.00 -17.07202856   3.53116717
1764.00 -17.11834900   3.54298337
1766.00 -17.16471619   3.55482516
1768.00 -17.21113009   3.56669256
1770.00 -17.25759068   3.57858561
1772.00 -17.30409796   3.59050432
1774.00 -17.35065191   3.60244871
1776.00 -17.39725249   3.61441882
1778.00 -17.44389970   3.62641466
1780.00 -17.49059352   3.63843626
1782.00 -17.53733392   3.65048364
1784.00 -17.58412089   3.66255682
1786.00 -17.63095442   3.67465584
1788.00 -17.67783447   3.68678070
1790.00 -17.72476103   3.69893144
1792.00 -17.77173409   3.71110808
1794.00 -17.81875362   3.72331064
1796.00 -17.86581961   3.73553914
1798.00 -17.91293203   3.74779362
1800.00 -17.96009087   3.76007408
1802.00 -18.00729611   3.77238057
1804.00 -18.05454773   3.78471309
1806.00 -18.10184571   3.79707167
1808.00 -18.14919003   3.80945634
1810.00 -18.19658068   3.82186712
1812.00 -18.24401763   3.83430403
1814.00 -18.29150086   3.84676709
1816.00 -18.33903036   3.85925633
1818.00 -18.38660610   3.87177178
1820.00 -18.43422808   3.88431345
1822.00 -18.48189626   3.89688137
1824.00 -18.52961063   3.90947556
1826.00 -18.57737117   3.92209604
1828.00 -18.62517786   3.93474284
1830.00 -18.67303069   3.94741599
1832.00 -18.72092962   3.96011549
1834.00 -18.76887466   3.97284138
1836.00 -18.81686576   3.98559369
1838.00 -18.86490292   3.99837242
1840.00 -18.91298612   4.01117762
1842.00 -18.96111534   4.02400929
1844.00 -19.00929055   4.03686746
1846.00 -19.05751174   4.04975216
1848.00 -19.10577889   4.06266340
1850.00 -19.15409198   4.07560122
1852.00 -19.20245099   4.08856563
1854.00 -19.25085590   4.10155666
1856.00 -19.29930670   4.11457433
1858.00 -19.34780336   4.12761866
1860.00 -19.39634586   4.14068967
1862.00 -19.44493418   4.15378740
1864.00 -19.49356831   4.16691185
1866.00 -19.54224822   4.18006306
1868.00 -19.59097391   4.19324104
1870.00 -19.63974533   4.20644583
1872.00 -19.68856249   4.21967744
1874.00 -19.73742535   4.23293589
1876.00 -19.78633390   4.24622121
1878.00 -19.83528811   4.25953342
1880.00 -19.88428798   4.27287254
1882.00 -19.93333348   4.28623860
1884.00 -19.98242459   4.29963161
1886.00 -20.03156128   4.31305161
1888.00 -20.08074355   4.32649861
1890.00 -20.12997137   4.33997264
1892.00 -20.17924472   4.35347371
1894.00 -20.22856359   4.36700186
1896.00 -20.27792794   4.38055710
1898.00 -20.32733777   4.39413946
1900.00 -20.37679306   4.40774895
1902.00 -20.42629377   4.42138561
1904.00 -20.47583990   4.43504945
1906.00 -20.52543143   4.44874050
1908.00 -20.57506833   4.46245878
1910.00 -20.62475058   4.47620430
1912.00 -20.67447817   4.48997710
1914.00 -20.72425108   4.50377720
1916.00 -20.77406928   4.51760462
1918.00 -20.82393276   4.53145937
1920.00 -20.87384149   4.54534149
1922.00 -20.92379546   4.55925099
1924.00 -20.97379465   4.57318790
1926.00 -21.02383904   4.58715225
1928.00 -21.07392860   4.60114404
1930.00 -21.12406332   4.61516331
1932.00 -21.17424317   4.62921007
1934.00 -21.22446815   4.64328435
1936.00 -21.27473822   4.65738618
1938.00 -21.32505337   4.67151557
1940.00 -21.37541357   4.68567254
1942.00 -21.42581882   4.69985712
1944.00 -21.47626908   4.71406933
1946.00 -21.52676434   4.72830919
1948.00 -21.57730458   4.74257672
1950.00 -21.62788977   4.75687195
1952.00 -21.67851991   4.77119490
1954.00 -21.72919496   4.78554559
1956.00 -21.77991491   4.79992404
1958.00 -21.83067974   4.81433027
1960.00 -21.88148943   4.82876431
1962.00 -21.93234395   4.84322618
1964.00 -21.98324329   4.85771590
1966.00 -22.03418743   4.87223349
1968.00 -22.08517635   4.88677897
1970.00 -22.13621003   4.90135237
1972.00 -22.18728844   4.91595371
1974.00 -22.23841157   4.93058300
1976.00 -22.28957940   4.94524028
1978.00 -22.34079190   4.95992556
1980.00 -22.39204906   4.97463886
1982.00 -22.44335086   4.98938021
1984.00 -22.49469727   5.00414963
1986.00 -22.54608828   5.01894714
1988.00 -22.59752387   5.03377276
1990.00 -22.64900401   5.04862651
1992.00 -22.70052868   5.06350842
1994.00 -22.75209788   5.07841850
1996.00 -22.80371156   5.09335678
1998.00 -22.85536972   5.10832329
2000.00 -22.90707234   5.12331803
2002.00 -22.95881939   5.13834104
2004.00 -23.01061085   5.15339233
2006.00 -23.06244671   5.16847193
2008.00 -23.11432694   5.18357986
2010.00 -23.16625152   5.19871614
2012.00 -23.21822043   5.21388078
2014.00 -23.27023366   5.22907382
2016.00 -23.32229117   5.24429528
2018.00 -23.37439296   5.25954517
2020.00 -23.42653900   5.27482351
2022.00 -23.47872927   5.29013034
2024.00 -23.53096374   5.30546566
2026.00 -23.58324241   5.32082951
2028.00 -23.63556524   5.33622190
2030.00 -23.68793223   5.35164285
2032.00 -23.74034334   5.36709238
2034.00 -23.79279855   5.38257053
2036.00 -23.84529786   5.39807730
2038.00 -23.89784123   5.41361271
2040.00 -23.95042864   5.42917680
2042.00 -24.00306008   5.44476959
2044.00 -24.05573552   5.46039108
2046.00 -24.10845495   5.47604131
2048.00 -24.16121834   5.49172029
2050.00 -24.21402567   5.50742805
2052.00 -24.26687693   5.52316460
2054.00 -24.31977208   5.53892998
2056.00 -24.37271112   5.55472419
2058.00 -24.42569401   5.57054727
2060.00 -24.47872074   5.58639922
2062.00 -24.53179129   5.60228008
2064.00 -24.58490564   5.61818986
2066.00 -24.63806377   5.63412859
2068.00 -24.69126565   5.65009629
2070.00 -24.74451127   5.66609297
2072.00 -24.79780060   5.68211866
2074.00 -24.85113362   5.69817337
2076.00 -24.90451032   5.71425714
2078.00 -24.95793067   5.73036998
2080.00 -25.01139465   5.74651191
2082.00 -25.06490224   5.76268295
2084.00 -25.11845343   5.77888312
2086.00 -25.17204818   5.79511245
2088.00 -25.22568647   5.81137095
2090.00 -25.27936830   5.82765865
2092.00 -25.33309363   5.84397557
2094.00 -25.38686244   5.86032172
2096.00 -25.44067472   5.87669713
2098.00 -25.49453045   5.89310182
2100.00 -25.54842959   5.90953581
2102.00 -25.60237214   5.92599912
2104.00 -25.65635807   5.94249177
2106.00 -25.71038736   5.95901378
2108.00 -25.76445998   5.97556517
2110.00 -25.81857593   5.99214596
2112.00 -25.87273517   6.00875618
2114.00 -25.92693768   6.02539584
2116.00 -25.98118345   6.04206497
2118.00 -26.03547245   6.05876358
2120.00 -26.08980467   6.07549170
2122.00 -26.14418007   6.09224934
2124.00 -26.19859865   6.10903653
2126.00 -26.25306038   6.12585329
2128.00 -26.30756523   6.14269963
2130.00 -26.36211319   6.15957558
2132.00 -26.41670424   6.17648116
2134.00 -26.47133835   6.19341639
2136.00 -26.52601550   6.21038128
2138.00 -26.58073568   6.22737587
2140.00 -26.63549885   6.24440017
2142.00 -26.69030501   6.26145419
2144.00 -26.74515412   6.27853797
2146.00 -26.80004618   6.29565151
2148.00 -26.85498115   6.31279485
2150.00 -26.90995901   6.32996800
2152.00 -26.96497975   6.34717098
2154.00 -27.02004334   6.36440381
2156.00 -27.07514976   6.38166651
2158.00 -27.13029899   6.39895910
2160.00 -27.18549101   6.41628161
2162.00 -27.24072580   6.43363404
2164.00 -27.29600333   6.45101643
2166.00 -27.35132359   6.46842880
2168.00 -27.40668655   6.48587115
2170.00 -27.46209219   6.50334352
2172.00 -27.51754049   6.52084592
2174.00 -27.57303143   6.53837837
2176.00 -27.62856499   6.55594089
2178.00 -27.68414115   6.57353351
2180.00 -27.73975988   6.59115624
2182.00 -27.79542117   6.60880910
2184.00 -27.85112498   6.62649211
2186.00 -27.90687131   6.64420530
2188.00 -27.96266013   6.66194868
2190.00 -28.01849141   6.67972227
2192.00 -28.07436514   6.69752609
2194.00 -28.13028130   6.71536016
2196.00 -28.18623986   6.73322450
2198.00 -28.24224080   6.75111914
2200.00 -28.29828410   6.76904409
2202.00 -28.35436974   6.78699936
2204.00 -28.41049769   6.80498499
2206.00 -28.46666795   6.82300099
2208.00 -28.52288047   6.84104738
2210.00 -28.57913525   6.85912417
2212.00 -28.63543226   6.87723140
2214.00 -28.69177148   6.89536908
2216.00 -28.74815288   6.91353722
2218.00 -28.80457646   6.93173585
2220.00 -28.86104217   6.94996499
2222.00 -28.91755001   6.96822466
2224.00 -28.97409995   6.98651487
2226.00 -29.03069197   7.00483565
2228.00 -29.08732605   7.02318702
2230.00 -29.14400216   7.04156899
2232.00 -29.20072029   7.05998159
2234.00 -29.25748041   7.07842483
2236.00 -29.31428250   7.09689873
2238.00 -29.37112654   7.11540332
2240.00 -29.42801251   7.13393861
2242.00 -29.48494038   7.15250462
2244.00 -29.54191014   7.17110137
2246.00 -29.59892176   7.18972889
2248.00 -29.65597522   7.20838718
2250.00 -29.71307049   7.22707627
2252.00 -29.77020757   7.24579618
2254.00 -29.82738642   7.26454693
2256.00 -29.88460702   7.28332854
2258.00 -29.94186935   7.30214102
2260.00 -29.99917340   7.32098440
2262.00 -30.05651913   7.33985869
2264.00 -30.11390652   7.35876392
2266.00 -30.17133556   7.37770010
2268.00 -30.22880623   7.39666725
2270.00 -30.28631849   7.41566539
2272.00 -30.34387233   7.43469454
2274.00 -30.40146772   7.45375472
2276.00 -30.45910465   7.47284595
2278.00 -30.51678310   7.49196825
2280.00 -30.57450303   7.51112164
2282.00 -30.63226443   7.53030613
2284.00 -30.69006728   7.54952174
2286.00 -30.74791155   7.56876850
2288.00 -30.80579722   7.58804642
2290.00 -30.86372428   7.60735552
2292.00 -30.92169269   7.62669582
2294.00 -30.97970244   7.64606734
2296.00 -31.03775350   7.66547010
2298.00 -31.09584586   7.68490411
2300.00 -31.15397948   7.70436941
2302.00 -31.21215436   7.72386599
2304.00 -31.27037045   7.74339389
2306.00 -31.32862776   7.76295312
2308.00 -31.38692624   7.78254370
2310.00 -31.44526589   7.80216565
2312.00 -31.50364667   7.82181899
2314.00 -31.56206857   7.84150373
2316.00 -31.62053156   7.86121991
2318.00 -31.67903562   7.88096752
2320.00 -31.73758073   7.90074660
2322.00 -31.79616687   7.92055716
2324.00 -31.85479402   7.94039922
2326.00 -31.91346214   7.96027280
2328.00 -31.97217123   7.98017791
2330.00 -32.03092125   8.00011458
2332.00 -32.08971219   8.02008283
2334.00 -32.14854402   8.04008267
2336.00 -32.20741673   8.06011411
2338.00 -32.26633028   8.08017719
2340.00 -32.32528466   8.10027192
2342.00 -32.38427985   8.12039831
2344.00 -32.44331581   8.14055639
2346.00 -32.50239254   8.16074617
2348.00 -32.56151000   8.18096768
2350.00 -32.62066818   8.20122092
2352.00 -32.67986706   8.22150592
2354.00 -32.73910660   8.24182270
2356.00 -32.79838679   8.26217128
2358.00 -32.85770761   8.28255166
2360.00 -32.91706904   8.30296388
2362.00 -32.97647104   8.32340795
2364.00 -33.03591360   8.34388388
2366.00 -33.09539670   8.36439171
2368.00 -33.15492032   8.38493143
2370.00 -33.21448442   8.40550308
2372.00 -33.27408900   8.42610667
2374.00 -33.33373402   8.44674222
2376.00 -33.39341946   8.46740974
2378.00 -33.45314531   8.48810926
2380.00 -33.51291154   8.50884080
2382.00 -33.57271812   8.52960436
2384.00 -33.63256504   8.55039997
2386.00 -33.69245228   8.57122765
2388.00 -33.75237980   8.59208742
2390.00 -33.81234759   8.61297929
2392.00 -33.87235562   8.63390327
2394.00 -33.93240388   8.65485940
2396.00 -33.99249233   8.67584769
2398.00 -34.05262096   8.69686815
2400.00 -34.11278975   8.71792080
2402.00 -34.17299867   8.73900566
2404.00 -34.23324770   8.76012275
2406.00 -34.29353682   8.78127208
2408.00 -34.35386600   8.80245368
2410.00 -34.41423522   8.82366756
2412.00 -34.47464446   8.84491374
2414.00 -34.53509370   8.86619224
2416.00 -34.59558291   8.88750307
2418.00 -34.65611207   8.90884626
2420.00 -34.71668116   8.93022181
2422.00 -34.77729016   8.95162975
2424.00 -34.83793904   8.97307010
2426.00 -34.89862778   8.99454287
2428.00 -34.95935636   9.01604808
2430.00 -35.02012475   9.03758575
2432.00 -35.08093294   9.05915590
2434.00 -35.14178090   9.08075854
2436.00 -35.20266860   9.10239368
2438.00 -35.26359603   9.12406136
2440.00 -35.32456316   9.14576158
2442.00 -35.38556997   9.16749437
2444.00 -35.44661644   9.18925974
2446.00 -35.50770254   9.21105770
2448.00 -35.56882825   9.23288828
2450.00 -35.62999355   9.25475149
2452.00 -35.69119841   9.27664736
2454.00 -35.75244282   9.29857589
2456.00 -35.81372675   9.32053710
2458.00 -35.87505017   9.34253102
2460.00 -35.93641307   9.36455766
2462.00 -35.99781541   9.38661703
2464.00 -36.05925719   9.40870916
2466.00 -36.12073837   9.43083406
2468.00 -36.18225894   9.45299174
2470.00 -36.24381886   9.47518223
2472.00 -36.30541812   9.49740555
2474.00 -36.36705670   9.51966170
2476.00 -36.42873457   9.54195072
2478.00 -36.49045170   9.56427260
2480.00 -36.55220808   9.58662738
2482.00 -36.61400369   9.60901507
2484.00 -36.67583849   9.63143568
2486.00 -36.73771247   9.65388923
2488.00 -36.79962561   9.67637574
2490.00 -36.86157787   9.69889523
2492.00 -36.92356924   9.72144771
2494.00 -36.98559970   9.74403320
2496.00 -37.04766922   9.76665172
2498.00 -37.10977778   9.78930329
2500.00 -37.17192535   9.81198791
2502.00 -37.23411192   9.83470561
2504.00 -37.29633746   9.85745641
2506.00 -37.35860194   9.88024032
2508.00 -37.42090535   9.90305736
2510.00 -37.48324766   9.92590754
2512.00 -37.54562885   9.94879088
2514.00 -37.60804889   9.97170741
2516.00 -37.67050776   9.99465712
2518.00 -37.73300545  10.01764005
2520.00 -37.79554192  10.04065621
2522.00 -37.85811715  10.06370562
2524.00 -37.92073112  10.08678828
2526.00 -37.98338381  10.10990423
2528.00 -38.04607519  10.13305347
2530.00 -38.10880524  10.15623602
2532.00 -38.17157394  10.17945191
2534.00 -38.23438126  10.20270113
2536.00 -38.29722718  10.22598372
2538.00 -38.36011168  10.24929969
2540.00 -38.42303474  10.27264905
2542.00 -38.48599633  10.29603182
2544.00 -38.54899642  10.31944802
2546.00 -38.61203501  10.34289767
2548.00 -38.67511205  10.36638077
2550.00 -38.73822753  10.38989736
2552.00 -38.80138143  10.41344743
2554.00 -38.86457372  10.43703102
2556.00 -38.92780438  10.46064813
2558.00 -38.99107338  10.48429878
2560.00 -39.05438071  10.50798299
2562.00 -39.11772634  10.53170078
2564.00 -39.18111025  10.55545216
2566.00 -39.24453240  10.57923714
2568.00 -39.30799279  10.60305575
2570.00 -39.37149138  10.62690800
2572.00 -39.43502816  10.65079391
2574.00 -39.49860310  10.67471349
2576.00 -39.56221617  10.69866675
2578.00 -39.62586736  10.72265372
2580.00 -39.68955664  10.74667441
2582.00 -39.75328398  10.77072884
2584.00 -39.81704937  10.79481702
2586.00 -39.88085278  10.81893897
2588.00 -39.94469419  10.84309471
2590.00 -40.00857357  10.86728424
2592.00 -40.07249089  10.89150760
2594.00 -40.13644615  10.91576478
2596.00 -40.20043931  10.94005581
2598.00 -40.26447035  10.96438071
2600.00 -40.32853925  10.98873949
2602.00 -40.39264598  11.01313217
2604.00 -40.45679052  11.03755876
2606.00 -40.52097285  11.06201927
2608.00 -40.58519294  11.08651373
2610.00 -40.64945077  11.11104216
2612.00 -40.71374631  11.13560455
2614.00 -40.77807955  11.16020094
2616.00 -40.84245046  11.18483133
2618.00 -40.90685902  11.20949575
2620.00 -40.97130520  11.23419421
2622.00 -41.03578897  11.25892672
2624.00 -41.10031033  11.28369330
2626.00 -41.16486923  11.30849397
2628.00 -41.22946567  11.33332874
2630.00 -41.29409961  11.35819762
2632.00 -41.35877103  11.38310064
2634.00 -41.42347991  11.40803781
2636.00 -41.48822623  11.43300914
2638.00 -41.55300995  11.45801465
2640.00 -41.61783107  11.48305435
2642.00 -41.68268955  11.50812826
2644.00 -41.74758537  11.53323640
2646.00 -41.81251851  11.55837879
2648.00 -41.87748894  11.58355542
2650.00 -41.94249664  11.60876633
2652.00 -42.00754159  11.63401153
2654.00 -42.07262376  11.65929103
2656.00 -42.13774313  11.68460485
2658.00 -42.20289968  11.70995300
2660.00 -42.26809338  11.73533550
2662.00 -42.33332421  11.76075237
2664.00 -42.39859214  11.78620361
2666.00 -42.46389715  11.81168925
2668.00 -42.52923923  11.83720930
2670.00 -42.59461834  11.86276377
2672.00 -42.66003445  11.88835269
2674.00 -42.72548756  11.91397606
2676.00 -42.79097763  11.93963390
2678.00 -42.85650464  11.96532622
2680.00 -42.92206856  11.99105305
2682.00 -42.98766938  12.01681440
2684.00 -43.05330707  12.04261027
2686.00 -43.11898160  12.06844069
2688.00 -43.18469296  12.09430567
2690.00 -43.25044111  12.12020523
2692.00 -43.31622603  12.14613938
2694.00 -43.38204771  12.17210814
2696.00 -43.44790611  12.19811152
2698.00 -43.51380122  12.22414953
2700.00 -43.57973301  12.25022220
2702.00 -43.64570145  12.27632953
2704.00 -43.71170652  12.30247154
2706.00 -43.77774821  12.32864825
2708.00 -43.84382647  12.35485967
2710.00 -43.90994130  12.38110581
2712.00 -43.97609267  12.40738670
2714.00 -44.04228054  12.43370234
2716.00 -44.10850491  12.46005274
2718.00 -44.17476575  12.48643794
2720.00 -44.24106302  12.51285793
2722.00 -44.30739672  12.53931274
2724.00 -44.37376680  12.56580238
2726.00 -44.44017326  12.59232686
2728.00 -44.50661607  12.61888619
2730.00 -44.57309520  12.64548040
2732.00 -44.63961063  12.67210950
2734.00 -44.70616233  12.69877350
2736.00 -44.77275028  12.72547242
2738.00 -44.83937447  12.75220626
2740.00 -44.90603485  12.77897505
2742.00 -44.97273142  12.80577881
2744.00 -45.03946414  12.83261753
2746.00 -45.10623300  12.85949125
2748.00 -45.17303797  12.88639997
2750.00 -45.23987901  12.91334371
2752.00 -45.30675612  12.94032248
2754.00 -45.37366927  12.96733629
2756.00 -45.44061843  12.99438517
2758.00 -45.50760358  13.02146912
2760.00 -45.57462469  13.04858817
2762.00 -45.64168175  13.07574231
2764.00 -45.70877472  13.10293158
2766.00 -45.77590359  13.13015597
2768.00 -45.84306833  13.15741552
2770.00 -45.91026891  13.18471022
2772.00 -45.97750531  13.21204011
2774.00 -46.04477752  13.23940518
2776.00 -46.11208549  13.26680545
2778.00 -46.17942922  13.29424094
2780.00 -46.24680867  13.32171167
2782.00 -46.31422383  13.34921764
2784.00 -46.38167466  13.37675887
2786.00 -46.44916115  13.40433537
2788.00 -46.51668326  13.43194716
2790.00 -46.58424099  13.45959426
2792.00 -46.65183429  13.48727667
2794.00 -46.71946316  13.51499441
2796.00 -46.78712755  13.54274750
2798.00 -46.85482746  13.57053595
2800.00 -46.92256286  13.59835976
2802.00 -46.99033372  13.62621897
2804.00 -47.05814001  13.65411357
2806.00 -47.12598172  13.68204359
2808.00 -47.19385882  13.71000903
2810.00 -47.26177129  13.73800992
2812.00 -47.32971910  13.76604626
2814.00 -47.39770222  13.79411807
2816.00 -47.46572064  13.82222537
2818.00 -47.53377433  13.85036816
2820.00 -47.60186327  13.87854646
2822.00 -47.66998743  13.90676029
2824.00 -47.73814679  13.93500965
2826.00 -47.80634132  13.96329457
2828.00 -47.87457100  13.99161505
2830.00 -47.94283580  14.01997111
2832.00 -48.01113571  14.04836276
2834.00 -48.07947069  14.07679002
2836.00 -48.14784073  14.10525290
2838.00 -48.21624580  14.13375141
2840.00 -48.28468587  14.16228557
2842.00 -48.35316093  14.19085539
2844.00 -48.42167094  14.21946089
2846.00 -48.49021588  14.24810207
2848.00 -48.55879573  14.27677895
2850.00 -48.62741047  14.30549155
2852.00 -48.69606007  14.33423987
2854.00 -48.76474450  14.36302393
2856.00 -48.83346375  14.39184375
2858.00 -48.90221778  14.42069934
2860.00 -48.97100658  14.44959071
2862.00 -49.03983011  14.47851787
2864.00 -49.10868837  14.50748084
2866.00 -49.17758131  14.53647963
2868.00 -49.24650892  14.56551426
2870.00 -49.31547118  14.59458473
2872.00 -49.38446805  14.62369107
2874.00 -49.45349952  14.65283328
2876.00 -49.52256556  14.68201137
2878.00 -49.59166614  14.71122537
2880.00 -49.66080125  14.74047528
2882.00 -49.72997085  14.76976112
2884.00 -49.79917493  14.79908289
2886.00 -49.86841346  14.82844062
2888.00 -49.93768641  14.85783432
2890.00 -50.00699376  14.88726399
2892.00 -50.07633549  14.91672966
2894.00 -50.14571157  14.94623133
2896.00 -50.21512198  14.97576902
2898.00 -50.28456670  15.00534274
2900.00 -50.35404569  15.03495251
2902.00 -50.42355894  15.06459833
2904.00 -50.49310643  15.09428022
2906.00 -50.56268811  15.12399819
2908.00 -50.63230399  15.15375226
2910.00 -50.70195402  15.18354244
2912.00 -50.77163818  15.21336874
2914.00 -50.84135645  15.24323117
2916.00 -50.91110881  15.27312975
2918.00 -50.98089523  15.30306449
2920.00 -51.05071569  15.33303540
2922.00 -51.12057016  15.36304250
2924.00 -51.19045862  15.39308579
2926.00 -51.26038104  15.42316530
2928.00 -51.33033741  15.45328103
2930.00 -51.40032768  15.48343299
2932.00 -51.47035185  15.51362120
2934.00 -51.54040989  15.54384568
2936.00 -51.61050177  15.57410642
2938.00 -51.68062747  15.60440346
2940.00 -51.75078696  15.63473679
2942.00 -51.82098022  15.66510643
2944.00 -51.89120723  15.69551240
2946.00 -51.96146795  15.72595470
2948.00 -52.03176238  15.75643336
2950.00 -52.10209047  15.78694837
2952.00 -52.17245222  15.81749976
2954.00 -52.24284758  15.84808753
2956.00 -52.31327655  15.87871170
2958.00 -52.38373909  15.90937229
2960.00 -52.45423518  15.94006929
2962.00 -52.52476480  15.97080273
2964.00 -52.59532792  16.00157262
2966.00 -52.66592452  16.03237897
2968.00 -52.73655457  16.06322180
2970.00 -52.80721804  16.09410110
2972.00 -52.87791493  16.12501691
2974.00 -52.94864519  16.15596922
2976.00 -53.01940880  16.18695805
2978.00 -53.09020575  16.21798342
2980.00 -53.16103601  16.24904534
2982.00 -53.23189954  16.28014381
2984.00 -53.30279634  16.31127885
2986.00 -53.37372636  16.34245047
2988.00 -53.44468960  16.37365869
2990.00 -53.51568602  16.40490351
2992.00 -53.58671560  16.43618496
2994.00 -53.65777832  16.46750303
2996.00 -53.72887414  16.49885774
2998.00 -53.80000306  16.53024911
3000.00 -53.87116503  16.56167715
3002.00 -53.94236004  16.59314186
3004.00 -54.01358807  16.62464326
3006.00 -54.08484909  16.65618137
3008.00 -54.15614307  16.68775619
3010.00 -54.22746998  16.71936773
3012.00 -54.29882982  16.75101602
3014.00 -54.37022255  16.78270105
3016.00 -54.44164814  16.81442284
3018.00 -54.51310657  16.84618141
3020.00 -54.58459782  16.87797676
3022.00 -54.65612187  16.90980891
3024.00 -54.72767868  16.94167786
3026.00 -54.79926824  16.97358364
3028.00 -54.87089052  17.00552625
3030.00 -54.94254549  17.03750570
3032.00 -55.01423313  17.06952200
3034.00 -55.08595342  17.10157518
3036.00 -55.15770633  17.13366523
3038.00 -55.22949184  17.16579217
3040.00 -55.30130992  17.19795601
3042.00 -55.37316055  17.23015676
3044.00 -55.44504370  17.26239444
3046.00 -55.51695935  17.29466906
3048.00 -55.58890748  17.32698062
3050.00 -55.66088805  17.35932914
3052.00 -55.73290105  17.39171463
3054.00 -55.80494645  17.42413710
3056.00 -55.87702423  17.45659657
3058.00 -55.94913436  17.48909304
3060.00 -56.02127682  17.52162653
3062.00 -56.09345158  17.55419704
3064.00 -56.16565862  17.58680460
3066.00 -56.23789791  17.61944920
3068.00 -56.31016943  17.65213086
3070.00 -56.38247315  17.68484960
3072.00 -56.45480906  17.71760542
3074.00 -56.52717712  17.75039833
3076.00 -56.59957731  17.78322836
3078.00 -56.67200961  17.81609549
3080.00 -56.74447398  17.84899976
3082.00 -56.81697042  17.88194117
3084.00 -56.88949889  17.91491973
3086.00 -56.96205937  17.94793545
3088.00 -57.03465183  17.98098834
3090.00 -57.10727625  18.01407842
3092.00 -57.17993260  18.04720569
3094.00 -57.25262086  18.08037017
3096.00 -57.32534101  18.11357187
3098.00 -57.39809302  18.14681079
3100.00 -57.47087686  18.18008696
3102.00 -57.54369252  18.21340037
3104.00 -57.61653996  18.24675105
3106.00 -57.68941916  18.28013899
3108.00 -57.76233010  18.31356422
3110.00 -57.83527276  18.34702675
3112.00 -57.90824710  18.38052658
3114.00 -57.98125311  18.41406372
3116.00 -58.05429075  18.44763819
3118.00 -58.12736001  18.48125000
3120.00 -58.20046086  18.51489916
3122.00 -58.27359327  18.54858567
3124.00 -58.34675723  18.58230956
3126.00 -58.41995270  18.61607082
3128.00 -58.49317966  18.64986948
3130.00 -58.56643809  18.68370554
3132.00 -58.63972796  18.71757901
3134.00 -58.71304924  18.75148990
3136.00 -58.78640192  18.78543823
3138.00 -58.85978597  18.81942400
3140.00 -58.93320136  18.85344722
3142.00 -59.00664807  18.88750791
3144.00 -59.08012608  18.92160608
3146.00 -59.15363535  18.95574173
3148.00 -59.22717587  18.98991488
3150.00 -59.30074761  19.02412554
3152.00 -59.37435054  19.05837372
3154.00 -59.44798464  19.09265942
3156.00 -59.52164989  19.12698266
3158.00 -59.59534627  19.16134346
3160.00 -59.66907373  19.19574181
3162.00 -59.74283228  19.23017773
3164.00 -59.81662186  19.26465123
3166.00 -59.89044247  19.29916232
3168.00 -59.96429408  19.33371102
3170.00 -60.03817667  19.36829732
3172.00 -60.11209020  19.40292125
3174.00 -60.18603465  19.43758281
3176.00 -60.26001001  19.47228201
3178.00 -60.33401624  19.50701886
3180.00 -60.40805332  19.54179337
3182.00 -60.48212122  19.57660556
3184.00 -60.55621992  19.61145543
3186.00 -60.63034941  19.64634300
3188.00 -60.70450964  19.68126826
3190.00 -60.77870060  19.71623124
3192.00 -60.85292226  19.75123195
3194.00 -60.92717459  19.78627038
3196.00 -61.00145758  19.82134656
3198.00 -61.07577120  19.85646050
3200.00 -61.15011542  19.89161219
3202.00 -61.22449022  19.92680166
3204.00 -61.29889557  19.96202892
3206.00 -61.37333146  19.99729396
3208.00 -61.44779784  20.03259681
3210.00 -61.52229471  20.06793748
3212.00 -61.59682203  20.10331596
3214.00 -61.67137978  20.13873228
3216.00 -61.74596793  20.17418645
3218.00 -61.82058647  20.20967846
3220.00 -61.89523536  20.24520834
3222.00 -61.96991458  20.28077609
3224.00 -62.04462411  20.31638172
3226.00 -62.11936392  20.35202524
3228.00 -62.19413399  20.38770666
3230.00 -62.26893429  20.42342600
3232.00 -62.34376480  20.45918326
3234.00 -62.41862549  20.49497844
3236.00 -62.49351634  20.53081157
3238.00 -62.56843732  20.56668265
3240.00 -62.64338841  20.60259169
3242.00 -62.71836958  20.63853869
3244.00 -62.79338081  20.67452368
3246.00 -62.86842208  20.71054665
3248.00 -62.94349336  20.74660762
3250.00 -63.01859462  20.78270660
3252.00 -63.09372584  20.81884359
3254.00 -63.16888700  20.85501861
3256.00 -63.24407807  20.89123167
3258.00 -63.31929902  20.92748277
3260.00 -63.39454983  20.96377192
3262.00 -63.46983049  21.00009914
3264.00 -63.54514095  21.03646444
3266.00 -63.62048120  21.07286781
3268.00 -63.69585121  21.10930928
3270.00 -63.77125096  21.14578885
3272.00 -63.84668042  21.18230653
3274.00 -63.92213957  21.21886233
3276.00 -63.99762838  21.25545626
3278.00 -64.07314683  21.29208833
3280.00 -64.14869490  21.32875855
3282.00 -64.22427255  21.36546692
3284.00 -64.29987977  21.40221346
3286.00 -64.37551652  21.43899818
3288.00 -64.45118280  21.47582107
3290.00 -64.52687856  21.51268217
3292.00 -64.60260378  21.54958146
3294.00 -64.67835845  21.58651897
3296.00 -64.75414253  21.62349470
3298.00 -64.82995600  21.66050866
3300.00 -64.90579884  21.69756085
3302.00 -64.98167102  21.73465130
3304.00 -65.05757251  21.77178000
3306.00 -65.13350330  21.80894697
3308.00 -65.20946335  21.84615222
3310.00 -65.28545265  21.88339574
3312.00 -65.36147116  21.92067756
3314.00 -65.43751887  21.95799769
3316.00 -65.51359574  21.99535612
3318.00 -65.58970176  22.03275287
3320.00 -65.66583689  22.07018795
3322.00 -65.74200112  22.10766137
3324.00 -65.81819442  22.14517313
3326.00 -65.89441676  22.18272325
3328.00 -65.97066811  22.22031174
3330.00 -66.04694847  22.25793859
3332.00 -66.12325779  22.29560383
3334.00 -66.19959606  22.33330745
3336.00 -66.27596325  22.37104948
3338.00 -66.35235933  22.40882991
3340.00 -66.42878428  22.44664876
3342.00 -66.50523808  22.48450603
3344.00 -66.58172070  22.52240173
3346.00 -66.65823211  22.56033588
3348.00 -66.73477230  22.59830848
3350.00 -66.81134123  22.63631953
3352.00 -66.88793889  22.67436905
3354.00 -66.96456524  22.71245705
3356.00 -67.04122026  22.75058354
3358.00 -67.11790393  22.78874851
3360.00 -67.19461623  22.82695199
3362.00 -67.27135712  22.86519398
3364.00 -67.34812658  22.90347448
3366.00 -67.42492459  22.94179352
3368.00 -67.50175113  22.98015108
3370.00 -67.57860616  23.01854719
3372.00 -67.65548967  23.05698185
3374.00 -67.73240162  23.09545508
3376.00 -67.80934200  23.13396687
3378.00 -67.88631078  23.17251724
3380.00 -67.96330794  23.21110619
3382.00 -68.04033344  23.24973373
3384.00 -68.11738727  23.28839988
3386.00 -68.19446940  23.32710464
3388.00 -68.27157980  23.36584801
3390.00 -68.34871846  23.40463001
3392.00 -68.42588534  23.44345065
3394.00 -68.50308042  23.48230992
3396.00 -68.58030368  23.52120785
3398.00 -68.65755509  23.56014444
3400.00 -68.73483463  23.59911969
3402.00 -68.81214227  23.63813362
3404.00 -68.88947798  23.67718623
3406.00 -68.96684175  23.71627753
3408.00 -69.04423354  23.75540753
3410.00 -69.12165334  23.79457624
3412.00 -69.19910112  23.83378366
3414.00 -69.27657685  23.87302980
3416.00 -69.35408050  23.91231468
3418.00 -69.43161206  23.95163829
3420.00 -69.50917150  23.99100065
3422.00 -69.58675880  24.03040177
3424.00 -69.66437392  24.06984164
3426.00 -69.74201685  24.10932029
3428.00 -69.81968755  24.14883771
3430.00 -69.89738601  24.18839392
3432.00 -69.97511221  24.22798893
3434.00 -70.05286610  24.26762273
3436.00 -70.13064768  24.30729535
3438.00 -70.20845691  24.34700678
3440.00 -70.28629377  24.38675703
3442.00 -70.36415824  24.42654612
3444.00 -70.44205029  24.46637405
3446.00 -70.51996990  24.50624082
3448.00 -70.59791704  24.54614645
3450.00 -70.67589169  24.58609094
3452.00 -70.75389381  24.62607430
3454.00 -70.83192340  24.66609654
3456.00 -70.90998042  24.70615767
3458.00 -70.98806484  24.74625769
3460.00 -71.06617665  24.78639661
3462.00 -71.14431582  24.82657443
3464.00 -71.22248232  24.86679118
3466.00 -71.30067612  24.90704684
3468.00 -71.37889722  24.94734144
3470.00 -71.45714557  24.98767497
3472.00 -71.53542115  25.02804745
3474.00 -71.61372395  25.06845888
3476.00 -71.69205393  25.10890927
3478.00 -71.77041107  25.14939863
3480.00 -71.84879534  25.18992696
3482.00 -71.92720673  25.23049428
3484.00 -72.00564520  25.27110058
3486.00 -72.08411073  25.31174588
3488.00 -72.16260330  25.35243019
3490.00 -72.24112287  25.39315350
3492.00 -72.31966944  25.43391583
3494.00 -72.39824297  25.47471719
3496.00 -72.47684343  25.51555758
3498.00 -72.55547081  25.55643701
3500.00 -72.63412507  25.59735549
3502.00 -72.71280619  25.63831302
3504.00 -72.79151416  25.67930962
3506.00 -72.87024893  25.72034528
3508.00 -72.94901050  25.76142002
3510.00 -73.02779883  25.80253384
3512.00 -73.10661389  25.84368674
3514.00 -73.18545568  25.88487875
3516.00 -73.26432415  25.92610986
3518.00 -73.34321928  25.96738008
3520.00 -73.42214106  26.00868941
3522.00 -73.50108944  26.05003787
3524.00 -73.58006442  26.09142546
3526.00 -73.65906597  26.13285219
3528.00 -73.73809405  26.17431807
3530.00 -73.81714866  26.21582309
3532.00 -73.89622975  26.25736728
3534.00 -73.97533731  26.29895063
3536.00 -74.05447131  26.34057315
3538.00 -74.13363172  26.38223485
3540.00 -74.21281853  26.42393574
3542.00 -74.29203171  26.46567582
3544.00 -74.37127123  26.50745510
3546.00 -74.45053707  26.54927358
3548.00 -74.52982920  26.59113128
3550.00 -74.60914760  26.63302820
3552.00 -74.68849224  26.67496435
3554.00 -74.76786310  26.71693972
3556.00 -74.84726015  26.75895434
3558.00 -74.92668338  26.80100820
3560.00 -75.00613275  26.84310132
3562.00 -75.08560824  26.88523369
3564.00 -75.16510982  26.92740533
3566.00 -75.24463747  26.96961624
3568.00 -75.32419117  27.01186643
3570.00 -75.40377089  27.05415591
3572.00 -75.48337661  27.09648467
3574.00 -75.56300830  27.13885274
3576.00 -75.64266594  27.18126011
3578.00 -75.72234949  27.22370679
3580.00 -75.80205895  27.26619279
3582.00 -75.88179427  27.30871811
3584.00 -75.96155545  27.35128277
3586.00 -76.04134245  27.39388676
3588.00 -76.12115524  27.43653009
3590.00 -76.20099381  27.47921277
3592.00 -76.28085813  27.52193481
3594.00 -76.36074817  27.56469620
3596.00 -76.44066392  27.60749697
3598.00 -76.52060533  27.65033711
3600.00 -76.60057240  27.69321663
3602.00 -76.68056509  27.73613554
3604.00 -76.76058339  27.77909384
3606.00 -76.84062725  27.82209154
3608.00 -76.92069667  27.86512865
3610.00 -77.00079162  27.90820516
3612.00 -77.08091207  27.95132110
3614.00 -77.16105800  27.99447645
3616.00 -77.24122937  28.03767124
3618.00 -77.32142618  28.08090546
3620.00 -77.40164839  28.12417913
3622.00 -77.48189597  28.16749224
3624.00 -77.56216891  28.21084480
3626.00 -77.64246718  28.25423683
3628.00 -77.72279076  28.29766832
3630.00 -77.80313961  28.34113928
3632.00 -77.88351372  28.38464972
3634.00 -77.96391306  28.42819964
3636.00 -78.04433760  28.47178905
3638.00 -78.12478732  28.51541796
3640.00 -78.20526220  28.55908637
3642.00 -78.28576221  28.60279428
3644.00 -78.36628733  28.64654171
3646.00 -78.44683753  28.69032865
3648.00 -78.52741279  28.73415512
3650.00 -78.60801308  28.77802112
3652.00 -78.68863838  28.82192666
3654.00 -78.76928866  28.86587174
3656.00 -78.84996390  28.90985636
3658.00 -78.93066408  28.95388054
3660.00 -79.01138916  28.99794427
3662.00 -79.09213913  29.04204757
3664.00 -79.17291396  29.08619044
3666.00 -79.25371362  29.13037289
3668.00 -79.33453810  29.17459491
3670.00 -79.41538736  29.21885653
3672.00 -79.49626138  29.26315773
3674.00 -79.57716014  29.30749853
3676.00 -79.65808361  29.35187894
3678.00 -79.73903177  29.39629895
3680.00 -79.82000459  29.44075858
3682.00 -79.90100205  29.48525783
3684.00 -79.98202413  29.52979670
3686.00 -80.06307079  29.57437521
3688.00 -80.14414202  29.61899335
3690.00 -80.22523779  29.66365113
3692.00 -80.30635807  29.70834855
3694.00 -80.38750284  29.75308563
3696.00 -80.46867208  29.79786237
3698.00 -80.54986576  29.84267877
3700.00 -80.63108385  29.88753484
3702.00 -80.71232634  29.93243058
3704.00 -80.79359320  29.97736600
3706.00 -80.87488440  30.02234111
3708.00 -80.95619991  30.06735590
3710.00 -81.03753972  30.11241039
3712.00 -81.11890380  30.15750458
3714.00 -81.20029213  30.20263847
3716.00 -81.28170467  30.24781207
3718.00 -81.36314141  30.29302539
3720.00 -81.44460232  30.33827843
3722.00 -81.52608737  30.38357119
3724.00 -81.60759655  30.42890368
3726.00 -81.68912982  30.47427591
3728.00 -81.77068716  30.51968788
3730.00 -81.85226856  30.56513960
3732.00 -81.93387397  30.61063106
3734.00 -82.01550339  30.65616229
3736.00 -82.09715678  30.70173327
3738.00 -82.17883411  30.74734402
3740.00 -82.26053538  30.79299453
3742.00 -82.34226054  30.83868483
3744.00 -82.42400958  30.88441490
3746.00 -82.50578246  30.93018476
3748.00 -82.58757918  30.97599441
3750.00 -82.66939970  31.02184385
3752.00 -82.75124399  31.06773310
3754.00 -82.83311204  31.11366215
3756.00 -82.91500382  31.15963101
3758.00 -82.99691930  31.20563968
3760.00 -83.07885846  31.25168817
3762.00 -83.16082127  31.29777649
3764.00 -83.24280771  31.34390463
3766.00 -83.32481776  31.39007261
3768.00 -83.40685139  31.43628042
3770.00 -83.48890858  31.48252808
3772.00 -83.57098930  31.52881559
3774.00 -83.65309353  31.57514294
3776.00 -83.73522124  31.62151016
3778.00 -83.81737240  31.66791723
3780.00 -83.89954701  31.71436417
3782.00 -83.98174502  31.76085099
3784.00 -84.06396641  31.80737767
3786.00 -84.14621117  31.85394424
3788.00 -84.22847926  31.90055069
3790.00 -84.31077067  31.94719703
3792.00 -84.39308536  31.99388326
3794.00 -84.47542331  32.04060939
3796.00 -84.55778450  32.08737542
3798.00 -84.64016891  32.13418135
3800.00 -84.72257650  32.18102720
3802.00 -84.80500726  32.22791296
3804.00 -84.88746116  32.27483865
3806.00 -84.96993817  32.32180425
3808.00 -85.05243827  32.36880979
3810.00 -85.13496144  32.41585526
3812.00 -85.21750766  32.46294066
3814.00 -85.30007689  32.51006601
3816.00 -85.38266911  32.55723130
3818.00 -85.46528431  32.60443654
3820.00 -85.54792244  32.65168173
3822.00 -85.63058350  32.69896689
3824.00 -85.71326745  32.74629200
3826.00 -85.79597428  32.79365708
3828.00 -85.87870394  32.84106214
3830.00 -85.96145644  32.88850716
3832.00 -86.04423173  32.93599217
3834.00 -86.12702979  32.98351716
3836.00 -86.20985060  33.03108214
3838.00 -86.29269414  33.07868711
3840.00 -86.37556037  33.12633207
3842.00 -86.45844928  33.17401704
3844.00 -86.54136084  33.22174200
3846.00 -86.62429503  33.26950698
3848.00 -86.70725182  33.31731197
3850.00 -86.79023119  33.36515697
3852.00 -86.87323311  33.41304199
3854.00 -86.95625757  33.46096703
3856.00 -87.03930452  33.50893211
3858.00 -87.12237396  33.55693721
3860.00 -87.20546585  33.60498235
3862.00 -87.28858017  33.65306753
3864.00 -87.37171690  33.70119275
3866.00 -87.45487602  33.74935802
3868.00 -87.53805749  33.79756333
3870.00 -87.62126130  33.84580871
3872.00 -87.70448741  33.89409414
3874.00 -87.78773581  33.94241963
3876.00 -87.87100647  33.99078519
3878.00 -87.95429937  34.03919082
3880.00 -88.03761448  34.08763652
3882.00 -88.12095178  34.13612230
3884.00 -88.20431124  34.18464815
3886.00 -88.28769284  34.23321410
3888.00 -88.37109656  34.28182013
3890.00 -88.45452236  34.33046625
3892.00 -88.53797024  34.37915247
3894.00 -88.62144015  34.42787878
3896.00 -88.70493208  34.47664520
3898.00 -88.78844601  34.52545173
3900.00 -88.87198190  34.57429836
3902.00 -88.95553974  34.62318511
3904.00 -89.03911949  34.67211197
3906.00 -89.12272115  34.72107895
3908.00 -89.20634467  34.77008606
3910.00 -89.28999005  34.81913329
3912.00 -89.37365724  34.86822065
3914.00 -89.45734624  34.91734815
3916.00 -89.54105701  34.96651579
3918.00 -89.62478953  35.01572356
3920.00 -89.70854377  35.06497148
3922.00 -89.79231972  35.11425955
3924.00 -89.87611734  35.16358776
3926.00 -89.95993662  35.21295613
3928.00 -90.04377753  35.26236466
3930.00 -90.12764004  35.31181335
3932.00 -90.21152413  35.36130220
3934.00 -90.29542977  35.41083122
3936.00 -90.37935695  35.46040041
3938.00 -90.46330564  35.51000978
3940.00 -90.54727581  35.55965932
3942.00 -90.63126744  35.60934904
3944.00 -90.71528050  35.65907894
3946.00 -90.79931498  35.70884903
3948.00 -90.88337084  35.75865931
3950.00 -90.96744806  35.80850978
3952.00 -91.05154662  35.85840045
3954.00 -91.13566649  35.90833131
3956.00 -91.21980766  35.95830238
3958.00 -91.30397009  36.00831365
3960.00 -91.38815376  36.05836513
3962.00 -91.47235864  36.10845682
3964.00 -91.55658472  36.15858873
3966.00 -91.64083197  36.20876085
3968.00 -91.72510037  36.25897319
3970.00 -91.80938988  36.30922576
3972.00 -91.89370049  36.35951855
3974.00 -91.97803217  36.40985157
3976.00 -92.06238490  36.46022482
3978.00 -92.14675865  36.51063830
3980.00 -92.23115340  36.56109203
3982.00 -92.31556913  36.61158599
3984.00 -92.40000580  36.66212019
3986.00 -92.48446341  36.71269464
3988.00 -92.56894192  36.76330934
3990.00 -92.65344130  36.81396430
3992.00 -92.73796154  36.86465950
3994.00 -92.82250261  36.91539496
3996.00 -92.90706449  36.96617068
3998.00 -92.99164715  37.01698667
4000.00 -93.07625057  37.06784292
4002.00 -93.16087472  37.11873943
4004.00 -93.24551958  37.16967622
4006.00 -93.33018512  37.22065328
4008.00 -93.41487133  37.27167062
4010.00 -93.49957818  37.32272823
4012.00 -93.58430564  37.37382613
4014.00 -93.66905368  37.42496430
4016.00 -93.75382230  37.47614277
4018.00 -93.83861145  37.52736152
4020.00 -93.92342112  37.57862057
4022.00 -94.00825129  37.62991990
4024.00 -94.09310192  37.68125954
4026.00 -94.17797300  37.73263947
4028.00 -94.26286450  37.78405970
4030.00 -94.34777640  37.83552024
4032.00 -94.43270867  37.88702108
4034.00 -94.51766128  37.93856223
4036.00 -94.60263423  37.99014369
4038.00 -94.68762747  38.04176547
4040.00 -94.77264099  38.09342756
4042.00 -94.85767476  38.14512997
4044.00 -94.94272876  38.19687270
4046.00 -95.02780297  38.24865575
4048.00 -95.11289735  38.30047912
4050.00 -95.19801189  38.35234282
4052.00 -95.28314657  38.40424686
4054.00 -95.36830135  38.45619122
4056.00 -95.45347622  38.50817592
4058.00 -95.53867115  38.56020095
4060.00 -95.62388611  38.61226632
4062.00 -95.70912109  38.66437203
4064.00 -95.79437606  38.71651809
4066.00 -95.87965099  38.76870449
4068.00 -95.96494586  38.82093123
4070.00 -96.05026065  38.87319833
4072.00 -96.13559533  38.92550577
4074.00 -96.22094988  38.97785357
4076.00 -96.30632428  39.03024172
4078.00 -96.39171849  39.08267024
4080.00 -96.47713251  39.13513911
4082.00 -96.56256629  39.18764834
4084.00 -96.64801983  39.24019793
4086.00 -96.73349309  39.29278789
4088.00 -96.81898605  39.34541822
4090.00 -96.90449869  39.39808892
4092.00 -96.99003099  39.45079998
4094.00 -97.07558291  39.50355143
4096.00 -97.16115444  39.55634324
4098.00 -97.24674555  39.60917543
4100.00 -97.33235622  39.66204801
4102.00 -97.41798642  39.71496096
4104.00 -97.50363613  39.76791429
4106.00 -97.58930533  39.82090801
4108.00 -97.67499400  39.87394212
4110.00 -97.76070210  39.92701661
4112.00 -97.84642961  39.98013149
4114.00 -97.93217652  40.03328676
4116.00 -98.01794279  40.08648243
4118.00 -98.10372841  40.13971849
4120.00 -98.18953335  40.19299495
4122.00 -98.27535758  40.24631180
4124.00 -98.36120108  40.29966906
4126.00 -98.44706384  40.35306672
4128.00 -98.53294581  40.40650478
4130.00 -98.61884699  40.45998324
4132.00 -98.70476734  40.51350212
4134.00 -98.79070685  40.56706140
4136.00 -98.87666548  40.62066109
4138.00 -98.96264322  40.67430119
4140.00 -99.04864004  40.72798170
4142.00 -99.13465592  40.78170263
4144.00 -99.22069084  40.83546397
4146.00 -99.30674476  40.88926573
4148.00 -99.39281767  40.94310791
4150.00 -99.47890954  40.99699051
4152.00 -99.56502035  41.05091353
4154.00 -99.65115008  41.10487697
4156.00 -99.73729870  41.15888084
4158.00 -99.82346618  41.21292514
4160.00 -99.90965251  41.26700986
4162.00 -99.99585766  41.32113501
4164.00 -100.08208160  41.37530059
4166.00 -100.16832432  41.42950660
4168.00 -100.25458579  41.48375305
4170.00 -100.34086598  41.53803992
4172.00 -100.42716488  41.59236724
4174.00 -100.51348245  41.64673499
4176.00 -100.59981868  41.70114318
4178.00 -100.68617353  41.75559180
4180.00 -100.77254700  41.81008087
4182.00 -100.85893904  41.86461038
4184.00 -100.94534965  41.91918033
4186.00 -101.03177879  41.97379072
4188.00 -101.11822645  42.02844156
4190.00 -101.20469259  42.08313285
4192.00 -101.29117720  42.13786458
4194.00 -101.37768025  42.19263677
4196.00 -101.46420172  42.24744940
4198.00 -101.55074158  42.30230248
4200.00 -101.63729981  42.35719601
4202.00 -101.72387639  42.41213000
4204.00 -101.81047129  42.46710444
4206.00 -101.89708449  42.52211933
4208.00 -101.98371597  42.57717468
4210.00 -102.07036570  42.63227049
4212.00 -102.15703366  42.68740676
4214.00 -102.24371982  42.74258348
4216.00 -102.33042417  42.79780066
4218.00 -102.41714667  42.85305830
4220.00 -102.50388731  42.90835641
4222.00 -102.59064606  42.96369498
4224.00 -102.67742290  43.01907401
4226.00 -102.76421780  43.07449350
4228.00 -102.85103074  43.12995346
4230.00 -102.93786170  43.18545389
4232.00 -103.02471065  43.24099478
4234.00 -103.11157757  43.29657614
4236.00 -103.19846244  43.35219796
4238.00 -103.28536523  43.40786026
4240.00 -103.37228591  43.46356302
4242.00 -103.45922448  43.51930626
4244.00 -103.54618090  43.57508997
4246.00 -103.63315514  43.63091414
4248.00 -103.72014719  43.68677880
4250.00 -103.80715703  43.74268392
4252.00 -103.89418462  43.79862952
4254.00 -103.98122994  43.85461559
4256.00 -104.06829298  43.91064214
4258.00 -104.15537371  43.96670916
4260.00 -104.24247209  44.02281666
4262.00 -104.32958813  44.07896464
4264.00 -104.41672177  44.13515309
4266.00 -104.50387302  44.19138202
4268.00 -104.59104183  44.24765143
4270.00 -104.67822819  44.30396132
4272.00 -104.76543207  44.36031169
4274.00 -104.85265346  44.41670254
4276.00 -104.93989232  44.47313387
4278.00 -105.02714864  44.52960568
4280.00 -105.11442238  44.58611797
4282.00 -105.20171353  44.64267075
4284.00 -105.28902207  44.69926400
4286.00 -105.37634797  44.75589774
4288.00 -105.46369120  44.81257196
4290.00 -105.55105175  44.86928667
4292.00 -105.63842958  44.92604186
4294.00 -105.72582469  44.98283753
4296.00 -105.81323703  45.03967369
4298.00 -105.90066660  45.09655033
4300.00 -105.98811336  45.15346746
4302.00 -106.07557730  45.21042507
4304.00 -106.16305839  45.26742317
4306.00 -106.25055660  45.32446175
4308.00 -106.33807192  45.38154082
4310.00 -106.42560431  45.43866037
4312.00 -106.51315377  45.49582041
4314.00 -106.60072026  45.55302094
4316.00 -106.68830375  45.61026196
4318.00 -106.77590424  45.66754346
4320.00 -106.86352169  45.72486545
4322.00 -106.95115608  45.78222792
4324.00 -107.03880738  45.83963089
4326.00 -107.12647558  45.89707434
4328.00 -107.21416066  45.95455827
4330.00 -107.30186257  46.01208270
4332.00 -107.38958132  46.06964761
4334.00 -107.47731686  46.12725301
4336.00 -107.56506918  46.18489890
4338.00 -107.65283826  46.24258527
4340.00 -107.74062407  46.30031214
4342.00 -107.82842658  46.35807949
4344.00 -107.91624578  46.41588732
4346.00 -108.00408165  46.47373565
4348.00 -108.09193415  46.53162446
4350.00 -108.17980327  46.58955376
4352.00 -108.26768898  46.64752354
4354.00 -108.35559125  46.70553382
4356.00 -108.44351008  46.76358458
4358.00 -108.53144543  46.82167582
4360.00 -108.61939727  46.87980756
4362.00 -108.70736560  46.93797978
4364.00 -108.79535037  46.99619248
4366.00 -108.88335158  47.05444567
4368.00 -108.97136920  47.11273935
4370.00 -109.05940319  47.17107351
4372.00 -109.14745355  47.22944816
4374.00 -109.23552025  47.28786329
4376.00 -109.32360326  47.34631891
4378.00 -109.41170257  47.40481501
4380.00 -109.49981814  47.46335160
4382.00 -109.58794996  47.52192866
4384.00 -109.67609800  47.58054622
4386.00 -109.76426224  47.63920425
4388.00 -109.85244266  47.69790277
4390.00 -109.94063923  47.75664177
4392.00 -110.02885193  47.81542125
4394.00 -110.11708073  47.87424121
4396.00 -110.20532562  47.93310166
4398.00 -110.29358658  47.99200258
4400.00 -110.38186357  48.05094398
4402.00 -110.47015657  48.10992587
4404.00 -110.55846557  48.16894823
4406.00 -110.64679054  48.22801107
4408.00 -110.73513145  48.28711439
4410.00 -110.82348829  48.34625819
4412.00 -110.91186103  48.40544246
4414.00 -111.00024964  48.46466721
4416.00 -111.08865411  48.52393243
4418.00 -111.17707441  48.58323813
4420.00 -111.26551052  48.64258431
4422.00 -111.35396241  48.70197096
4424.00 -111.44243007  48.76139808
4426.00 -111.53091346  48.82086567
4428.00 -111.61941258  48.88037374
4430.00 -111.70792738  48.93992227
4432.00 -111.79645786  48.99951128
4434.00 -111.88500399  49.05914076
4436.00 -111.97356574  49.11881071
4438.00 -112.06214309  49.17852112
4440.00 -112.15073602  49.23827200
4442.00 -112.23934451  49.29806335
4444.00 -112.32796853  49.35789517
4446.00 -112.41660807  49.41776745
4448.00 -112.50526309  49.47768019
4450.00 -112.59393357  49.53763340
4452.00 -112.68261950  49.59762707
4454.00 -112.77132085  49.65766120
4456.00 -112.86003759  49.71773579
4458.00 -112.94876971  49.77785085
4460.00 -113.03751718  49.83800636
4462.00 -113.12627998  49.89820233
4464.00 -113.21505808  49.95843876
4466.00 -113.30385146  50.01871564
4468.00 -113.39266011  50.07903298
4470.00 -113.48148399  50.13939077
4472.00 -113.57032308  50.19978902
4474.00 -113.65917737  50.26022772
4476.00 -113.74804682  50.32070687
4478.00 -113.83693143  50.38122647
4480.00 -113.92583115  50.44178652
4482.00 -114.01474598  50.50238702
4484.00 -114.10367588  50.56302797
4486.00 -114.19262084  50.62370936
4488.00 -114.28158083  50.68443119
4490.00 -114.37055583  50.74519347
4492.00 -114.45954581  50.80599620
4494.00 -114.54855076  50.86683936
4496.00 -114.63757065  50.92772296
4498.00 -114.72660547  50.98864701
4500.00 -114.81565517  51.04961149
4502.00 -114.90471975  51.11061641
4504.00 -114.99379918  51.17166176
4506.00 -115.08289344  51.23274755
4508.00 -115.17200251  51.29387377
4510.00 -115.26112636  51.35504042
4512.00 -115.35026496  51.41624750
4514.00 -115.43941831  51.47749501
4516.00 -115.52858637  51.53878295
4518.00 -115.61776912  51.60011132
4520.00 -115.70696655  51.66148011
4522.00 -115.79617862  51.72288933
4524.00 -115.88540531  51.78433897
4526.00 -115.97464661  51.84582902
4528.00 -116.06390249  51.90735950
4530.00 -116.15317292  51.96893040
4532.00 -116.24245789  52.03054171
4534.00 -116.33175737  52.09219344
4536.00 -116.42107133  52.15388558
4538.00 -116.51039977  52.21561814
4540.00 -116.59974265  52.27739111
4542.00 -116.68909995  52.33920448
4544.00 -116.77847165  52.40105827
4546.00 -116.86785773  52.46295246
4548.00 -116.95725816  52.52488705
4550.00 -117.04667292  52.58686205
4552.00 -117.13610199  52.64887745
4554.00 -117.22554535  52.71093325
4556.00 -117.31500298  52.77302945
4558.00 -117.40447484  52.83516605
4560.00 -117.49396093  52.89734304
4562.00 -117.58346121  52.95956043
4564.00 -117.67297566  53.02181821
4566.00 -117.76250427  53.08411637
4568.00 -117.85204701  53.14645493
4570.00 -117.94160385  53.20883388
4572.00 -118.03117478  53.27125321
4574.00 -118.12075977  53.33371292
4576.00 -118.21035880  53.39621302
4578.00 -118.29997185  53.45875349
4580.00 -118.38959889  53.52133435
4582.00 -118.47923991  53.58395558
4584.00 -118.56889488  53.64661718
4586.00 -118.65856377  53.70931916
4588.00 -118.74824657  53.77206151
4590.00 -118.83794326  53.83484423
4592.00 -118.92765380  53.89766732
4594.00 -119.01737819  53.96053078
4596.00 -119.10711639  54.02343459
4598.00 -119.19686838  54.08637877
4600.00 -119.28663415  54.14936331
4602.00 -119.37641366  54.21238821
4604.00 -119.46620690  54.27545346
4606.00 -119.55601385  54.33855907
4608.00 -119.64583448  54.40170503
4610.00 -119.73566877  54.46489135
4612.00 -119.82551670  54.52811800
4614.00 -119.91537824  54.59138501
4616.00 -120.00525338  54.65469236
4618.00 -120.09514209  54.71804006
4620.00 -120.18504435  54.78142809
4622.00 -120.27496013  54.84485646
4624.00 -120.36488942  54.90832517
4626.00 -120.45483219  54.97183421
4628.00 -120.54478842  55.03538359
4630.00 -120.63475809  55.09897329
4632.00 -120.72474118  55.16260332
4634.00 -120.81473766  55.22627368
4636.00 -120.90474751  55.28998436
4638.00 -120.99477071  55.35373537
4640.00 -121.08480724  55.41752669
4642.00 -121.17485707  55.48135833
4644.00 -121.26492019  55.54523029
4646.00 -121.35499656  55.60914255
4648.00 -121.44508618  55.67309513
4650.00 -121.53518901  55.73708802
4652.00 -121.62530504  55.80112121
4654.00 -121.71543423  55.86519471
4656.00 -121.80557658  55.92930850
4658.00 -121.89573206  55.99346260
4660.00 -121.98590064  56.05765699
4662.00 -122.07608231  56.12189168
4664.00 -122.16627703  56.18616666
4666.00 -122.25648480  56.25048193
4668.00 -122.34670559  56.31483749
4670.00 -122.43693937  56.37923333
4672.00 -122.52718613  56.44366946
4674.00 -122.61744583  56.50814587
4676.00 -122.70771847  56.57266255
4678.00 -122.79800401  56.63721951
4680.00 -122.88830244  56.70181674
4682.00 -122.97861374  56.76645425
4684.00 -123.06893787  56.83113202
4686.00 -123.15927483  56.89585006
4688.00 -123.24962458  56.96060836
4690.00 -123.33998711  57.02540692
4692.00 -123.43036239  57.09024574
4694.00 -123.52075040  57.15512481
4696.00 -123.61115113  57.22004414
4698.00 -123.70156454  57.28500372
4700.00 -123.79199062  57.35000355
4702.00 -123.88242934  57.41504362
4704.00 -123.97288069  57.48012393
4706.00 -124.06334463  57.54524449
4708.00 -124.15382115  57.61040528
4710.00 -124.24431023  57.67560631
4712.00 -124.33481185  57.74084757
4714.00 -124.42532598  57.80612906
4716.00 -124.51585259  57.87145077
4718.00 -124.60639168  57.93681271
4720.00 -124.69694322  58.00221488
4722.00 -124.78750718  58.06765726
4724.00 -124.87808354  58.13313985
4726.00 -124.96867229  58.19866266
4728.00 -125.05927339  58.26422568
4730.00 -125.14988684  58.32982891
4732.00 -125.24051260  58.39547235
4734.00 -125.33115065  58.46115598
4736.00 -125.42180098  58.52687982
4738.00 -125.51246356  58.59264385
4740.00 -125.60313837  58.65844808
4742.00 -125.69382538  58.72429249
4744.00 -125.78452458  58.79017710
4746.00 -125.87523595  58.85610189
4748.00 -125.96595946  58.92206686
4750.00 -126.05669508  58.98807201
4752.00 -126.14744281  59.05411734
4754.00 -126.23820262  59.12020284
4756.00 -126.32897448  59.18632851
4758.00 -126.41975837  59.25249435
4760.00 -126.51055428  59.31870036
4762.00 -126.60136217  59.38494653
4764.00 -126.69218204  59.45123285
4766.00 -126.78301385  59.51755933
4768.00 -126.87385759  59.58392597
4770.00 -126.96471323  59.65033275
4772.00 -127.05558075  59.71677968
4774.00 -127.14646014  59.78326676
4776.00 -127.23735136  59.84979397
4778.00 -127.32825440  59.91636132
4780.00 -127.41916923  59.98296881
4782.00 -127.51009584  60.04961643
4784.00 -127.60103421  60.11630417
4786.00 -127.69198430  60.18303204
4788.00 -127.78294610  60.24980004
4790.00 -127.87391959  60.31660815
4792.00 -127.96490475  60.38345638
4794.00 -128.05590155  60.45034472
4796.00 -128.14690998  60.51727316
4798.00 -128.23793001  60.58424172
4800.00 -128.32896161  60.65125038
4802.00 -128.42000478  60.71829913
4804.00 -128.51105948  60.78538799
4806.00 -128.60212570  60.85251694
4808.00 -128.69320341  60.91968597
4810.00 -128.78429260  60.98689509
4812.00 -128.87539323  61.05414430
4814.00 -128.96650530  61.12143359
4816.00 -129.05762877  61.18876295
4818.00 -129.14876364  61.25613239
4820.00 -129.23990986  61.32354189
4822.00 -129.33106743  61.39099146
4824.00 -129.42223633  61.45848110
4826.00 -129.51341652  61.52601079
4828.00 -129.60460800  61.59358055
4830.00 -129.69581073  61.66119035
4832.00 -129.78702470  61.72884021
4834.00 -129.87824988  61.79653011
4836.00 -129.96948626  61.86426005
4838.00 -130.06073382  61.93203003
4840.00 -130.15199252  61.99984005
4842.00 -130.24326235  62.06769010
4844.00 -130.33454330  62.13558018
4846.00 -130.42583533  62.20351028
4848.00 -130.51713842  62.27148041
4850.00 -130.60845257  62.33949056
4852.00 -130.69977773  62.40754071
4854.00 -130.79111390  62.47563088
4856.00 -130.88246105  62.54376106
4858.00 -130.97381916  62.61193125
4860.00 -131.06518820  62.68014143
4862.00 -131.15656817  62.74839161
4864.00 -131.24795903  62.81668178
4866.00 -131.33936076  62.88501194
4868.00 -131.43077335  62.95338209
4870.00 -131.52219677  63.02179222
4872.00 -131.61363100  63.09024233
4874.00 -131.70507602  63.15873241
4876.00 -131.79653181  63.22726247
4878.00 -131.88799835  63.29583249
4880.00 -131.97947561  63.36444247
4882.00 -132.07096358  63.43309242
4884.00 -132.16246223  63.50178232
4886.00 -132.25397155  63.57051218
4888.00 -132.34549151  63.63928198
4890.00 -132.43702208  63.70809173
4892.00 -132.52856326  63.77694142
4894.00 -132.62011502  63.84583105
4896.00 -132.71167733  63.91476061
4898.00 -132.80325018  63.98373010
4900.00 -132.89483354  64.05273952
4902.00 -132.98642740  64.12178886
4904.00 -133.07803173  64.19087811
4906.00 -133.16964651  64.26000729
4908.00 -133.26127172  64.32917637
4910.00 -133.35290734  64.39838536
4912.00 -133.44455335  64.46763425
4914.00 -133.53620973  64.53692304
4916.00 -133.62787645  64.60625172
4918.00 -133.71955350  64.67562030
4920.00 -133.81124086  64.74502876
4922.00 -133.90293849  64.81447711
4924.00 -133.99464639  64.88396533
4926.00 -134.08636454  64.95349343
4928.00 -134.17809290  65.02306140
4930.00 -134.26983146  65.09266924
4932.00 -134.36158020  65.16231694
4934.00 -134.45333909  65.23200450
4936.00 -134.54510813  65.30173192
4938.00 -134.63688728  65.37149918
4940.00 -134.72867652  65.44130629
4942.00 -134.82047584  65.51115325
4944.00 -134.91228521  65.58104004
4946.00 -135.00410461  65.65096667
4948.00 -135.09593403  65.72093312
4950.00 -135.18777343  65.79093941
4952.00 -135.27962281  65.86098551
4954.00 -135.37148213  65.93107144
4956.00 -135.46335138  66.00119717
4958.00 -135.55523054  66.07136272
4960.00 -135.64711958  66.14156807
4962.00 -135.73901849  66.21181322
4964.00 -135.83092724  66.28209817
4966.00 -135.92284582  66.35242292
4968.00 -136.01477420  66.42278745
4970.00 -136.10671236  66.49319176
4972.00 -136.19866028  66.56363586
4974.00 -136.29061794  66.63411973
4976.00 -136.38258533  66.70464337
4978.00 -136.47456241  66.77520678
4980.00 -136.56654917  66.84580995
4982.00 -136.65854558  66.91645288
4984.00 -136.75055164  66.98713556
4986.00 -136.84256731  67.05785799
4988.00 -136.93459257  67.12862017
4990.00 -137.02662741  67.19942209
4992.00 -137.11867180  67.27026374
4994.00 -137.21072573  67.34114513
4996.00 -137.30278917  67.41206625
4998.00 -137.39486210  67.48302709
5000.00 -137.48694450  67.55402764
