wavelength(nm)         real         imag
100.00   3.72432871   0.00167870
102.00   3.71723226   0.00178144
104.00   3.70999534   0.00188829
106.00   3.70261796   0.00199933
108.00   3.69510012   0.00211464
110.00   3.68744181   0.00223431
112.00   3.67964305   0.00235840
114.00   3.67170383   0.00248700
116.00   3.66362417   0.00262019
118.00   3.65540405   0.00275806
120.00   3.64704350   0.00290067
122.00   3.63854251   0.00304813
124.00   3.62990108   0.00320049
126.00   3.62111922   0.00335785
128.00   3.61219693   0.00352028
130.00   3.60313422   0.00368787
132.00   3.59393109   0.00386069
134.00   3.58458754   0.00403883
136.00   3.57510358   0.00422236
138.00   3.56547921   0.00441138
140.00   3.55571444   0.00460595
142.00   3.54580927   0.00480615
144.00   3.53576371   0.00501208
146.00   3.52557776   0.00522380
148.00   3.51525142   0.00544140
150.00   3.50478470   0.00566496
152.00   3.49417760   0.00589456
154.00   3.48343013   0.00613028
156.00   3.47254229   0.00637220
158.00   3.46151409   0.00662041
160.00   3.45034554   0.00687497
162.00   3.43903663   0.00713598
164.00   3.42758737   0.00740350
166.00   3.41599777   0.00767763
168.00   3.40426783   0.00795845
170.00   3.39239756   0.00824602
172.00   3.38038696   0.00854044
174.00   3.36823604   0.00884179
176.00   3.35594480   0.00915014
178.00   3.34351325   0.00946557
180.00   3.33094140   0.00978817
182.00   3.31822924   0.01011801
184.00   3.30537679   0.01045518
186.00   3.29238405   0.01079976
188.00   3.27925103   0.01115182
190.00   3.26597773   0.01151145
192.00   3.25256415   0.01187873
194.00   3.23901031   0.01225373
196.00   3.22531621   0.01263654
198.00   3.21148186   0.01302724
200.00   3.19750725   0.01342591
202.00   3.18339241   0.01383263
204.00   3.16913733   0.01424747
206.00   3.15474202   0.01467053
208.00   3.14020648   0.01510187
210.00   3.12553073   0.01554159
212.00   3.11071477   0.01598975
214.00   3.09575861   0.01644645
216.00   3.08066224   0.01691175
218.00   3.06542569   0.01738575
220.00   3.05004895   0.01786852
222.00   3.03453203   0.01836014
224.00   3.01887495   0.01886069
226.00   3.00307770   0.01937025
228.00   2.98714029   0.01988890
230.00   2.97106273   0.02041673
232.00   2.95484503   0.02095381
234.00   2.93848719   0.02150022
236.00   2.92198923   0.02205604
238.00   2.90535114   0.02262136
240.00   2.88857294   0.02319625
242.00   2.87165463   0.02378079
244.00   2.85459622   0.02437507
246.00   2.83739772   0.02497916
248.00   2.82005914   0.02559314
250.00   2.80258048   0.02621710
252.00   2.78496175   0.02685111
254.00   2.76720296   0.02749526
256.00   2.74930411   0.02814962
258.00   2.73126522   0.02881427
260.00   2.71308629   0.02948930
262.00   2.69476733   0.03017478
264.00   2.67630835   0.03087080
266.00   2.65770935   0.03157743
268.00   2.63897035   0.03229476
270.00   2.62009135   0.03302286
272.00   2.60107236   0.03376182
274.00   2.58191339   0.03451171
276.00   2.56261445   0.03527261
278.00   2.54317554   0.03604462
280.00   2.52359668   0.03682779
282.00   2.50387787   0.03762222
284.00   2.48401912   0.03842799
286.00   2.46402044   0.03924517
288.00   2.44388184   0.04007385
290.00   2.42360333   0.04091410
292.00   2.40318492   0.04176601
294.00   2.38262661   0.04262965
296.00   2.36192841   0.04350510
298.00   2.34109034   0.04439245
300.00   2.32011240   0.04529178
302.00   2.29899460   0.04620316
304.00   2.27773696   0.04712667
306.00   2.25633947   0.04806240
308.00   2.23480215   0.04901043
310.00   2.21312501   0.04997083
312.00   2.19130807   0.05094368
314.00   2.16935131   0.05192906
316.00   2.14725477   0.05292706
318.00   2.12501845   0.05393776
320.00   2.10264235   0.05496123
322.00   2.08012648   0.05599755
324.00   2.05747087   0.05704680
326.00   2.03467551   0.05810907
328.00   2.01174042   0.05918443
330.00   1.98866560   0.06027296
332.00   1.96545107   0.06137475
334.00   1.94209684   0.06248987
336.00   1.91860292   0.06361840
338.00   1.89496931   0.06476042
340.00   1.87119603   0.06591601
342.00   1.84728309   0.06708526
344.00   1.82323049   0.06826824
346.00   1.79903826   0.06946502
348.00   1.77470639   0.07067570
350.00   1.75023491   0.07190035
352.00   1.72562381   0.07313904
354.00   1.70087312   0.07439187
356.00   1.67598284   0.07565891
358.00   1.65095298   0.07694023
360.00   1.62578356   0.07823593
362.00   1.60047458   0.07954607
364.00   1.57502606   0.08087074
366.00   1.54943800   0.08221002
368.00   1.52371043   0.08356398
370.00   1.49784334   0.08493271
372.00   1.47183676   0.08631629
374.00   1.44569068   0.08771479
376.00   1.41940514   0.08912830
378.00   1.39298012   0.09055689
380.00   1.36641566   0.09200065
382.00   1.33971175   0.09345965
384.00   1.31286841   0.09493398
386.00   1.28588565   0.09642371
388.00   1.25876349   0.09792892
390.00   1.23150193   0.09944969
392.00   1.20410099   0.10098610
394.00   1.17656068   0.10253824
396.00   1.14888101   0.10410618
398.00   1.12106200   0.10568999
400.00   1.09310365   0.10728977
402.00   1.06500598   0.10890558
404.00   1.03676899   0.11053751
406.00   1.00839271   0.11218564
408.00   0.97987715   0.11385005
410.00   0.95122231   0.11553081
412.00   0.92242821   0.11722801
414.00   0.89349487   0.11894172
416.00   0.86442228   0.12067203
418.00   0.83521048   0.12241901
420.00   0.80585947   0.12418275
422.00   0.77636926   0.12596331
424.00   0.74673986   0.12776079
426.00   0.71697130   0.12957526
428.00   0.68706357   0.13140680
430.00   0.65701670   0.13325549
432.00   0.62683070   0.13512140
434.00   0.59650558   0.13700463
436.00   0.56604136   0.13890524
438.00   0.53543804   0.14082332
440.00   0.50469564   0.14275894
442.00   0.47381418   0.14471219
444.00   0.44279366   0.14668314
446.00   0.41163411   0.14867188
448.00   0.38033553   0.15067847
450.00   0.34889794   0.15270301
452.00   0.31732136   0.15474557
454.00   0.28560579   0.15680623
456.00   0.25375124   0.15888506
458.00   0.22175775   0.16098216
460.00   0.18962531   0.16309759
462.00   0.15735394   0.16523143
464.00   0.12494366   0.16738377
466.00   0.09239447   0.16955469
468.00   0.05970641   0.17174425
470.00   0.02687947   0.17395255
472.00  -0.00608633   0.17617966
474.00  -0.03919097   0.17842566
476.00  -0.07243444   0.18069063
478.00  -0.10581672   0.18297464
480.00  -0.13933780   0.18527778
482.00  -0.17299767   0.18760013
484.00  -0.20679631   0.18994176
486.00  -0.24073370   0.19230275
488.00  -0.27480984   0.19468319
490.00  -0.30902470   0.19708315
492.00  -0.34337827   0.19950270
494.00  -0.37787053   0.20194194
496.00  -0.41250148   0.20440093
498.00  -0.44727109   0.20687976
500.00  -0.48217936   0.20937850
502.00  -0.51722626   0.21189724
504.00  -0.55241178   0.21443605
506.00  -0.58773591   0.21699501
508.00  -0.62319862   0.21957420
510.00  -0.65879991   0.22217370
512.00  -0.69453976   0.22479358
514.00  -0.73041815   0.22743393
516.00  -0.76643507   0.23009483
518.00  -0.80259050   0.23277635
520.00  -0.83888443   0.23547857
522.00  -0.87531684   0.23820158
524.00  -0.91188771   0.24094544
526.00  -0.94859703   0.24371024
528.00  -0.98544479   0.24649605
530.00  -1.02243096   0.24930296
532.00  -1.05955553   0.25213104
534.00  -1.09681848   0.25498038
536.00  -1.13421981   0.25785105
538.00  -1.17175948   0.26074312
540.00  -1.20943749   0.26365668
542.00  -1.24725382   0.26659181
544.00  -1.28520846   0.26954858
546.00  -1.32330138   0.27252708
548.00  -1.36153257   0.27552738
550.00  -1.39990201   0.27854955
552.00  -1.43840969   0.28159369
554.00  -1.47705559   0.28465986
556.00  -1.51583969   0.28774814
558.00  -1.55476198   0.29085862
560.00  -1.59382243   0.29399137
562.00  -1.63302104   0.29714647
564.00  -1.67235778   0.30032399
566.00  -1.71183265   0.30352403
568.00  -1.75144561   0.30674665
570.00  -1.79119666   0.30999193
572.00  -1.83108577   0.31325995
574.00  -1.87111293   0.31655079
576.00  -1.91127812   0.31986453
578.00  -1.95158133   0.32320124
580.00  -1.99202254   0.32656101
582.00  -2.03260172   0.32994391
584.00  -2.07331886   0.33335002
586.00  -2.11417395   0.33677941
588.00  -2.15516697   0.34023218
590.00  -2.19629789   0.34370838
592.00  -2.23756671   0.34720811
594.00  -2.27897339   0.35073144
596.00  -2.32051793   0.35427845
598.00  -2.36220031   0.35784922
600.00  -2.40402051   0.36144382
602.00  -2.44597850   0.36506233
604.00  -2.48807428   0.36870483
606.00  -2.53030782   0.37237140
608.00  -2.57267911   0.37606212
610.00  -2.61518813   0.37977706
612.00  -2.65783485   0.38351630
614.00  -2.70061926   0.38727993
616.00  -2.74354135   0.39106801
618.00  -2.78660109   0.39488062
620.00  -2.82979846   0.39871785
622.00  -2.87313345   0.40257977
624.00  -2.91660603   0.40646646
626.00  -2.96021619   0.41037800
628.00  -3.00396392   0.41431446
630.00  -3.04784918   0.41827592
632.00  -3.09187196   0.42226247
634.00  -3.13603224   0.42627417
636.00  -3.18033001   0.43031110
638.00  -3.22476524   0.43437335
640.00  -3.26933792   0.43846099
642.00  -3.31404802   0.44257410
644.00  -3.35889552   0.44671275
646.00  -3.40388041   0.45087702
648.00  -3.44900267   0.45506700
650.00  -3.49426228   0.45928276
652.00  -3.53965921   0.46352437
654.00  -3.58519345   0.46779191
656.00  -3.63086498   0.47208547
658.00  -3.67667378   0.47640512
660.00  -3.72261982   0.48075093
662.00  -3.76870310   0.48512298
664.00  -3.81492358   0.48952135
666.00  -3.86128125   0.49394613
668.00  -3.90777609   0.49839738
670.00  -3.95440808   0.50287518
672.00  -4.00117720   0.50737961
674.00  -4.04808342   0.51191075
676.00  -4.09512674   0.51646867
678.00  -4.14230712   0.52105346
680.00  -4.18962454   0.52566518
682.00  -4.23707900   0.53030392
684.00  -4.28467046   0.53496976
686.00  -4.33239890   0.53966277
688.00  -4.38026431   0.54438302
690.00  -4.42826666   0.54913060
692.00  -4.47640594   0.55390559
694.00  -4.52468211   0.55870805
696.00  -4.57309517   0.56353807
698.00  -4.62164509   0.56839572
700.00  -4.67033185   0.57328108
702.00  -4.71915543   0.57819424
704.00  -4.76811581   0.58313525
706.00  -4.81721296   0.58810421
708.00  -4.86644686   0.59310119
710.00  -4.91581750   0.59812627
712.00  -4.96532486   0.60317951
714.00  -5.01496890   0.60826101
716.00  -5.06474961   0.61337083
718.00  -5.11466697   0.61850906
720.00  -5.16472096   0.62367577
722.00  -5.21491155   0.62887103
724.00  -5.26523872   0.63409493
726.00  -5.31570246   0.63934754
728.00  -5.36630273   0.64462894
730.00  -5.41703953   0.64993920
732.00  -5.46791282   0.65527840
734.00  -5.51892258   0.66064663
736.00  -5.57006879   0.66604394
738.00  -5.62135143   0.67147043
740.00  -5.67277048   0.67692616
742.00  -5.72432592   0.68241122
744.00  -5.77601772   0.68792568
746.00  -5.82784586   0.69346962
748.00  -5.87981032   0.69904312
750.00  -5.93191107   0.70464624
752.00  -5.98414810   0.71027907
754.00  -6.03652138   0.71594169
756.00  -6.08903088   0.72163416
758.00  -6.14167659   0.72735658
760.00  -6.19445849   0.73310900
762.00  -6.24737654   0.73889152
764.00  -6.30043073   0.74470420
766.00  -6.35362104   0.75054713
768.00  -6.40694744   0.75642037
770.00  -6.46040990   0.76232401
772.00  -6.51400841   0.76825812
774.00  -6.56774295   0.77422278
776.00  -6.62161348   0.78021806
778.00  -6.67561999   0.78624404
780.00  -6.72976245   0.79230080
782.00  -6.78404084   0.79838841
784.00  -6.83845513   0.80450696
786.00  -6.89300531   0.81065650
788.00  -6.94769135   0.81683713
790.00  -7.00251322   0.82304892
792.00  -7.05747091   0.82929193
794.00  -7.11256438   0.83556626
796.00  -7.16779362   0.84187198
798.00  -7.22315859   0.84820915
800.00  -7.27865929   0.85457787
802.00  -7.33429567   0.86097819
804.00  -7.39006773   0.86741021
806.00  -7.44597543   0.87387399
808.00  -7.50201875   0.88036962
810.00  -7.55819766   0.88689716
812.00  -7.61451215   0.89345669
814.00  -7.67096219   0.90004829
816.00  -7.72754775   0.90667204
818.00  -7.78426881   0.91332801
820.00  -7.84112534   0.92001628
822.00  -7.89811733   0.92673691
824.00  -7.95524474   0.93349000
826.00  -8.01250756   0.94027561
828.00  -8.06990575   0.94709382
830.00  -8.12743929   0.95394470
832.00  -8.18510816   0.96082833
834.00  -8.24291233   0.96774479
836.00  -8.30085178   0.97469416
838.00  -8.35892648   0.98167650
840.00  -8.41713641   0.98869189
842.00  -8.47548155   0.99574041
844.00  -8.53396186   1.00282213
846.00  -8.59257732   1.00993714
848.00  -8.65132791   1.01708550
850.00  -8.71021360   1.02426729
852.00  -8.76923437   1.03148258
854.00  -8.82839019   1.03873146
856.00  -8.88768104   1.04601399
858.00  -8.94710689   1.05333026
860.00  -9.00666771   1.06068033
862.00  -9.06636348   1.06806428
864.00  -9.12619418   1.07548219
866.00  -9.18615978   1.08293414
868.00  -9.24626024   1.09042019
870.00  -9.30649556   1.09794043
872.00  -9.36686569   1.10549492
874.00  -9.42737062   1.11308375
876.00  -9.48801032   1.12070698
878.00  -9.54878476   1.12836470
880.00  -9.60969391   1.13605698
882.00  -9.67073776   1.14378390
884.00  -9.73191627   1.15154552
886.00  -9.79322942   1.15934192
888.00  -9.85467718   1.16717319
890.00  -9.91625953   1.17503938
892.00  -9.97797644   1.18294059
894.00 -10.03982788   1.19087688
896.00 -10.10181382   1.19884833
898.00 -10.16393424   1.20685501
900.00 -10.22618912   1.21489700
902.00 -10.28857842   1.22297437
904.00 -10.35110213   1.23108720
906.00 -10.41376020   1.23923556
908.00 -10.47655262   1.24741953
910.00 -10.53947936   1.25563919
912.00 -10.60254039   1.26389459
914.00 -10.66573569   1.27218583
916.00 -10.72906523   1.28051298
918.00 -10.79252897   1.28887610
920.00 -10.85612690   1.29727528
922.00 -10.91985898   1.30571059
924.00 -10.98372520   1.31418210
926.00 -11.04772551   1.32268989
928.00 -11.11185990   1.33123404
930.00 -11.17612834   1.33981461
932.00 -11.24053079   1.34843168
934.00 -11.30506724   1.35708533
936.00 -11.36973765   1.36577563
938.00 -11.43454200   1.37450265
940.00 -11.49948025   1.38326647
942.00 -11.56455239   1.39206717
944.00 -11.62975838   1.40090481
946.00 -11.69509819   1.40977948
948.00 -11.76057180   1.41869124
950.00 -11.82617918   1.42764017
952.00 -11.89192030   1.43662634
954.00 -11.95779514   1.44564984
956.00 -12.02380366   1.45471072
958.00 -12.08994583   1.46380908
960.00 -12.15622164   1.47294497
962.00 -12.22263104   1.48211848
964.00 -12.28917402   1.49132967
966.00 -12.35585054   1.50057863
968.00 -12.42266057   1.50986543
970.00 -12.48960409   1.51919013
972.00 -12.55668107   1.52855282
974.00 -12.62389148   1.53795357
976.00 -12.69123528   1.54739245
978.00 -12.75871246   1.55686954
980.00 -12.82632298   1.56638490
982.00 -12.89406681   1.57593862
984.00 -12.96194393   1.58553076
986.00 -13.02995431   1.59516141
988.00 -13.09809791   1.60483063
990.00 -13.16637471   1.61453850
992.00 -13.23478468   1.62428509
994.00 -13.30332778   1.63407047
996.00 -13.37200400   1.64389473
998.00 -13.44081330   1.65375792
1000.00 -13.50975565   1.66366013
1002.00 -13.57883102   1.67360143
1004.00 -13.64803938   1.68358190
1006.00 -13.71738071   1.69360160
1008.00 -13.78685497   1.70366060
1010.00 -13.85646214   1.71375899
1012.00 -13.92620218   1.72389684
1014.00 -13.99607506   1.73407422
1016.00 -14.06608076   1.74429120
1018.00 -14.13621924   1.75454785
1020.00 -14.20649048   1.76484426
1022.00 -14.27689444   1.77518048
1024.00 -14.34743110   1.78555661
1026.00 -14.41810043   1.79597270
1028.00 -14.48890239   1.80642883
1030.00 -14.55983695   1.81692508
1032.00 -14.63090409   1.82746151
1034.00 -14.70210377   1.83803821
1036.00 -14.77343597   1.84865524
1038.00 -14.84490065   1.85931268
1040.00 -14.91649778   1.87001059
1042.00 -14.98822734   1.88074906
1044.00 -15.06008929   1.89152816
1046.00 -15.13208360   1.90234795
1048.00 -15.20421024   1.91320852
1050.00 -15.27646918   1.92410992
1052.00 -15.34886039   1.93505225
1054.00 -15.42138384   1.94603557
1056.00 -15.49403950   1.95705994
1058.00 -15.56682734   1.96812545
1060.00 -15.63974732   1.97923217
1062.00 -15.71279941   1.99038017
1064.00 -15.78598360   2.00156953
1066.00 -15.85929983   2.01280031
1068.00 -15.93274809   2.02407258
1070.00 -16.00632833   2.03538643
1072.00 -16.08004054   2.04674192
1074.00 -16.15388467   2.05813912
1076.00 -16.22786070   2.06957812
1078.00 -16.30196860   2.08105897
1080.00 -16.37620833   2.09258175
1082.00 -16.45057986   2.10414654
1084.00 -16.52508317   2.11575341
1086.00 -16.59971821   2.12740243
1088.00 -16.67448496   2.13909366
1090.00 -16.74938339   2.15082720
1092.00 -16.82441345   2.16260309
1094.00 -16.89957514   2.17442143
1096.00 -16.97486840   2.18628228
1098.00 -17.05029321   2.19818571
1100.00 -17.12584954   2.21013179
1102.00 -17.20153735   2.22212060
1104.00 -17.27735661   2.23415221
1106.00 -17.35330729   2.24622669
1108.00 -17.42938937   2.25834411
1110.00 -17.50560279   2.27050454
1112.00 -17.58194754   2.28270806
1114.00 -17.65842358   2.29495474
1116.00 -17.73503088   2.30724465
1118.00 -17.81176941   2.31957786
1120.00 -17.88863913   2.33195445
1122.00 -17.96564001   2.34437448
1124.00 -18.04277202   2.35683802
1126.00 -18.12003512   2.36934516
1128.00 -18.19742929   2.38189595
1130.00 -18.27495449   2.39449048
1132.00 -18.35261068   2.40712881
1134.00 -18.43039784   2.41981101
1136.00 -18.50831593   2.43253716
1138.00 -18.58636492   2.44530733
1140.00 -18.66454478   2.45812159
1142.00 -18.74285547   2.47098001
1144.00 -18.82129696   2.48388266
1146.00 -18.89986921   2.49682962
1148.00 -18.97857220   2.50982095
1150.00 -19.05740588   2.52285672
1152.00 -19.13637024   2.53593701
1154.00 -19.21546522   2.54906190
1156.00 -19.29469081   2.56223144
1158.00 -19.37404696   2.57544571
1160.00 -19.45353365   2.58870479
1162.00 -19.53315083   2.60200873
1164.00 -19.61289848   2.61535763
1166.00 -19.69277656   2.62875153
1168.00 -19.77278504   2.64219053
1170.00 -19.85292389   2.65567468
1172.00 -19.93319306   2.66920406
1174.00 -20.01359253   2.68277874
1176.00 -20.09412226   2.69639879
1178.00 -20.17478222   2.71006428
1180.00 -20.25557238   2.72377528
1182.00 -20.33649270   2.73753186
1184.00 -20.41754314   2.75133410
1186.00 -20.49872367   2.76518206
1188.00 -20.58003427   2.77907582
1190.00 -20.66147488   2.79301544
1192.00 -20.74304549   2.80700100
1194.00 -20.82474605   2.82103257
1196.00 -20.90657653   2.83511021
1198.00 -20.98853690   2.84923400
1200.00 -21.07062711   2.86340401
1202.00 -21.15284715   2.87762031
1204.00 -21.23519696   2.89188297
1206.00 -21.31767653   2.90619206
1208.00 -21.40028581   2.92054764
1210.00 -21.48302476   2.93494980
1212.00 -21.56589336   2.94939860
1214.00 -21.64889156   2.96389411
1216.00 -21.73201934   2.97843640
1218.00 -21.81527666   2.99302554
1220.00 -21.89866348   3.00766161
1222.00 -21.98217977   3.02234466
1224.00 -22.06582549   3.03707478
1226.00 -22.14960061   3.05185203
1228.00 -22.23350509   3.06667648
1230.00 -22.31753890   3.08154821
1232.00 -22.40170200   3.09646727
1234.00 -22.48599435   3.11143375
1236.00 -22.57041593   3.12644771
1238.00 -22.65496670   3.14150923
1240.00 -22.73964661   3.15661836
1242.00 -22.82445564   3.17177519
1244.00 -22.90939374   3.18697977
1246.00 -22.99446089   3.20223219
1248.00 -23.07965705   3.21753251
1250.00 -23.16498218   3.23288080
1252.00 -23.25043624   3.24827713
1254.00 -23.33601920   3.26372157
1256.00 -23.42173103   3.27921419
1258.00 -23.50757169   3.29475506
1260.00 -23.59354113   3.31034425
1262.00 -23.67963934   3.32598182
1264.00 -23.76586626   3.34166785
1266.00 -23.85222186   3.35740241
1268.00 -23.93870612   3.37318557
1270.00 -24.02531898   3.38901739
1272.00 -24.11206042   3.40489795
1274.00 -24.19893040   3.42082731
1276.00 -24.28592887   3.43680554
1278.00 -24.37305582   3.45283272
1280.00 -24.46031119   3.46890891
1282.00 -24.54769496   3.48503418
1284.00 -24.63520708   3.50120860
1286.00 -24.72284752   3.51743224
1288.00 -24.81061624   3.53370516
1290.00 -24.89851320   3.55002745
1292.00 -24.98653838   3.56639916
1294.00 -25.07469173   3.58282037
1296.00 -25.16297321   3.59929114
1298.00 -25.25138279   3.61581154
1300.00 -25.33992043   3.63238165
1302.00 -25.42858609   3.64900152
1304.00 -25.51737974   3.66567124
1306.00 -25.60630135   3.68239086
1308.00 -25.69535086   3.69916046
1310.00 -25.78452825   3.71598011
1312.00 -25.87383347   3.73284987
1314.00 -25.96326650   3.74976982
1316.00 -26.05282729   3.76674001
1318.00 -26.14251580   3.78376053
1320.00 -26.23233201   3.80083143
1322.00 -26.32227586   3.81795279
1324.00 -26.41234733   3.83512468
1326.00 -26.50254637   3.85234716
1328.00 -26.59287295   3.86962030
1330.00 -26.68332703   3.88694418
1332.00 -26.77390857   3.90431885
1334.00 -26.86461754   3.92174439
1336.00 -26.95545389   3.93922086
1338.00 -27.04641759   3.95674834
1340.00 -27.13750860   3.97432689
1342.00 -27.22872689   3.99195658
1344.00 -27.32007240   4.00963748
1346.00 -27.41154512   4.02736965
1348.00 -27.50314499   4.04515317
1350.00 -27.59487198   4.06298809
1352.00 -27.68672606   4.08087450
1354.00 -27.77870718   4.09881246
1356.00 -27.87081530   4.11680203
1358.00 -27.96305039   4.13484329
1360.00 -28.05541241   4.15293629
1362.00 -28.14790132   4.17108112
1364.00 -28.24051708   4.18927783
1366.00 -28.33325965   4.20752650
1368.00 -28.42612899   4.22582719
1370.00 -28.51912508   4.24417997
1372.00 -28.61224785   4.26258490
1374.00 -28.70549729   4.28104206
1376.00 -28.79887334   4.29955151
1378.00 -28.89237598   4.31811333
1380.00 -28.98600515   4.33672757
1382.00 -29.07976083   4.35539430
1384.00 -29.17364297   4.37411360
1386.00 -29.26765154   4.39288553
1388.00 -29.36178649   4.41171015
1390.00 -29.45604779   4.43058754
1392.00 -29.55043539   4.44951775
1394.00 -29.64494926   4.46850087
1396.00 -29.73958936   4.48753695
1398.00 -29.83435565   4.50662607
1400.00 -29.92924808   4.52576828
1402.00 -30.02426663   4.54496366
1404.00 -30.11941125   4.56421228
1406.00 -30.21468190   4.58351419
1408.00 -30.31007854   4.60286948
1410.00 -30.40560113   4.62227820
1412.00 -30.50124963   4.64174041
1414.00 -30.59702401   4.66125620
1416.00 -30.69292422   4.68082563
1418.00 -30.78895022   4.70044875
1420.00 -30.88510198   4.72012564
1422.00 -30.98137945   4.73985637
1424.00 -31.07778259   4.75964100
1426.00 -31.17431137   4.77947960
1428.00 -31.27096574   4.79937224
1430.00 -31.36774566   4.81931897
1432.00 -31.46465110   4.83931987
1434.00 -31.56168200   4.85937501
1436.00 -31.65883835   4.87948445
1438.00 -31.75612008   4.89964826
1440.00 -31.85352716   4.91986650
1442.00 -31.95105956   4.94013924
1444.00 -32.04871723   4.96046655
1446.00 -32.14650013   4.98084848
1448.00 -32.24440822   5.00128512
1450.00 -32.34244146   5.02177652
1452.00 -32.44059981   5.04232276
1454.00 -32.53888323   5.06292389
1456.00 -32.63729168   5.08357998
1458.00 -32.73582511   5.10429111
1460.00 -32.83448349   5.12505732
1462.00 -32.93326678   5.14587870
1464.00 -33.03217493   5.16675531
1466.00 -33.13120791   5.18768721
1468.00 -33.23036567   5.20867447
1470.00 -33.32964817   5.22971715
1472.00 -33.42905537   5.25081532
1474.00 -33.52858723   5.27196905
1476.00 -33.62824372   5.29317840
1478.00 -33.72802478   5.31444344
1480.00 -33.82793037   5.33576423
1482.00 -33.92796046   5.35714084
1484.00 -34.02811501   5.37857333
1486.00 -34.12839397   5.40006177
1488.00 -34.22879730   5.42160623
1490.00 -34.32932496   5.44320676
1492.00 -34.42997690   5.46486345
1494.00 -34.53075310   5.48657634
1496.00 -34.63165350   5.50834551
1498.00 -34.73267806   5.53017102
1500.00 -34.83382675   5.55205294
1502.00 -34.93509952   5.57399133
1504.00 -35.03649632   5.59598626
1506.00 -35.13801712   5.61803779
1508.00 -35.23966188   5.64014598
1510.00 -35.34143055   5.66231091
1512.00 -35.44332309   5.68453264
1514.00 -35.54533946   5.70681123
1516.00 -35.64747962   5.72914674
1518.00 -35.74974352   5.75153925
1520.00 -35.85213113   5.77398881
1522.00 -35.95464240   5.79649550
1524.00 -36.05727728   5.81905937
1526.00 -36.16003575   5.84168049
1528.00 -36.26291774   5.86435893
1530.00 -36.36592323   5.88709475
1532.00 -36.46905217   5.90988802
1534.00 -36.57230452   5.93273879
1536.00 -36.67568023   5.95564714
1538.00 -36.77917926   5.97861313
1540.00 -36.88280158   6.00163682
1542.00 -36.98654713   6.02471827
1544.00 -37.09041587   6.04785756
1546.00 -37.19440777   6.07105475
1548.00 -37.29852277   6.09430990
1550.00 -37.40276085   6.11762307
1552.00 -37.50712194   6.14099433
1554.00 -37.61160602   6.16442374
1556.00 -37.71621304   6.18791137
1558.00 -37.82094295   6.21145728
1560.00 -37.92579571   6.23506154
1562.00 -38.03077128   6.25872420
1564.00 -38.13586962   6.28244534
1566.00 -38.24109068   6.30622502
1568.00 -38.34643442   6.33006330
1570.00 -38.45190079   6.35396024
1572.00 -38.55748976   6.37791591
1574.00 -38.66320128   6.40193038
1576.00 -38.76903531   6.42600370
1578.00 -38.87499180   6.45013594
1580.00 -38.98107071   6.47432716
1582.00 -39.08727200   6.49857744
1584.00 -39.19359562   6.52288682
1586.00 -39.30004153   6.54725538
1588.00 -39.40660969   6.57168318
1590.00 -39.51330005   6.59617027
1592.00 -39.62011256   6.62071674
1594.00 -39.72704720   6.64532263
1596.00 -39.83410390   6.66998801
1598.00 -39.94128263   6.69471295
1600.00 -40.04858335   6.71949750
1602.00 -40.15600600   6.74434174
1604.00 -40.26355055   6.76924572
1606.00 -40.37121696   6.79420951
1608.00 -40.47900517   6.81923317
1610.00 -40.58691514   6.84431677
1612.00 -40.69494684   6.86946036
1614.00 -40.80310021   6.89466401
1616.00 -40.91137521   6.91992779
1618.00 -41.01977180   6.94525175
1620.00 -41.12828994   6.97063596
1622.00 -41.23692957   6.99608048
1624.00 -41.34569066   7.02158537
1626.00 -41.45457316   7.04715071
1628.00 -41.56357702   7.07277654
1630.00 -41.67270221   7.09846293
1632.00 -41.78194867   7.12420995
1634.00 -41.89131636   7.15001766
1636.00 -42.00080525   7.17588612
1638.00 -42.11041527   7.20181539
1640.00 -42.22014640   7.22780553
1642.00 -42.32999857   7.25385661
1644.00 -42.43997176   7.27996870
1646.00 -42.55006591   7.30614184
1648.00 -42.66028099   7.33237611
1650.00 -42.77061693   7.35867157
1652.00 -42.88107371   7.38502827
1654.00 -42.99165127   7.41144629
1656.00 -43.10234957   7.43792568
1658.00 -43.21316857   7.46446650
1660.00 -43.32410821   7.49106883
1662.00 -43.43516846   7.51773271
1664.00 -43.54634927   7.54445821
1666.00 -43.65765059   7.57124540
1668.00 -43.76907239   7.59809433
1670.00 -43.88061460   7.62500507
1672.00 -43.99227720   7.65197768
1674.00 -44.10406013   7.67901222
1676.00 -44.21596334   7.70610875
1678.00 -44.32798680   7.73326733
1680.00 -44.44013046   7.76048804
1682.00 -44.55239426   7.78777091
1684.00 -44.66477818   7.81511603
1686.00 -44.77728215   7.84252345
1688.00 -44.88990614   7.86999323
1690.00 -45.00265009   7.89752543
1692.00 -45.11551397   7.92512012
1694.00 -45.22849773   7.95277735
1696.00 -45.34160132   7.98049720
1698.00 -45.45482469   8.00827971
1700.00 -45.56816781   8.03612495
1702.00 -45.68163061   8.06403298
1704.00 -45.79521307   8.09200386
1706.00 -45.90891513   8.12003766
1708.00 -46.02273674   8.14813443
1710.00 -46.13667787   8.17629423
1712.00 -46.25073845   8.20451714
1714.00 -46.36491846   8.23280320
1716.00 -46.47921784   8.26115247
1718.00 -46.59363654   8.28956503
1720.00 -46.70817452   8.31804093
1722.00 -46.82283173   8.34658023
1724.00 -46.93760813   8.37518298
1726.00 -47.05250367   8.40384927
1728.00 -47.16751830   8.43257913
1730.00 -47.28265198   8.46137264
1732.00 -47.39790466   8.49022985
1734.00 -47.51327630   8.51915082
1736.00 -47.62876684   8.54813562
1738.00 -47.74437624   8.57718431
1740.00 -47.86010446   8.60629694
1742.00 -47.97595144   8.63547357
1744.00 -48.09191714   8.66471428
1746.00 -48.20800152   8.69401911
1748.00 -48.32420453   8.72338812
1750.00 -48.44052611   8.75282139
1752.00 -48.55696623   8.78231896
1754.00 -48.67352483   8.81188090
1756.00 -48.79020188   8.84150726
1758.00 -48.90699731   8.87119811
1760.00 -49.02391109   8.90095351
1762.00 -49.14094317   8.93077352
1764.00 -49.25809350   8.96065819
1766.00 -49.37536203   8.99060759
1768.00 -49.49274872   9.02062178
1770.00 -49.61025352   9.05070081
1772.00 -49.72787638   9.08084475
1774.00 -49.84561726   9.11105366
1776.00 -49.96347610   9.14132759
1778.00 -50.08145286   9.17166660
1780.00 -50.19954750   9.20207076
1782.00 -50.31775996   9.23254013
1784.00 -50.43609020   9.26307476
1786.00 -50.55453816   9.29367471
1788.00 -50.67310381   9.32434004
1790.00 -50.79178710   9.35507082
1792.00 -50.91058797   9.38586709
1794.00 -51.02950638   9.41672893
1796.00 -51.14854228   9.44765638
1798.00 -51.26769563   9.47864951
1800.00 -51.38696637   9.50970838
1802.00 -51.50635446   9.54083305
1804.00 -51.62585985   9.57202358
1806.00 -51.74548249   9.60328001
1808.00 -51.86522234   9.63460242
1810.00 -51.98507934   9.66599087
1812.00 -52.10505345   9.69744540
1814.00 -52.22514462   9.72896609
1816.00 -52.34535280   9.76055298
1818.00 -52.46567795   9.79220614
1820.00 -52.58612001   9.82392563
1822.00 -52.70667894   9.85571151
1824.00 -52.82735469   9.88756382
1826.00 -52.94814721   9.91948264
1828.00 -53.06905645   9.95146802
1830.00 -53.19008236   9.98352002
1832.00 -53.31122491  10.01563869
1834.00 -53.43248402  10.04782411
1836.00 -53.55385967  10.08007631
1838.00 -53.67535180  10.11239537
1840.00 -53.79696036  10.14478134
1842.00 -53.91868530  10.17723428
1844.00 -54.04052657  10.20975424
1846.00 -54.16248413  10.24234129
1848.00 -54.28455793  10.27499549
1850.00 -54.40674792  10.30771688
1852.00 -54.52905404  10.34050553
1854.00 -54.65147626  10.37336151
1856.00 -54.77401452  10.40628485
1858.00 -54.89666877  10.43927563
1860.00 -55.01943896  10.47233390
1862.00 -55.14232505  10.50545972
1864.00 -55.26532699  10.53865314
1866.00 -55.38844472  10.57191423
1868.00 -55.51167820  10.60524304
1870.00 -55.63502737  10.63863963
1872.00 -55.75849220  10.67210406
1874.00 -55.88207263  10.70563638
1876.00 -56.00576861  10.73923665
1878.00 -56.12958009  10.77290493
1880.00 -56.25350702  10.80664128
1882.00 -56.37754936  10.84044575
1884.00 -56.50170705  10.87431840
1886.00 -56.62598004  10.90825929
1888.00 -56.75036829  10.94226847
1890.00 -56.87487174  10.97634601
1892.00 -56.99949035  11.01049196
1894.00 -57.12422407  11.04470637
1896.00 -57.24907284  11.07898931
1898.00 -57.37403662  11.11334083
1900.00 -57.49911536  11.14776099
1902.00 -57.62430900  11.18224984
1904.00 -57.74961751  11.21680744
1906.00 -57.87504082  11.25143385
1908.00 -58.00057889  11.28612912
1910.00 -58.12623167  11.32089332
1912.00 -58.25199911  11.35572650
1914.00 -58.37788115  11.39062871
1916.00 -58.50387776  11.42560001
1918.00 -58.62998887  11.46064046
1920.00 -58.75621445  11.49575011
1922.00 -58.88255443  11.53092902
1924.00 -59.00900877  11.56617726
1926.00 -59.13557742  11.60149486
1928.00 -59.26226033  11.63688190
1930.00 -59.38905745  11.67233842
1932.00 -59.51596872  11.70786448
1934.00 -59.64299410  11.74346014
1936.00 -59.77013354  11.77912546
1938.00 -59.89738699  11.81486049
1940.00 -60.02475440  11.85066528
1942.00 -60.15223571  11.88653990
1944.00 -60.27983088  11.92248440
1946.00 -60.40753985  11.95849883
1948.00 -60.53536258  11.99458325
1950.00 -60.66329901  12.03073772
1952.00 -60.79134910  12.06696228
1954.00 -60.91951279  12.10325701
1956.00 -61.04779003  12.13962195
1958.00 -61.17618078  12.17605716
1960.00 -61.30468498  12.21256269
1962.00 -61.43330257  12.24913861
1964.00 -61.56203352  12.28578496
1966.00 -61.69087777  12.32250180
1968.00 -61.81983527  12.35928919
1970.00 -61.94890596  12.39614717
1972.00 -62.07808980  12.43307582
1974.00 -62.20738673  12.47007518
1976.00 -62.33679671  12.50714530
1978.00 -62.46631969  12.54428625
1980.00 -62.59595560  12.58149808
1982.00 -62.72570441  12.61878084
1984.00 -62.85556606  12.65613459
1986.00 -62.98554050  12.69355938
1988.00 -63.11562767  12.73105527
1990.00 -63.24582754  12.76862231
1992.00 -63.37614004  12.80626056
1994.00 -63.50656512  12.84397007
1996.00 -63.63710274  12.88175090
1998.00 -63.76775283  12.91960310
2000.00 -63.89851536  12.95752673
2002.00 -64.02939027  12.99552184
2004.00 -64.16037751  13.03358848
2006.00 -64.29147702  13.07172672
2008.00 -64.42268875  13.10993660
2010.00 -64.55401266  13.14821818
2012.00 -64.68544869  13.18657151
2014.00 -64.81699679  13.22499666
2016.00 -64.94865691  13.26349366
2018.00 -65.08042900  13.30206258
2020.00 -65.21231300  13.34070347
2022.00 -65.34430886  13.37941639
2024.00 -65.47641654  13.41820139
2026.00 -65.60863597  13.45705852
2028.00 -65.74096711  13.49598783
2030.00 -65.87340991  13.53498939
2032.00 -66.00596432  13.57406325
2034.00 -66.13863027  13.61320945
2036.00 -66.27140772  13.65242805
2038.00 -66.40429663  13.69171912
2040.00 -66.53729693  13.73108269
2042.00 -66.67040857  13.77051883
2044.00 -66.80363150  13.81002758
2046.00 -66.93696568  13.84960901
2048.00 -67.07041104  13.88926316
2050.00 -67.20396754  13.92899009
2052.00 -67.33763512  13.96878986
2054.00 -67.47141374  14.00866251
2056.00 -67.60530333  14.04860809
2058.00 -67.73930384  14.08862667
2060.00 -67.87341524  14.12871830
2062.00 -68.00763745  14.16888302
2064.00 -68.14197043  14.20912090
2066.00 -68.27641413  14.24943198
2068.00 -68.41096850  14.28981632
2070.00 -68.54563348  14.33027398
2072.00 -68.68040901  14.37080499
2074.00 -68.81529506  14.41140942
2076.00 -68.95029155  14.45208733
2078.00 -69.08539845  14.49283876
2080.00 -69.22061570  14.53366376
2082.00 -69.35594324  14.57456239
2084.00 -69.49138103  14.61553470
2086.00 -69.62692901  14.65658075
2088.00 -69.76258713  14.69770059
2090.00 -69.89835533  14.73889426
2092.00 -70.03423357  14.78016183
2094.00 -70.17022178  14.82150334
2096.00 -70.30631992  14.86291885
2098.00 -70.44252793  14.90440840
2100.00 -70.57884577  14.94597206
2102.00 -70.71527337  14.98760988
2104.00 -70.85181069  15.02932190
2106.00 -70.98845767  15.07110817
2108.00 -71.12521426  15.11296876
2110.00 -71.26208040  15.15490372
2112.00 -71.39905605  15.19691308
2114.00 -71.53614114  15.23899692
2116.00 -71.67333563  15.28115527
2118.00 -71.81063947  15.32338819
2120.00 -71.94805259  15.36569574
2122.00 -72.08557495  15.40807796
2124.00 -72.22320649  15.45053491
2126.00 -72.36094716  15.49306664
2128.00 -72.49879691  15.53567320
2130.00 -72.63675568  15.57835464
2132.00 -72.77482342  15.62111101
2134.00 -72.91300007  15.66394237
2136.00 -73.05128559  15.70684876
2138.00 -73.18967991  15.74983024
2140.00 -73.32818299  15.79288686
2142.00 -73.46679477  15.83601867
2144.00 -73.60551520  15.87922573
2146.00 -73.74434423  15.92250807
2148.00 -73.88328179  15.96586577
2150.00 -74.02232784  16.00929885
2152.00 -74.16148233  16.05280739
2154.00 -74.30074519  16.09639142
2156.00 -74.44011638  16.14005100
2158.00 -74.57959584  16.18378618
2160.00 -74.71918352  16.22759702
2162.00 -74.85887936  16.27148355
2164.00 -74.99868331  16.31544584
2166.00 -75.13859532  16.35948393
2168.00 -75.27861533  16.40359787
2170.00 -75.41874329  16.44778773
2172.00 -75.55897914  16.49205353
2174.00 -75.69932283  16.53639535
2176.00 -75.83977431  16.58081322
2178.00 -75.98033352  16.62530719
2180.00 -76.12100040  16.66987733
2182.00 -76.26177491  16.71452367
2184.00 -76.40265699  16.75924628
2186.00 -76.54364659  16.80404519
2188.00 -76.68474364  16.84892046
2190.00 -76.82594810  16.89387214
2192.00 -76.96725991  16.93890029
2194.00 -77.10867903  16.98400494
2196.00 -77.25020538  17.02918615
2198.00 -77.39183892  17.07444397
2200.00 -77.53357960  17.11977846
2202.00 -77.67542735  17.16518965
2204.00 -77.81738214  17.21067760
2206.00 -77.95944389  17.25624237
2208.00 -78.10161256  17.30188399
2210.00 -78.24388809  17.34760252
2212.00 -78.38627043  17.39339802
2214.00 -78.52875952  17.43927052
2216.00 -78.67135531  17.48522008
2218.00 -78.81405774  17.53124675
2220.00 -78.95686676  17.57735057
2222.00 -79.09978231  17.62353161
2224.00 -79.24280435  17.66978990
2226.00 -79.38593280  17.71612550
2228.00 -79.52916763  17.76253845
2230.00 -79.67250877  17.80902881
2232.00 -79.81595617  17.85559662
2234.00 -79.95950978  17.90224193
2236.00 -80.10316953  17.94896480
2238.00 -80.24693538  17.99576527
2240.00 -80.39080727  18.04264339
2242.00 -80.53478514  18.08959920
2244.00 -80.67886895  18.13663277
2246.00 -80.82305863  18.18374414
2248.00 -80.96735412  18.23093335
2250.00 -81.11175539  18.27820045
2252.00 -81.25626236  18.32554550
2254.00 -81.40087498  18.37296855
2256.00 -81.54559321  18.42046963
2258.00 -81.69041697  18.46804880
2260.00 -81.83534623  18.51570612
2262.00 -81.98038092  18.56344162
2264.00 -82.12552099  18.61125535
2266.00 -82.27076637  18.65914737
2268.00 -82.41611703  18.70711772
2270.00 -82.56157290  18.75516645
2272.00 -82.70713392  18.80329362
2274.00 -82.85280005  18.85149925
2276.00 -82.99857122  18.89978342
2278.00 -83.14444738  18.94814615
2280.00 -83.29042847  18.99658751
2282.00 -83.43651444  19.04510754
2284.00 -83.58270524  19.09370629
2286.00 -83.72900080  19.14238380
2288.00 -83.87540107  19.19114013
2290.00 -84.02190600  19.23997531
2292.00 -84.16851554  19.28888941
2294.00 -84.31522961  19.33788246
2296.00 -84.46204818  19.38695452
2298.00 -84.60897118  19.43610563
2300.00 -84.75599855  19.48533584
2302.00 -84.90313025  19.53464520
2304.00 -85.05036621  19.58403375
2306.00 -85.19770639  19.63350155
2308.00 -85.34515071  19.68304864
2310.00 -85.49269914  19.73267506
2312.00 -85.64035161  19.78238087
2314.00 -85.78810806  19.83216611
2316.00 -85.93596844  19.88203082
2318.00 -86.08393270  19.93197507
2320.00 -86.23200078  19.98199889
2322.00 -86.38017262  20.03210233
2324.00 -86.52844816  20.08228543
2326.00 -86.67682735  20.13254826
2328.00 -86.82531014  20.18289084
2330.00 -86.97389647  20.23331323
2332.00 -87.12258628  20.28381548
2334.00 -87.27137951  20.33439763
2336.00 -87.42027611  20.38505972
2338.00 -87.56927602  20.43580182
2340.00 -87.71837919  20.48662395
2342.00 -87.86758556  20.53752618
2344.00 -88.01689507  20.58850853
2346.00 -88.16630768  20.63957108
2348.00 -88.31582331  20.69071384
2350.00 -88.46544191  20.74193689
2352.00 -88.61516344  20.79324025
2354.00 -88.76498782  20.84462399
2356.00 -88.91491501  20.89608813
2358.00 -89.06494495  20.94763274
2360.00 -89.21507758  20.99925785
2362.00 -89.36531285  21.05096351
2364.00 -89.51565070  21.10274977
2366.00 -89.66609106  21.15461668
2368.00 -89.81663390  21.20656427
2370.00 -89.96727914  21.25859261
2372.00 -90.11802674  21.31070172
2374.00 -90.26887663  21.36289166
2376.00 -90.41982875  21.41516248
2378.00 -90.57088307  21.46751421
2380.00 -90.72203950  21.51994691
2382.00 -90.87329801  21.57246062
2384.00 -91.02465852  21.62505538
2386.00 -91.17612099  21.67773125
2388.00 -91.32768536  21.73048826
2390.00 -91.47935157  21.78332647
2392.00 -91.63111957  21.83624591
2394.00 -91.78298929  21.88924664
2396.00 -91.93496068  21.94232870
2398.00 -92.08703368  21.99549213
2400.00 -92.23920824  22.04873698
2402.00 -92.39148430  22.10206329
2404.00 -92.54386180  22.15547111
2406.00 -92.69634069  22.20896049
2408.00 -92.84892090  22.26253146
2410.00 -93.00160239  22.31618408
2412.00 -93.15438509  22.36991839
2414.00 -93.30726894  22.42373443
2416.00 -93.46025390  22.47763225
2418.00 -93.61333989  22.53161189
2420.00 -93.76652687  22.58567340
2422.00 -93.91981478  22.63981683
2424.00 -94.07320356  22.69404221
2426.00 -94.22669315  22.74834959
2428.00 -94.38028350  22.80273902
2430.00 -94.53397454  22.85721054
2432.00 -94.68776623  22.91176420
2434.00 -94.84165849  22.96640003
2436.00 -94.99565129  23.02111809
2438.00 -95.14974455  23.07591842
2440.00 -95.30393822  23.13080106
2442.00 -95.45823225  23.18576605
2444.00 -95.61262657  23.24081345
2446.00 -95.76712113  23.29594329
2448.00 -95.92171588  23.35115562
2450.00 -96.07641074  23.40645048
2452.00 -96.23120567  23.46182792
2454.00 -96.38610061  23.51728798
2456.00 -96.54109550  23.57283070
2458.00 -96.69619028  23.62845613
2460.00 -96.85138490  23.68416432
2462.00 -97.00667929  23.73995529
2464.00 -97.16207341  23.79582911
2466.00 -97.31756718  23.85178581
2468.00 -97.47316056  23.90782543
2470.00 -97.62885349  23.96394803
2472.00 -97.78464590  24.02015363
2474.00 -97.94053774  24.07644230
2476.00 -98.09652896  24.13281406
2478.00 -98.25261949  24.18926897
2480.00 -98.40880928  24.24580706
2482.00 -98.56509827  24.30242838
2484.00 -98.72148640  24.35913297
2486.00 -98.87797361  24.41592088
2488.00 -99.03455984  24.47279214
2490.00 -99.19124504  24.52974681
2492.00 -99.34802916  24.58678492
2494.00 -99.50491212  24.64390652
2496.00 -99.66189387  24.70111165
2498.00 -99.81897436  24.75840035
2500.00 -99.97615353  24.81577267
2502.00 -100.13343131  24.87322865
2504.00 -100.29080766  24.93076832
2506.00 -100.44828251  24.98839174
2508.00 -100.60585580  25.04609895
2510.00 -100.76352747  25.10388998
2512.00 -100.92129748  25.16176489
2514.00 -101.07916575  25.21972371
2516.00 -101.23713223  25.27776648
2518.00 -101.39519687  25.33589325
2520.00 -101.55335960  25.39410406
2522.00 -101.71162036  25.45239895
2524.00 -101.86997911  25.51077797
2526.00 -102.02843577  25.56924115
2528.00 -102.18699029  25.62778855
2530.00 -102.34564262  25.68642019
2532.00 -102.50439269  25.74513612
2534.00 -102.66324044  25.80393639
2536.00 -102.82218582  25.86282104
2538.00 -102.98122877  25.92179010
2540.00 -103.14036923  25.98084362
2542.00 -103.29960714  26.03998165
2544.00 -103.45894244  26.09920421
2546.00 -103.61837508  26.15851136
2548.00 -103.77790499  26.21790314
2550.00 -103.93753212  26.27737959
2552.00 -104.09725641  26.33694074
2554.00 -104.25707779  26.39658664
2556.00 -104.41699622  26.45631734
2558.00 -104.57701163  26.51613287
2560.00 -104.73712396  26.57603327
2562.00 -104.89733316  26.63601859
2564.00 -105.05763916  26.69608886
2566.00 -105.21804191  26.75624413
2568.00 -105.37854135  26.81648444
2570.00 -105.53913742  26.87680983
2572.00 -105.69983005  26.93722034
2574.00 -105.86061920  26.99771602
2576.00 -106.02150481  27.05829689
2578.00 -106.18248680  27.11896301
2580.00 -106.34356513  27.17971441
2582.00 -106.50473974  27.24055114
2584.00 -106.66601057  27.30147323
2586.00 -106.82737755  27.36248072
2588.00 -106.98884063  27.42357367
2590.00 -107.15039975  27.48475210
2592.00 -107.31205486  27.54601605
2594.00 -107.47380588  27.60736558
2596.00 -107.63565277  27.66880071
2598.00 -107.79759546  27.73032149
2600.00 -107.95963390  27.79192796
2602.00 -108.12176802  27.85362016
2604.00 -108.28399777  27.91539813
2606.00 -108.44632309  27.97726190
2608.00 -108.60874391  28.03921153
2610.00 -108.77126018  28.10124704
2612.00 -108.93387185  28.16336848
2614.00 -109.09657884  28.22557590
2616.00 -109.25938110  28.28786932
2618.00 -109.42227858  28.35024879
2620.00 -109.58527121  28.41271434
2622.00 -109.74835893  28.47526603
2624.00 -109.91154169  28.53790388
2626.00 -110.07481942  28.60062794
2628.00 -110.23819207  28.66343825
2630.00 -110.40165957  28.72633484
2632.00 -110.56522187  28.78931776
2634.00 -110.72887891  28.85238704
2636.00 -110.89263063  28.91554273
2638.00 -111.05647696  28.97878486
2640.00 -111.22041785  29.04211347
2642.00 -111.38445324  29.10552861
2644.00 -111.54858307  29.16903031
2646.00 -111.71280729  29.23261861
2648.00 -111.87712582  29.29629354
2650.00 -112.04153861  29.36005516
2652.00 -112.20604561  29.42390349
2654.00 -112.37064675  29.48783858
2656.00 -112.53534197  29.55186047
2658.00 -112.70013121  29.61596919
2660.00 -112.86501442  29.68016478
2662.00 -113.02999153  29.74444728
2664.00 -113.19506248  29.80881673
2666.00 -113.36022722  29.87327318
2668.00 -113.52548568  29.93781664
2670.00 -113.69083781  30.00244718
2672.00 -113.85628354  30.06716482
2674.00 -114.02182282  30.13196960
2676.00 -114.18745558  30.19686156
2678.00 -114.35318177  30.26184074
2680.00 -114.51900133  30.32690718
2682.00 -114.68491419  30.39206091
2684.00 -114.85092030  30.45730198
2686.00 -115.01701959  30.52263042
2688.00 -115.18321201  30.58804627
2690.00 -115.34949750  30.65354957
2692.00 -115.51587599  30.71914035
2694.00 -115.68234743  30.78481866
2696.00 -115.84891176  30.85058453
2698.00 -116.01556892  30.91643800
2700.00 -116.18231884  30.98237910
2702.00 -116.34916147  31.04840788
2704.00 -116.51609675  31.11452438
2706.00 -116.68312461  31.18072862
2708.00 -116.85024500  31.24702065
2710.00 -117.01745786  31.31340051
2712.00 -117.18476312  31.37986823
2714.00 -117.35216073  31.44642385
2716.00 -117.51965063  31.51306740
2718.00 -117.68723276  31.57979893
2720.00 -117.85490705  31.64661848
2722.00 -118.02267345  31.71352607
2724.00 -118.19053189  31.78052175
2726.00 -118.35848232  31.84760555
2728.00 -118.52652468  31.91477751
2730.00 -118.69465890  31.98203767
2732.00 -118.86288493  32.04938606
2734.00 -119.03120270  32.11682273
2736.00 -119.19961215  32.18434770
2738.00 -119.36811324  32.25196102
2740.00 -119.53670588  32.31966272
2742.00 -119.70539003  32.38745284
2744.00 -119.87416563  32.45533141
2746.00 -120.04303261  32.52329848
2748.00 -120.21199091  32.59135407
2750.00 -120.38104047  32.65949823
2752.00 -120.55018124  32.72773099
2754.00 -120.71941315  32.79605239
2756.00 -120.88873614  32.86446246
2758.00 -121.05815015  32.93296124
2760.00 -121.22765512  33.00154877
2762.00 -121.39725099  33.07022508
2764.00 -121.56693771  33.13899021
2766.00 -121.73671520  33.20784419
2768.00 -121.90658341  33.27678707
2770.00 -122.07654228  33.34581887
2772.00 -122.24659175  33.41493964
2774.00 -122.41673176  33.48414940
2776.00 -122.58696224  33.55344820
2778.00 -122.75728314  33.62283607
2780.00 -122.92769439  33.69231305
2782.00 -123.09819594  33.76187916
2784.00 -123.26878773  33.83153446
2786.00 -123.43946969  33.90127897
2788.00 -123.61024176  33.97111272
2790.00 -123.78110388  34.04103576
2792.00 -123.95205600  34.11104813
2794.00 -124.12309805  34.18114984
2796.00 -124.29422997  34.25134095
2798.00 -124.46545170  34.32162148
2800.00 -124.63676318  34.39199147
2802.00 -124.80816435  34.46245096
2804.00 -124.97965514  34.53299998
2806.00 -125.15123551  34.60363857
2808.00 -125.32290537  34.67436676
2810.00 -125.49466469  34.74518459
2812.00 -125.66651339  34.81609208
2814.00 -125.83845141  34.88708929
2816.00 -126.01047870  34.95817623
2818.00 -126.18259519  35.02935295
2820.00 -126.35480082  35.10061948
2822.00 -126.52709554  35.17197586
2824.00 -126.69947927  35.24342211
2826.00 -126.87195196  35.31495829
2828.00 -127.04451355  35.38658441
2830.00 -127.21716398  35.45830051
2832.00 -127.38990318  35.53010663
2834.00 -127.56273110  35.60200281
2836.00 -127.73564767  35.67398907
2838.00 -127.90865284  35.74606545
2840.00 -128.08174654  35.81823199
2842.00 -128.25492871  35.89048872
2844.00 -128.42819929  35.96283567
2846.00 -128.60155822  36.03527288
2848.00 -128.77500544  36.10780039
2850.00 -128.94854089  36.18041821
2852.00 -129.12216450  36.25312640
2854.00 -129.29587622  36.32592499
2856.00 -129.46967599  36.39881400
2858.00 -129.64356373  36.47179347
2860.00 -129.81753940  36.54486343
2862.00 -129.99160293  36.61802393
2864.00 -130.16575426  36.69127499
2866.00 -130.33999333  36.76461664
2868.00 -130.51432008  36.83804893
2870.00 -130.68873444  36.91157187
2872.00 -130.86323636  36.98518552
2874.00 -131.03782577  37.05888989
2876.00 -131.21250262  37.13268503
2878.00 -131.38726684  37.20657096
2880.00 -131.56211836  37.28054773
2882.00 -131.73705714  37.35461536
2884.00 -131.91208311  37.42877388
2886.00 -132.08719620  37.50302333
2888.00 -132.26239636  37.57736375
2890.00 -132.43768352  37.65179516
2892.00 -132.61305763  37.72631760
2894.00 -132.78851862  37.80093110
2896.00 -132.96406643  37.87563570
2898.00 -133.13970099  37.95043142
2900.00 -133.31542226  38.02531830
2902.00 -133.49123016  38.10029638
2904.00 -133.66712464  38.17536568
2906.00 -133.84310563  38.25052624
2908.00 -134.01917307  38.32577808
2910.00 -134.19532691  38.40112125
2912.00 -134.37156707  38.47655578
2914.00 -134.54789351  38.55208169
2916.00 -134.72430615  38.62769903
2918.00 -134.90080493  38.70340781
2920.00 -135.07738980  38.77920808
2922.00 -135.25406070  38.85509987
2924.00 -135.43081755  38.93108320
2926.00 -135.60766030  39.00715812
2928.00 -135.78458889  39.08332465
2930.00 -135.96160326  39.15958282
2932.00 -136.13870335  39.23593268
2934.00 -136.31588908  39.31237424
2936.00 -136.49316041  39.38890754
2938.00 -136.67051727  39.46553261
2940.00 -136.84795960  39.54224949
2942.00 -137.02548734  39.61905820
2944.00 -137.20310042  39.69595878
2946.00 -137.38079879  39.77295126
2948.00 -137.55858238  39.85003567
2950.00 -137.73645113  39.92721205
2952.00 -137.91440498  40.00448041
2954.00 -138.09244387  40.08184081
2956.00 -138.27056774  40.15929326
2958.00 -138.44877652  40.23683779
2960.00 -138.62707015  40.31447445
2962.00 -138.80544858  40.39220325
2964.00 -138.98391174  40.47002424
2966.00 -139.16245956  40.54793744
2968.00 -139.34109199  40.62594288
2970.00 -139.51980897  40.70404060
2972.00 -139.69861042  40.78223062
2974.00 -139.87749630  40.86051298
2976.00 -140.05646654  40.93888771
2978.00 -140.23552108  41.01735483
2980.00 -140.41465986  41.09591439
2982.00 -140.59388280  41.17456640
2984.00 -140.77318987  41.25331090
2986.00 -140.95258098  41.33214793
2988.00 -141.13205608  41.41107750
2990.00 -141.31161511  41.49009966
2992.00 -141.49125800  41.56921443
2994.00 -141.67098470  41.64842184
2996.00 -141.85079514  41.72772193
2998.00 -142.03068926  41.80711471
3000.00 -142.21066700  41.88660024
3002.00 -142.39072830  41.96617852
3004.00 -142.57087309  42.04584960
3006.00 -142.75110132  42.12561350
3008.00 -142.93141291  42.20547026
3010.00 -143.11180782  42.28541990
3012.00 -143.29228597  42.36546246
3014.00 -143.47284730  42.44559796
3016.00 -143.65349176  42.52582643
3018.00 -143.83421929  42.60614791
3020.00 -144.01502981  42.68656242
3022.00 -144.19592327  42.76706999
3024.00 -144.37689960  42.84767066
3026.00 -144.55795875  42.92836445
3028.00 -144.73910066  43.00915139
3030.00 -144.92032525  43.09003151
3032.00 -145.10163247  43.17100484
3034.00 -145.28302225  43.25207142
3036.00 -145.46449454  43.33323126
3038.00 -145.64604928  43.41448440
3040.00 -145.82768639  43.49583087
3042.00 -146.00940582  43.57727070
3044.00 -146.19120751  43.65880391
3046.00 -146.37309139  43.74043054
3048.00 -146.55505740  43.82215062
3050.00 -146.73710548  43.90396416
3052.00 -146.91923557  43.98587122
3054.00 -147.10144761  44.06787180
3056.00 -147.28374153  44.14996594
3058.00 -147.46611727  44.23215367
3060.00 -147.64857478  44.31443502
3062.00 -147.83111398  44.39681002
3064.00 -148.01373481  44.47927869
3066.00 -148.19643722  44.56184107
3068.00 -148.37922114  44.64449718
3070.00 -148.56208651  44.72724705
3072.00 -148.74503327  44.81009071
3074.00 -148.92806135  44.89302819
3076.00 -149.11117070  44.97605951
3078.00 -149.29436125  45.05918471
3080.00 -149.47763293  45.14240381
3082.00 -149.66098569  45.22571685
3084.00 -149.84441947  45.30912384
3086.00 -150.02793420  45.39262482
3088.00 -150.21152982  45.47621982
3090.00 -150.39520626  45.55990886
3092.00 -150.57896347  45.64369197
3094.00 -150.76280139  45.72756918
3096.00 -150.94671995  45.81154051
3098.00 -151.13071908  45.89560601
3100.00 -151.31479873  45.97976568
3102.00 -151.49895884  46.06401957
3104.00 -151.68319934  46.14836769
3106.00 -151.86752017  46.23281008
3108.00 -152.05192127  46.31734677
3110.00 -152.23640257  46.40197777
3112.00 -152.42096402  46.48670313
3114.00 -152.60560555  46.57152286
3116.00 -152.79032710  46.65643699
3118.00 -152.97512860  46.74144555
3120.00 -153.16001000  46.82654858
3122.00 -153.34497123  46.91174608
3124.00 -153.53001223  46.99703810
3126.00 -153.71513294  47.08242466
3128.00 -153.90033329  47.16790578
3130.00 -154.08561323  47.25348150
3132.00 -154.27097268  47.33915184
3134.00 -154.45641160  47.42491683
3136.00 -154.64192991  47.51077649
3138.00 -154.82752756  47.59673085
3140.00 -155.01320447  47.68277994
3142.00 -155.19896060  47.76892378
3144.00 -155.38479587  47.85516241
3146.00 -155.57071023  47.94149584
3148.00 -155.75670360  48.02792411
3150.00 -155.94277594  48.11444724
3152.00 -156.12892718  48.20106526
3154.00 -156.31515725  48.28777819
3156.00 -156.50146609  48.37458606
3158.00 -156.68785364  48.46148890
3160.00 -156.87431984  48.54848673
3162.00 -157.06086463  48.63557958
3164.00 -157.24748794  48.72276748
3166.00 -157.43418970  48.81005045
3168.00 -157.62096987  48.89742851
3170.00 -157.80782837  48.98490170
3172.00 -157.99476515  49.07247004
3174.00 -158.18178014  49.16013356
3176.00 -158.36887327  49.24789228
3178.00 -158.55604449  49.33574622
3180.00 -158.74329374  49.42369542
3182.00 -158.93062094  49.51173989
3184.00 -159.11802605  49.59987968
3186.00 -159.30550899  49.68811479
3188.00 -159.49306970  49.77644525
3190.00 -159.68070813  49.86487110
3192.00 -159.86842420  49.95339236
3194.00 -160.05621786  50.04200905
3196.00 -160.24408905  50.13072119
3198.00 -160.43203770  50.21952882
3200.00 -160.62006374  50.30843196
3202.00 -160.80816712  50.39743063
3204.00 -160.99634778  50.48652487
3206.00 -161.18460564  50.57571468
3208.00 -161.37294066  50.66500010
3210.00 -161.56135276  50.75438116
3212.00 -161.74984189  50.84385788
3214.00 -161.93840798  50.93343028
3216.00 -162.12705096  51.02309840
3218.00 -162.31577078  51.11286224
3220.00 -162.50456738  51.20272185
3222.00 -162.69344069  51.29267723
3224.00 -162.88239065  51.38272843
3226.00 -163.07141719  51.47287546
3228.00 -163.26052026  51.56311835
3230.00 -163.44969978  51.65345712
3232.00 -163.63895571  51.74389179
3234.00 -163.82828797  51.83442240
3236.00 -164.01769651  51.92504896
3238.00 -164.20718125  52.01577151
3240.00 -164.39674215  52.10659005
3242.00 -164.58637913  52.19750463
3244.00 -164.77609213  52.28851526
3246.00 -164.96588110  52.37962196
3248.00 -165.15574596  52.47082477
3250.00 -165.34568666  52.56212370
3252.00 -165.53570313  52.65351879
3254.00 -165.72579531  52.74501004
3256.00 -165.91596314  52.83659749
3258.00 -166.10620656  52.92828117
3260.00 -166.29652550  53.02006108
3262.00 -166.48691989  53.11193727
3264.00 -166.67738969  53.20390975
3266.00 -166.86793482  53.29597855
3268.00 -167.05855522  53.38814368
3270.00 -167.24925083  53.48040518
3272.00 -167.44002159  53.57276307
3274.00 -167.63086743  53.66521736
3276.00 -167.82178829  53.75776809
3278.00 -168.01278412  53.85041528
3280.00 -168.20385484  53.94315895
3282.00 -168.39500039  54.03599912
3284.00 -168.58622072  54.12893582
3286.00 -168.77751575  54.22196907
3288.00 -168.96888543  54.31509889
3290.00 -169.16032969  54.40832531
3292.00 -169.35184847  54.50164835
3294.00 -169.54344172  54.59506803
3296.00 -169.73510935  54.68858438
3298.00 -169.92685132  54.78219741
3300.00 -170.11866756  54.87590716
3302.00 -170.31055801  54.96971364
3304.00 -170.50252260  55.06361688
3306.00 -170.69456127  55.15761690
3308.00 -170.88667397  55.25171372
3310.00 -171.07886062  55.34590737
3312.00 -171.27112116  55.44019786
3314.00 -171.46345554  55.53458522
3316.00 -171.65586368  55.62906948
3318.00 -171.84834553  55.72365065
3320.00 -172.04090103  55.81832876
3322.00 -172.23353010  55.91310383
3324.00 -172.42623270  56.00797588
3326.00 -172.61900875  56.10294493
3328.00 -172.81185819  56.19801102
3330.00 -173.00478096  56.29317415
3332.00 -173.19777700  56.38843435
3334.00 -173.39084625  56.48379164
3336.00 -173.58398863  56.57924605
3338.00 -173.77720410  56.67479759
3340.00 -173.97049258  56.77044629
3342.00 -174.16385402  56.86619218
3344.00 -174.35728835  56.96203526
3346.00 -174.55079550  57.05797557
3348.00 -174.74437543  57.15401313
3350.00 -174.93802805  57.25014795
3352.00 -175.13175332  57.34638006
3354.00 -175.32555116  57.44270948
3356.00 -175.51942152  57.53913624
3358.00 -175.71336434  57.63566034
3360.00 -175.90737954  57.73228183
3362.00 -176.10146707  57.82900070
3364.00 -176.29562686  57.92581700
3366.00 -176.48985886  58.02273073
3368.00 -176.68416300  58.11974193
3370.00 -176.87853921  58.21685060
3372.00 -177.07298743  58.31405678
3374.00 -177.26750761  58.41136048
3376.00 -177.46209967  58.50876173
3378.00 -177.65676357  58.60626054
3380.00 -177.85149922  58.70385694
3382.00 -178.04630657  58.80155094
3384.00 -178.24118556  58.89934257
3386.00 -178.43613613  58.99723185
3388.00 -178.63115821  59.09521880
3390.00 -178.82625173  59.19330345
3392.00 -179.02141665  59.29148580
3394.00 -179.21665289  59.38976588
3396.00 -179.41196039  59.48814372
3398.00 -179.60733908  59.58661932
3400.00 -179.80278892  59.68519272
3402.00 -179.99830983  59.78386394
3404.00 -180.19390174  59.88263298
3406.00 -180.38956461  59.98149989
3408.00 -180.58529836  60.08046466
3410.00 -180.78110293  60.17952733
3412.00 -180.97697827  60.27868792
3414.00 -181.17292430  60.37794644
3416.00 -181.36894096  60.47730291
3418.00 -181.56502819  60.57675736
3420.00 -181.76118594  60.67630981
3422.00 -181.95741413  60.77596026
3424.00 -182.15371270  60.87570876
3426.00 -182.35008160  60.97555531
3428.00 -182.54652075  61.07549993
3430.00 -182.74303010  61.17554264
3432.00 -182.93960958  61.27568347
3434.00 -183.13625913  61.37592244
3436.00 -183.33297869  61.47625955
3438.00 -183.52976819  61.57669484
3440.00 -183.72662758  61.67722832
3442.00 -183.92355678  61.77786001
3444.00 -184.12055574  61.87858994
3446.00 -184.31762440  61.97941811
3448.00 -184.51476268  62.08034455
3450.00 -184.71197054  62.18136928
3452.00 -184.90924790  62.28249232
3454.00 -185.10659470  62.38371368
3456.00 -185.30401088  62.48503340
3458.00 -185.50149638  62.58645147
3460.00 -185.69905114  62.68796793
3462.00 -185.89667509  62.78958280
3464.00 -186.09436816  62.89129608
3466.00 -186.29213031  62.99310781
3468.00 -186.48996146  63.09501800
3470.00 -186.68786155  63.19702666
3472.00 -186.88583052  63.29913383
3474.00 -187.08386830  63.40133950
3476.00 -187.28197484  63.50364372
3478.00 -187.48015007  63.60604648
3480.00 -187.67839393  63.70854782
3482.00 -187.87670635  63.81114775
3484.00 -188.07508728  63.91384629
3486.00 -188.27353665  64.01664345
3488.00 -188.47205439  64.11953926
3490.00 -188.67064045  64.22253374
3492.00 -188.86929476  64.32562689
3494.00 -189.06801726  64.42881875
3496.00 -189.26680789  64.53210932
3498.00 -189.46566658  64.63549864
3500.00 -189.66459328  64.73898670
3502.00 -189.86358791  64.84257354
3504.00 -190.06265042  64.94625917
3506.00 -190.26178074  65.05004361
3508.00 -190.46097882  65.15392687
3510.00 -190.66024458  65.25790898
3512.00 -190.85957796  65.36198995
3514.00 -191.05897892  65.46616980
3516.00 -191.25844737  65.57044854
3518.00 -191.45798326  65.67482621
3520.00 -191.65758652  65.77930280
3522.00 -191.85725710  65.88387835
3524.00 -192.05699492  65.98855286
3526.00 -192.25679994  66.09332636
3528.00 -192.45667207  66.19819886
3530.00 -192.65661127  66.30317038
3532.00 -192.85661747  66.40824094
3534.00 -193.05669061  66.51341055
3536.00 -193.25683062  66.61867924
3538.00 -193.45703744  66.72404701
3540.00 -193.65731101  66.82951389
3542.00 -193.85765127  66.93507989
3544.00 -194.05805815  67.04074503
3546.00 -194.25853160  67.14650933
3548.00 -194.45907154  67.25237281
3550.00 -194.65967791  67.35833547
3552.00 -194.86035066  67.46439735
3554.00 -195.06108972  67.57055844
3556.00 -195.26189503  67.67681878
3558.00 -195.46276653  67.78317838
3560.00 -195.66370415  67.88963725
3562.00 -195.86470783  67.99619542
3564.00 -196.06577750  68.10285289
3566.00 -196.26691311  68.20960969
3568.00 -196.46811460  68.31646582
3570.00 -196.66938189  68.42342132
3572.00 -196.87071493  68.53047619
3574.00 -197.07211366  68.63763044
3576.00 -197.27357801  68.74488411
3578.00 -197.47510792  68.85223720
3580.00 -197.67670333  68.95968972
3582.00 -197.87836417  69.06724170
3584.00 -198.08009039  69.17489316
3586.00 -198.28188191  69.28264409
3588.00 -198.48373868  69.39049454
3590.00 -198.68566064  69.49844450
3592.00 -198.88764772  69.60649400
3594.00 -199.08969986  69.71464304
3596.00 -199.29181699  69.82289166
3598.00 -199.49399906  69.93123985
3600.00 -199.69624601  70.03968765
3602.00 -199.89855776  70.14823506
3604.00 -200.10093426  70.25688209
3606.00 -200.30337544  70.36562878
3608.00 -200.50588125  70.47447512
3610.00 -200.70845162  70.58342114
3612.00 -200.91108648  70.69246685
3614.00 -201.11378578  70.80161227
3616.00 -201.31654945  70.91085741
3618.00 -201.51937743  71.02020229
3620.00 -201.72226966  71.12964692
3622.00 -201.92522607  71.23919132
3624.00 -202.12824661  71.34883551
3626.00 -202.33133120  71.45857949
3628.00 -202.53447979  71.56842328
3630.00 -202.73769232  71.67836691
3632.00 -202.94096872  71.78841037
3634.00 -203.14430893  71.89855370
3636.00 -203.34771289  72.00879690
3638.00 -203.55118054  72.11913998
3640.00 -203.75471180  72.22958297
3642.00 -203.95830663  72.34012588
3644.00 -204.16196496  72.45076872
3646.00 -204.36568672  72.56151151
3648.00 -204.56947185  72.67235426
3650.00 -204.77332030  72.78329698
3652.00 -204.97723199  72.89433970
3654.00 -205.18120687  73.00548242
3656.00 -205.38524488  73.11672516
3658.00 -205.58934594  73.22806794
3660.00 -205.79351001  73.33951076
3662.00 -205.99773701  73.45105365
3664.00 -206.20202689  73.56269661
3666.00 -206.40637957  73.67443967
3668.00 -206.61079501  73.78628283
3670.00 -206.81527314  73.89822611
3672.00 -207.01981389  74.01026952
3674.00 -207.22441720  74.12241309
3676.00 -207.42908301  74.23465681
3678.00 -207.63381126  74.34700071
3680.00 -207.83860189  74.45944479
3682.00 -208.04345482  74.57198909
3684.00 -208.24837001  74.68463359
3686.00 -208.45334739  74.79737833
3688.00 -208.65838690  74.91022332
3690.00 -208.86348847  75.02316856
3692.00 -209.06865204  75.13621407
3694.00 -209.27387755  75.24935987
3696.00 -209.47916494  75.36260597
3698.00 -209.68451414  75.47595238
3700.00 -209.88992509  75.58939911
3702.00 -210.09539774  75.70294619
3704.00 -210.30093202  75.81659362
3706.00 -210.50652786  75.93034141
3708.00 -210.71218520  76.04418958
3710.00 -210.91790398  76.15813815
3712.00 -211.12368415  76.27218711
3714.00 -211.32952563  76.38633650
3716.00 -211.53542837  76.50058632
3718.00 -211.74139230  76.61493659
3720.00 -211.94741736  76.72938731
3722.00 -212.15350348  76.84393850
3724.00 -212.35965062  76.95859018
3726.00 -212.56585870  77.07334235
3728.00 -212.77212766  77.18819503
3730.00 -212.97845743  77.30314823
3732.00 -213.18484797  77.41820197
3734.00 -213.39129920  77.53335625
3736.00 -213.59781107  77.64861109
3738.00 -213.80438350  77.76396651
3740.00 -214.01101645  77.87942251
3742.00 -214.21770984  77.99497911
3744.00 -214.42446361  78.11063631
3746.00 -214.63127771  78.22639414
3748.00 -214.83815207  78.34225261
3750.00 -215.04508662  78.45821172
3752.00 -215.25208132  78.57427149
3754.00 -215.45913608  78.69043193
3756.00 -215.66625086  78.80669305
3758.00 -215.87342559  78.92305487
3760.00 -216.08066020  79.03951740
3762.00 -216.28795465  79.15608064
3764.00 -216.49530885  79.27274462
3766.00 -216.70272276  79.38950934
3768.00 -216.91019630  79.50637482
3770.00 -217.11772943  79.62334106
3772.00 -217.32532207  79.74040809
3774.00 -217.53297416  79.85757590
3776.00 -217.74068564  79.97484452
3778.00 -217.94845646  80.09221395
3780.00 -218.15628654  80.20968420
3782.00 -218.36417582  80.32725529
3784.00 -218.57212425  80.44492724
3786.00 -218.78013176  80.56270004
3788.00 -218.98819829  80.68057371
3790.00 -219.19632378  80.79854827
3792.00 -219.40450817  80.91662372
3794.00 -219.61275138  81.03480008
3796.00 -219.82105337  81.15307735
3798.00 -220.02941407  81.27145556
3800.00 -220.23783342  81.38993470
3802.00 -220.44631135  81.50851479
3804.00 -220.65484781  81.62719585
3806.00 -220.86344272  81.74597787
3808.00 -221.07209604  81.86486088
3810.00 -221.28080770  81.98384489
3812.00 -221.48957763  82.10292990
3814.00 -221.69840578  82.22211593
3816.00 -221.90729208  82.34140298
3818.00 -222.11623647  82.46079108
3820.00 -222.32523889  82.58028022
3822.00 -222.53429928  82.69987042
3824.00 -222.74341757  82.81956169
3826.00 -222.95259371  82.93935404
3828.00 -223.16182763  83.05924749
3830.00 -223.37111927  83.17924203
3832.00 -223.58046856  83.29933769
3834.00 -223.78987546  83.41953447
3836.00 -223.99933988  83.53983238
3838.00 -224.20886178  83.66023144
3840.00 -224.41844109  83.78073165
3842.00 -224.62807775  83.90133302
3844.00 -224.83777170  84.02203557
3846.00 -225.04752287  84.14283931
3848.00 -225.25733121  84.26374423
3850.00 -225.46719665  84.38475036
3852.00 -225.67711913  84.50585771
3854.00 -225.88709859  84.62706628
3856.00 -226.09713496  84.74837608
3858.00 -226.30722820  84.86978713
3860.00 -226.51737822  84.99129943
3862.00 -226.72758498  85.11291300
3864.00 -226.93784841  85.23462784
3866.00 -227.14816844  85.35644397
3868.00 -227.35854503  85.47836138
3870.00 -227.56897809  85.60038010
3872.00 -227.77946759  85.72250013
3874.00 -227.99001344  85.84472149
3876.00 -228.20061560  85.96704417
3878.00 -228.41127399  86.08946820
3880.00 -228.62198857  86.21199357
3882.00 -228.83275925  86.33462031
3884.00 -229.04358600  86.45734841
3886.00 -229.25446873  86.58017789
3888.00 -229.46540740  86.70310876
3890.00 -229.67640193  86.82614103
3892.00 -229.88745228  86.94927470
3894.00 -230.09855837  87.07250979
3896.00 -230.30972014  87.19584630
3898.00 -230.52093754  87.31928424
3900.00 -230.73221050  87.44282363
3902.00 -230.94353897  87.56646446
3904.00 -231.15492287  87.69020676
3906.00 -231.36636214  87.81405052
3908.00 -231.57785674  87.93799576
3910.00 -231.78940659  88.06204249
3912.00 -232.00101163  88.18619071
3914.00 -232.21267180  88.31044044
3916.00 -232.42438705  88.43479167
3918.00 -232.63615730  88.55924443
3920.00 -232.84798250  88.68379872
3922.00 -233.05986259  88.80845454
3924.00 -233.27179750  88.93321192
3926.00 -233.48378718  89.05807084
3928.00 -233.69583155  89.18303133
3930.00 -233.90793057  89.30809339
3932.00 -234.12008417  89.43325703
3934.00 -234.33229228  89.55852226
3936.00 -234.54455486  89.68388908
3938.00 -234.75687182  89.80935750
3940.00 -234.96924312  89.93492754
3942.00 -235.18166870  90.06059920
3944.00 -235.39414848  90.18637249
3946.00 -235.60668242  90.31224741
3948.00 -235.81927044  90.43822398
3950.00 -236.03191250  90.56430220
3952.00 -236.24460851  90.69048208
3954.00 -236.45735844  90.81676363
3956.00 -236.67016220  90.94314685
3958.00 -236.88301975  91.06963176
3960.00 -237.09593103  91.19621835
3962.00 -237.30889596  91.32290665
3964.00 -237.52191449  91.44969665
3966.00 -237.73498656  91.57658837
3968.00 -237.94811210  91.70358180
3970.00 -238.16129107  91.83067697
3972.00 -238.37452338  91.95787387
3974.00 -238.58780899  92.08517251
3976.00 -238.80114783  92.21257291
3978.00 -239.01453985  92.34007506
3980.00 -239.22798497  92.46767898
3982.00 -239.44148314  92.59538467
3984.00 -239.65503430  92.72319214
3986.00 -239.86863839  92.85110140
3988.00 -240.08229534  92.97911245
3990.00 -240.29600510  93.10722530
3992.00 -240.50976760  93.23543996
3994.00 -240.72358278  93.36375643
3996.00 -240.93745058  93.49217473
3998.00 -241.15137095  93.62069485
4000.00 -241.36534381  93.74931681
4002.00 -241.57936912  93.87804061
4004.00 -241.79344680  94.00686626
4006.00 -242.00757680  94.13579377
4008.00 -242.22175905  94.26482314
4010.00 -242.43599350  94.39395438
4012.00 -242.65028008  94.52318749
4014.00 -242.86461874  94.65252249
4016.00 -243.07900941  94.78195937
4018.00 -243.29345203  94.91149815
4020.00 -243.50794653  95.04113883
4022.00 -243.72249287  95.17088142
4024.00 -243.93709098  95.30072592
4026.00 -244.15174080  95.43067234
4028.00 -244.36644226  95.56072069
4030.00 -244.58119531  95.69087097
4032.00 -244.79599988  95.82112319
4034.00 -245.01085592  95.95147735
4036.00 -245.22576336  96.08193347
4038.00 -245.44072214  96.21249154
4040.00 -245.65573221  96.34315157
4042.00 -245.87079350  96.47391358
4044.00 -246.08590595  96.60477756
4046.00 -246.30106949  96.73574352
4048.00 -246.51628408  96.86681146
4050.00 -246.73154965  96.99798140
4052.00 -246.94686613  97.12925334
4054.00 -247.16223347  97.26062728
4056.00 -247.37765161  97.39210323
4058.00 -247.59312048  97.52368119
4060.00 -247.80864003  97.65536118
4062.00 -248.02421020  97.78714319
4064.00 -248.23983091  97.91902723
4066.00 -248.45550212  98.05101331
4068.00 -248.67122377  98.18310143
4070.00 -248.88699578  98.31529160
4072.00 -249.10281811  98.44758382
4074.00 -249.31869068  98.57997810
4076.00 -249.53461345  98.71247444
4078.00 -249.75058635  98.84507285
4080.00 -249.96660932  98.97777334
4082.00 -250.18268229  99.11057591
4084.00 -250.39880522  99.24348055
4086.00 -250.61497803  99.37648729
4088.00 -250.83120067  99.50959612
4090.00 -251.04747307  99.64280705
4092.00 -251.26379518  99.77612009
4094.00 -251.48016694  99.90953523
4096.00 -251.69658829 100.04305249
4098.00 -251.91305916 100.17667186
4100.00 -252.12957949 100.31039336
4102.00 -252.34614923 100.44421698
4104.00 -252.56276831 100.57814274
4106.00 -252.77943668 100.71217063
4108.00 -252.99615426 100.84630067
4110.00 -253.21292102 100.98053285
4112.00 -253.42973687 101.11486718
4114.00 -253.64660177 101.24930367
4116.00 -253.86351565 101.38384231
4118.00 -254.08047845 101.51848312
4120.00 -254.29749011 101.65322610
4122.00 -254.51455057 101.78807125
4124.00 -254.73165977 101.92301858
4126.00 -254.94881766 102.05806808
4128.00 -255.16602416 102.19321977
4130.00 -255.38327923 102.32847365
4132.00 -255.60058279 102.46382973
4134.00 -255.81793480 102.59928800
4136.00 -256.03533518 102.73484847
4138.00 -256.25278389 102.87051115
4140.00 -256.47028085 103.00627603
4142.00 -256.68782601 103.14214313
4144.00 -256.90541931 103.27811244
4146.00 -257.12306069 103.41418398
4148.00 -257.34075009 103.55035774
4150.00 -257.55848745 103.68663373
4152.00 -257.77627271 103.82301194
4154.00 -257.99410581 103.95949240
4156.00 -258.21198668 104.09607509
4158.00 -258.42991527 104.23276003
4160.00 -258.64789152 104.36954721
4162.00 -258.86591537 104.50643664
4164.00 -259.08398676 104.64342832
4166.00 -259.30210563 104.78052226
4168.00 -259.52027192 104.91771845
4170.00 -259.73848556 105.05501691
4172.00 -259.95674651 105.19241764
4174.00 -260.17505469 105.32992063
4176.00 -260.39341005 105.46752590
4178.00 -260.61181253 105.60523345
4180.00 -260.83026207 105.74304327
4182.00 -261.04875861 105.88095537
4184.00 -261.26730209 106.01896976
4186.00 -261.48589245 106.15708643
4188.00 -261.70452962 106.29530540
4190.00 -261.92321356 106.43362666
4192.00 -262.14194420 106.57205021
4194.00 -262.36072148 106.71057607
4196.00 -262.57954534 106.84920423
4198.00 -262.79841572 106.98793469
4200.00 -263.01733256 107.12676746
4202.00 -263.23629581 107.26570253
4204.00 -263.45530539 107.40473992
4206.00 -263.67436126 107.54387963
4208.00 -263.89346335 107.68312166
4210.00 -264.11261160 107.82246600
4212.00 -264.33180596 107.96191267
4214.00 -264.55104635 108.10146166
4216.00 -264.77033274 108.24111298
4218.00 -264.98966504 108.38086663
4220.00 -265.20904321 108.52072261
4222.00 -265.42846719 108.66068092
4224.00 -265.64793691 108.80074158
4226.00 -265.86745232 108.94090457
4228.00 -266.08701335 109.08116990
4230.00 -266.30661996 109.22153757
4232.00 -266.52627206 109.36200759
4234.00 -266.74596962 109.50257996
4236.00 -266.96571256 109.64325468
4238.00 -267.18550084 109.78403174
4240.00 -267.40533438 109.92491116
4242.00 -267.62521313 110.06589294
4244.00 -267.84513703 110.20697707
4246.00 -268.06510603 110.34816356
4248.00 -268.28512005 110.48945241
4250.00 -268.50517905 110.63084362
4252.00 -268.72528296 110.77233719
4254.00 -268.94543173 110.91393313
4256.00 -269.16562529 111.05563144
4258.00 -269.38586358 111.19743211
4260.00 -269.60614655 111.33933516
4262.00 -269.82647414 111.48134057
4264.00 -270.04684628 111.62344836
4266.00 -270.26726292 111.76565852
4268.00 -270.48772400 111.90797106
4270.00 -270.70822946 112.05038598
4272.00 -270.92877924 112.19290327
4274.00 -271.14937328 112.33552294
4276.00 -271.37001152 112.47824499
4278.00 -271.59069390 112.62106942
4280.00 -271.81142037 112.76399624
4282.00 -272.03219086 112.90702544
4284.00 -272.25300532 113.05015702
4286.00 -272.47386369 113.19339099
4288.00 -272.69476590 113.33672735
4290.00 -272.91571189 113.48016610
4292.00 -273.13670162 113.62370723
4294.00 -273.35773502 113.76735075
4296.00 -273.57881202 113.91109666
4298.00 -273.79993258 114.05494497
4300.00 -274.02109664 114.19889566
4302.00 -274.24230412 114.34294875
4304.00 -274.46355498 114.48710423
4306.00 -274.68484916 114.63136210
4308.00 -274.90618659 114.77572237
4310.00 -275.12756722 114.92018503
4312.00 -275.34899099 115.06475009
4314.00 -275.57045784 115.20941754
4316.00 -275.79196771 115.35418739
4318.00 -276.01352054 115.49905964
4320.00 -276.23511628 115.64403428
4322.00 -276.45675486 115.78911132
4324.00 -276.67843623 115.93429076
4326.00 -276.90016032 116.07957259
4328.00 -277.12192709 116.22495682
4330.00 -277.34373646 116.37044345
4332.00 -277.56558838 116.51603248
4334.00 -277.78748280 116.66172391
4336.00 -278.00941965 116.80751773
4338.00 -278.23139887 116.95341395
4340.00 -278.45342041 117.09941257
4342.00 -278.67548420 117.24551359
4344.00 -278.89759020 117.39171701
4346.00 -279.11973833 117.53802282
4348.00 -279.34192855 117.68443103
4350.00 -279.56416079 117.83094164
4352.00 -279.78643499 117.97755464
4354.00 -280.00875110 118.12427005
4356.00 -280.23110905 118.27108784
4358.00 -280.45350879 118.41800804
4360.00 -280.67595027 118.56503063
4362.00 -280.89843341 118.71215561
4364.00 -281.12095817 118.85938299
4366.00 -281.34352448 119.00671276
4368.00 -281.56613229 119.15414493
4370.00 -281.78878153 119.30167949
4372.00 -282.01147215 119.44931644
4374.00 -282.23420410 119.59705578
4376.00 -282.45697730 119.74489752
4378.00 -282.67979171 119.89284164
4380.00 -282.90264727 120.04088815
4382.00 -283.12554391 120.18903705
4384.00 -283.34848158 120.33728834
4386.00 -283.57146023 120.48564201
4388.00 -283.79447978 120.63409807
4390.00 -284.01754019 120.78265652
4392.00 -284.24064139 120.93131735
4394.00 -284.46378333 121.08008056
4396.00 -284.68696595 121.22894615
4398.00 -284.91018919 121.37791412
4400.00 -285.13345299 121.52698447
4402.00 -285.35675730 121.67615720
4404.00 -285.58010206 121.82543231
4406.00 -285.80348720 121.97480979
4408.00 -286.02691267 122.12428964
4410.00 -286.25037841 122.27387187
4412.00 -286.47388437 122.42355647
4414.00 -286.69743048 122.57334343
4416.00 -286.92101670 122.72323277
4418.00 -287.14464295 122.87322447
4420.00 -287.36830918 123.02331854
4422.00 -287.59201533 123.17351497
4424.00 -287.81576135 123.32381376
4426.00 -288.03954718 123.47421492
4428.00 -288.26337276 123.62471843
4430.00 -288.48723803 123.77532430
4432.00 -288.71114293 123.92603252
4434.00 -288.93508741 124.07684310
4436.00 -289.15907141 124.22775602
4438.00 -289.38309487 124.37877130
4440.00 -289.60715773 124.52988893
4442.00 -289.83125993 124.68110890
4444.00 -290.05540142 124.83243121
4446.00 -290.27958214 124.98385587
4448.00 -290.50380203 125.13538286
4450.00 -290.72806103 125.28701219
4452.00 -290.95235909 125.43874386
4454.00 -291.17669614 125.59057786
4456.00 -291.40107214 125.74251419
4458.00 -291.62548701 125.89455285
4460.00 -291.84994071 126.04669384
4462.00 -292.07443318 126.19893715
4464.00 -292.29896436 126.35128278
4466.00 -292.52353419 126.50373073
4468.00 -292.74814261 126.65628100
4470.00 -292.97278957 126.80893358
4472.00 -293.19747501 126.96168847
4474.00 -293.42219887 127.11454568
4476.00 -293.64696109 127.26750518
4478.00 -293.87176161 127.42056700
4480.00 -294.09660039 127.57373111
4482.00 -294.32147736 127.72699752
4484.00 -294.54639246 127.88036623
4486.00 -294.77134564 128.03383723
4488.00 -294.99633683 128.18741053
4490.00 -295.22136599 128.34108610
4492.00 -295.44643305 128.49486397
4494.00 -295.67153795 128.64874411
4496.00 -295.89668065 128.80272654
4498.00 -296.12186107 128.95681124
4500.00 -296.34707918 129.11099821
4502.00 -296.57233489 129.26528745
4504.00 -296.79762817 129.41967896
4506.00 -297.02295895 129.57417273
4508.00 -297.24832718 129.72876876
4510.00 -297.47373279 129.88346705
4512.00 -297.69917573 130.03826759
4514.00 -297.92465595 130.19317039
4516.00 -298.15017338 130.34817543
4518.00 -298.37572797 130.50328271
4520.00 -298.60131967 130.65849224
4522.00 -298.82694841 130.81380400
4524.00 -299.05261413 130.96921799
4526.00 -299.27831679 131.12473422
4528.00 -299.50405632 131.28035267
4530.00 -299.72983266 131.43607334
4532.00 -299.95564577 131.59189624
4534.00 -300.18149558 131.74782135
4536.00 -300.40738203 131.90384867
4538.00 -300.63330507 132.05997820
4540.00 -300.85926464 132.21620993
4542.00 -301.08526069 132.37254387
4544.00 -301.31129315 132.52898000
4546.00 -301.53736198 132.68551833
4548.00 -301.76346711 132.84215884
4550.00 -301.98960848 132.99890154
4552.00 -302.21578604 133.15574643
4554.00 -302.44199974 133.31269349
4556.00 -302.66824951 133.46974272
4558.00 -302.89453531 133.62689412
4560.00 -303.12085706 133.78414769
4562.00 -303.34721472 133.94150342
4564.00 -303.57360823 134.09896130
4566.00 -303.80003753 134.25652134
4568.00 -304.02650257 134.41418353
4570.00 -304.25300328 134.57194786
4572.00 -304.47953962 134.72981433
4574.00 -304.70611152 134.88778294
4576.00 -304.93271894 135.04585368
4578.00 -305.15936180 135.20402654
4580.00 -305.38604006 135.36230153
4582.00 -305.61275366 135.52067863
4584.00 -305.83950254 135.67915785
4586.00 -306.06628665 135.83773918
4588.00 -306.29310592 135.99642261
4590.00 -306.51996031 136.15520814
4592.00 -306.74684976 136.31409576
4594.00 -306.97377420 136.47308548
4596.00 -307.20073359 136.63217728
4598.00 -307.42772786 136.79137116
4600.00 -307.65475697 136.95066712
4602.00 -307.88182085 137.11006515
4604.00 -308.10891945 137.26956525
4606.00 -308.33605270 137.42916741
4608.00 -308.56322057 137.58887162
4610.00 -308.79042298 137.74867788
4612.00 -309.01765989 137.90858619
4614.00 -309.24493123 138.06859655
4616.00 -309.47223695 138.22870894
4618.00 -309.69957699 138.38892336
4620.00 -309.92695130 138.54923980
4622.00 -310.15435983 138.70965827
4624.00 -310.38180250 138.87017875
4626.00 -310.60927928 139.03080125
4628.00 -310.83679010 139.19152574
4630.00 -311.06433490 139.35235224
4632.00 -311.29191364 139.51328073
4634.00 -311.51952625 139.67431122
4636.00 -311.74717268 139.83544368
4638.00 -311.97485287 139.99667813
4640.00 -312.20256676 140.15801454
4642.00 -312.43031431 140.31945292
4644.00 -312.65809545 140.48099327
4646.00 -312.88591013 140.64263557
4648.00 -313.11375829 140.80437982
4650.00 -313.34163988 140.96622602
4652.00 -313.56955484 141.12817415
4654.00 -313.79750311 141.29022422
4656.00 -314.02548464 141.45237622
4658.00 -314.25349937 141.61463014
4660.00 -314.48154725 141.77698597
4662.00 -314.70962822 141.93944372
4664.00 -314.93774223 142.10200336
4666.00 -315.16588921 142.26466491
4668.00 -315.39406912 142.42742835
4670.00 -315.62228190 142.59029368
4672.00 -315.85052749 142.75326088
4674.00 -316.07880583 142.91632996
4676.00 -316.30711688 143.07950091
4678.00 -316.53546057 143.24277372
4680.00 -316.76383685 143.40614838
4682.00 -316.99224567 143.56962490
4684.00 -317.22068696 143.73320326
4686.00 -317.44916068 143.89688345
4688.00 -317.67766676 144.06066548
4690.00 -317.90620516 144.22454933
4692.00 -318.13477581 144.38853500
4694.00 -318.36337866 144.55262248
4696.00 -318.59201365 144.71681177
4698.00 -318.82068074 144.88110285
4700.00 -319.04937986 145.04549573
4702.00 -319.27811096 145.20999039
4704.00 -319.50687398 145.37458683
4706.00 -319.73566887 145.53928505
4708.00 -319.96449557 145.70408503
4710.00 -320.19335403 145.86898677
4712.00 -320.42224419 146.03399026
4714.00 -320.65116600 146.19909550
4716.00 -320.88011940 146.36430248
4718.00 -321.10910433 146.52961118
4720.00 -321.33812075 146.69502162
4722.00 -321.56716859 146.86053377
4724.00 -321.79624780 147.02614764
4726.00 -322.02535833 147.19186321
4728.00 -322.25450012 147.35768047
4730.00 -322.48367311 147.52359943
4732.00 -322.71287725 147.68962007
4734.00 -322.94211249 147.85574239
4736.00 -323.17137876 148.02196638
4738.00 -323.40067602 148.18829203
4740.00 -323.63000421 148.35471934
4742.00 -323.85936328 148.52124829
4744.00 -324.08875316 148.68787888
4746.00 -324.31817381 148.85461111
4748.00 -324.54762517 149.02144497
4750.00 -324.77710718 149.18838044
4752.00 -325.00661979 149.35541752
4754.00 -325.23616294 149.52255621
4756.00 -325.46573659 149.68979650
4758.00 -325.69534067 149.85713837
4760.00 -325.92497513 150.02458183
4762.00 -326.15463992 150.19212686
4764.00 -326.38433498 150.35977346
4766.00 -326.61406025 150.52752161
4768.00 -326.84381568 150.69537132
4770.00 -327.07360122 150.86332257
4772.00 -327.30341681 151.03137536
4774.00 -327.53326240 151.19952967
4776.00 -327.76313793 151.36778551
4778.00 -327.99304335 151.53614286
4780.00 -328.22297860 151.70460172
4782.00 -328.45294363 151.87316207
4784.00 -328.68293838 152.04182391
4786.00 -328.91296281 152.21058723
4788.00 -329.14301684 152.37945203
4790.00 -329.37310044 152.54841829
4792.00 -329.60321354 152.71748601
4794.00 -329.83335609 152.88665517
4796.00 -330.06352804 153.05592578
4798.00 -330.29372934 153.22529783
4800.00 -330.52395992 153.39477129
4802.00 -330.75421973 153.56434618
4804.00 -330.98450872 153.73402247
4806.00 -331.21482684 153.90380017
4808.00 -331.44517402 154.07367925
4810.00 -331.67555022 154.24365972
4812.00 -331.90595539 154.41374157
4814.00 -332.13638946 154.58392478
4816.00 -332.36685238 154.75420935
4818.00 -332.59734411 154.92459527
4820.00 -332.82786458 155.09508254
4822.00 -333.05841373 155.26567114
4824.00 -333.28899153 155.43636106
4826.00 -333.51959791 155.60715230
4828.00 -333.75023281 155.77804484
4830.00 -333.98089619 155.94903869
4832.00 -334.21158799 156.12013383
4834.00 -334.44230815 156.29133024
4836.00 -334.67305663 156.46262793
4838.00 -334.90383336 156.63402689
4840.00 -335.13463830 156.80552710
4842.00 -335.36547138 156.97712856
4844.00 -335.59633257 157.14883125
4846.00 -335.82722179 157.32063518
4848.00 -336.05813900 157.49254032
4850.00 -336.28908415 157.66454668
4852.00 -336.52005718 157.83665424
4854.00 -336.75105803 158.00886299
4856.00 -336.98208665 158.18117293
4858.00 -337.21314300 158.35358404
4860.00 -337.44422700 158.52609632
4862.00 -337.67533862 158.69870975
4864.00 -337.90647780 158.87142433
4866.00 -338.13764448 159.04424005
4868.00 -338.36883861 159.21715690
4870.00 -338.60006014 159.39017487
4872.00 -338.83130900 159.56329396
4874.00 -339.06258516 159.73651414
4876.00 -339.29388855 159.90983541
4878.00 -339.52521913 160.08325777
4880.00 -339.75657683 160.25678121
4882.00 -339.98796161 160.43040570
4884.00 -340.21937341 160.60413125
4886.00 -340.45081217 160.77795785
4888.00 -340.68227785 160.95188548
4890.00 -340.91377039 161.12591414
4892.00 -341.14528974 161.30004381
4894.00 -341.37683584 161.47427449
4896.00 -341.60840864 161.64860617
4898.00 -341.84000809 161.82303884
4900.00 -342.07163413 161.99757248
4902.00 -342.30328671 162.17220709
4904.00 -342.53496578 162.34694266
4906.00 -342.76667128 162.52177918
4908.00 -342.99840317 162.69671664
4910.00 -343.23016138 162.87175503
4912.00 -343.46194586 163.04689433
4914.00 -343.69375657 163.22213455
4916.00 -343.92559344 163.39747566
4918.00 -344.15745642 163.57291766
4920.00 -344.38934547 163.74846054
4922.00 -344.62126053 163.92410430
4924.00 -344.85320154 164.09984891
4926.00 -345.08516845 164.27569436
4928.00 -345.31716121 164.45164066
4930.00 -345.54917977 164.62768779
4932.00 -345.78122407 164.80383573
4934.00 -346.01329406 164.98008449
4936.00 -346.24538968 165.15643404
4938.00 -346.47751089 165.33288438
4940.00 -346.70965763 165.50943549
4942.00 -346.94182985 165.68608737
4944.00 -347.17402750 165.86284001
4946.00 -347.40625052 166.03969340
4948.00 -347.63849885 166.21664752
4950.00 -347.87077246 166.39370237
4952.00 -348.10307127 166.57085793
4954.00 -348.33539525 166.74811420
4956.00 -348.56774434 166.92547116
4958.00 -348.80011848 167.10292880
4960.00 -349.03251763 167.28048712
4962.00 -349.26494172 167.45814609
4964.00 -349.49739072 167.63590572
4966.00 -349.72986456 167.81376599
4968.00 -349.96236319 167.99172689
4970.00 -350.19488656 168.16978841
4972.00 -350.42743462 168.34795054
4974.00 -350.66000731 168.52621326
4976.00 -350.89260458 168.70457657
4978.00 -351.12522639 168.88304046
4980.00 -351.35787267 169.06160491
4982.00 -351.59054338 169.24026992
4984.00 -351.82323846 169.41903547
4986.00 -352.05595786 169.59790155
4988.00 -352.28870153 169.77686815
4990.00 -352.52146941 169.95593526
4992.00 -352.75426145 170.13510287
4994.00 -352.98707761 170.31437097
4996.00 -353.21991782 170.49373954
4998.00 -353.45278204 170.67320858
5000.00 -353.68567022 170.85277807
