wavelength(nm)         real         imag
100.00   3.74203072   0.00150954
102.00   3.73564936   0.00160193
104.00   3.72914170   0.00169801
106.00   3.72250772   0.00179787
108.00   3.71574743   0.00190156
110.00   3.70886083   0.00200916
112.00   3.70184793   0.00212075
114.00   3.69470873   0.00223639
116.00   3.68744324   0.00235616
118.00   3.68005145   0.00248013
120.00   3.67253337   0.00260838
122.00   3.66488900   0.00274097
124.00   3.65711835   0.00287798
126.00   3.64922142   0.00301949
128.00   3.64119821   0.00316555
130.00   3.63304873   0.00331625
132.00   3.62477298   0.00347166
134.00   3.61637096   0.00363185
136.00   3.60784268   0.00379689
138.00   3.59918814   0.00396685
140.00   3.59040734   0.00414181
142.00   3.58150029   0.00432185
144.00   3.57246700   0.00450702
146.00   3.56330746   0.00469741
148.00   3.55402169   0.00489308
150.00   3.54460967   0.00509412
152.00   3.53507143   0.00530058
154.00   3.52540696   0.00551255
156.00   3.51561627   0.00573009
158.00   3.50569935   0.00595328
160.00   3.49565623   0.00618219
162.00   3.48548689   0.00641690
164.00   3.47519135   0.00665747
166.00   3.46476961   0.00690398
168.00   3.45422167   0.00715649
170.00   3.44354754   0.00741509
172.00   3.43274722   0.00767984
174.00   3.42182072   0.00795082
176.00   3.41076805   0.00822810
178.00   3.39958920   0.00851175
180.00   3.38828418   0.00880184
182.00   3.37685300   0.00909844
184.00   3.36529566   0.00940164
186.00   3.35361217   0.00971149
188.00   3.34180254   0.01002808
190.00   3.32986676   0.01035147
192.00   3.31780484   0.01068173
194.00   3.30561679   0.01101895
196.00   3.29330261   0.01136319
198.00   3.28086232   0.01171452
200.00   3.26829590   0.01207301
202.00   3.25560338   0.01243874
204.00   3.24278475   0.01281179
206.00   3.22984002   0.01319221
208.00   3.21676920   0.01358009
210.00   3.20357230   0.01397550
212.00   3.19024931   0.01437850
214.00   3.17680024   0.01478918
216.00   3.16322511   0.01520759
218.00   3.14952390   0.01563383
220.00   3.13569665   0.01606795
222.00   3.12174334   0.01651003
224.00   3.10766398   0.01696014
226.00   3.09345858   0.01741835
228.00   3.07912715   0.01788474
230.00   3.06466969   0.01835938
232.00   3.05008622   0.01884234
234.00   3.03537672   0.01933369
236.00   3.02054122   0.01983350
238.00   3.00557972   0.02034185
240.00   2.99049222   0.02085881
242.00   2.97527873   0.02138445
244.00   2.95993926   0.02191885
246.00   2.94447382   0.02246206
248.00   2.92888240   0.02301418
250.00   2.91316503   0.02357526
252.00   2.89732170   0.02414538
254.00   2.88135242   0.02472462
256.00   2.86525720   0.02531304
258.00   2.84903605   0.02591072
260.00   2.83268897   0.02651773
262.00   2.81621597   0.02713413
264.00   2.79961706   0.02776002
266.00   2.78289225   0.02839544
268.00   2.76604153   0.02904049
270.00   2.74906493   0.02969522
272.00   2.73196244   0.03035971
274.00   2.71473408   0.03103404
276.00   2.69737985   0.03171827
278.00   2.67989976   0.03241248
280.00   2.66229381   0.03311674
282.00   2.64456202   0.03383111
284.00   2.62670440   0.03455569
286.00   2.60872094   0.03529052
288.00   2.59061167   0.03603569
290.00   2.57237657   0.03679127
292.00   2.55401568   0.03755734
294.00   2.53552898   0.03833395
296.00   2.51691650   0.03912119
298.00   2.49817823   0.03991912
300.00   2.47931420   0.04072783
302.00   2.46032439   0.04154737
304.00   2.44120883   0.04237782
306.00   2.42196752   0.04321926
308.00   2.40260047   0.04407175
310.00   2.38310769   0.04493538
312.00   2.36348919   0.04581020
314.00   2.34374497   0.04669629
316.00   2.32387505   0.04759372
318.00   2.30387943   0.04850257
320.00   2.28375812   0.04942290
322.00   2.26351113   0.05035480
324.00   2.24313847   0.05129832
326.00   2.22264015   0.05225355
328.00   2.20201618   0.05322055
330.00   2.18126656   0.05419939
332.00   2.16039131   0.05519015
334.00   2.13939043   0.05619290
336.00   2.11826394   0.05720771
338.00   2.09701184   0.05823466
340.00   2.07563414   0.05927380
342.00   2.05413085   0.06032523
344.00   2.03250198   0.06138900
346.00   2.01074755   0.06246518
348.00   1.98886755   0.06355386
350.00   1.96686200   0.06465511
352.00   1.94473091   0.06576898
354.00   1.92247429   0.06689557
356.00   1.90009215   0.06803493
358.00   1.87758450   0.06918713
360.00   1.85495134   0.07035226
362.00   1.83219269   0.07153039
364.00   1.80930856   0.07272157
366.00   1.78629896   0.07392589
368.00   1.76316390   0.07514342
370.00   1.73990338   0.07637423
372.00   1.71651742   0.07761839
374.00   1.69300603   0.07887596
376.00   1.66936922   0.08014704
378.00   1.64560700   0.08143167
380.00   1.62171937   0.08272995
382.00   1.59770636   0.08404193
384.00   1.57356797   0.08536769
386.00   1.54930420   0.08670730
388.00   1.52491508   0.08806084
390.00   1.50040061   0.08942836
392.00   1.47576080   0.09080996
394.00   1.45099567   0.09220569
396.00   1.42610522   0.09361563
398.00   1.40108947   0.09503984
400.00   1.37594842   0.09647841
402.00   1.35068208   0.09793140
404.00   1.32529048   0.09939889
406.00   1.29977362   0.10088094
408.00   1.27413150   0.10237763
410.00   1.24836415   0.10388903
412.00   1.22247157   0.10541520
414.00   1.19645377   0.10695623
416.00   1.17031077   0.10851218
418.00   1.14404257   0.11008312
420.00   1.11764920   0.11166912
422.00   1.09113065   0.11327027
424.00   1.06448695   0.11488662
426.00   1.03771809   0.11651825
428.00   1.01082410   0.11816522
430.00   0.98380499   0.11982762
432.00   0.95666077   0.12150552
434.00   0.92939144   0.12319897
436.00   0.90199703   0.12490807
438.00   0.87447754   0.12663286
440.00   0.84683299   0.12837344
442.00   0.81906338   0.13012986
444.00   0.79116874   0.13190220
446.00   0.76314906   0.13369054
448.00   0.73500437   0.13549494
450.00   0.70673468   0.13731546
452.00   0.67834000   0.13915220
454.00   0.64982034   0.14100521
456.00   0.62117571   0.14287456
458.00   0.59240612   0.14476034
460.00   0.56351160   0.14666260
462.00   0.53449214   0.14858142
464.00   0.50534778   0.15051688
466.00   0.47607850   0.15246903
468.00   0.44668434   0.15443796
470.00   0.41716530   0.15642374
472.00   0.38752139   0.15842642
474.00   0.35775263   0.16044610
476.00   0.32785904   0.16248283
478.00   0.29784061   0.16453669
480.00   0.26769738   0.16660775
482.00   0.23742934   0.16869608
484.00   0.20703652   0.17080175
486.00   0.17651892   0.17292483
488.00   0.14587656   0.17506539
490.00   0.11510946   0.17722351
492.00   0.08421762   0.17939925
494.00   0.05320107   0.18159269
496.00   0.02205980   0.18380390
498.00  -0.00920615   0.18603294
500.00  -0.04059679   0.18827989
502.00  -0.07211209   0.19054482
504.00  -0.10375205   0.19282780
506.00  -0.13551664   0.19512890
508.00  -0.16740585   0.19744819
510.00  -0.19941968   0.19978574
512.00  -0.23155810   0.20214163
514.00  -0.26382111   0.20451592
516.00  -0.29620868   0.20690868
518.00  -0.32872081   0.20931999
520.00  -0.36135748   0.21174992
522.00  -0.39411867   0.21419853
524.00  -0.42700438   0.21666590
526.00  -0.46001458   0.21915209
528.00  -0.49314927   0.22165719
530.00  -0.52640842   0.22418125
532.00  -0.55979203   0.22672435
534.00  -0.59330008   0.22928657
536.00  -0.62693256   0.23186796
538.00  -0.66068944   0.23446861
540.00  -0.69457072   0.23708858
542.00  -0.72857639   0.23972794
544.00  -0.76270641   0.24238677
546.00  -0.79696079   0.24506513
548.00  -0.83133951   0.24776309
550.00  -0.86584255   0.25048073
552.00  -0.90046989   0.25321811
554.00  -0.93522153   0.25597531
556.00  -0.97009744   0.25875239
558.00  -1.00509762   0.26154944
560.00  -1.04022204   0.26436650
562.00  -1.07547069   0.26720367
564.00  -1.11084356   0.27006101
566.00  -1.14634062   0.27293858
568.00  -1.18196187   0.27583646
570.00  -1.21770729   0.27875472
572.00  -1.25357687   0.28169343
574.00  -1.28957058   0.28465266
576.00  -1.32568842   0.28763248
578.00  -1.36193036   0.29063296
580.00  -1.39829639   0.29365417
582.00  -1.43478650   0.29669619
584.00  -1.47140067   0.29975907
586.00  -1.50813888   0.30284289
588.00  -1.54500112   0.30594773
590.00  -1.58198737   0.30907365
592.00  -1.61909762   0.31222072
594.00  -1.65633184   0.31538901
596.00  -1.69369003   0.31857859
598.00  -1.73117217   0.32178954
600.00  -1.76877824   0.32502192
602.00  -1.80650822   0.32827580
604.00  -1.84436210   0.33155126
606.00  -1.88233986   0.33484836
608.00  -1.92044148   0.33816717
610.00  -1.95866696   0.34150776
612.00  -1.99701627   0.34487021
614.00  -2.03548939   0.34825458
616.00  -2.07408631   0.35166094
618.00  -2.11280701   0.35508937
620.00  -2.15165148   0.35853993
622.00  -2.19061970   0.36201270
624.00  -2.22971164   0.36550773
626.00  -2.26892731   0.36902511
628.00  -2.30826667   0.37256490
630.00  -2.34772971   0.37612718
632.00  -2.38731641   0.37971201
634.00  -2.42702676   0.38331946
636.00  -2.46686074   0.38694960
638.00  -2.50681833   0.39060250
640.00  -2.54689951   0.39427824
642.00  -2.58710428   0.39797688
644.00  -2.62743260   0.40169849
646.00  -2.66788446   0.40544314
648.00  -2.70845985   0.40921090
650.00  -2.74915874   0.41300185
652.00  -2.78998113   0.41681604
654.00  -2.83092698   0.42065355
656.00  -2.87199629   0.42451446
658.00  -2.91318904   0.42839882
660.00  -2.95450520   0.43230671
662.00  -2.99594477   0.43623820
664.00  -3.03750771   0.44019336
666.00  -3.07919402   0.44417226
668.00  -3.12100368   0.44817497
670.00  -3.16293667   0.45220155
672.00  -3.20499296   0.45625208
674.00  -3.24717255   0.46032663
676.00  -3.28947541   0.46442526
678.00  -3.33190153   0.46854805
680.00  -3.37445088   0.47269506
682.00  -3.41712346   0.47686636
684.00  -3.45991923   0.48106203
686.00  -3.50283818   0.48528214
688.00  -3.54588030   0.48952674
690.00  -3.58904556   0.49379592
692.00  -3.63233395   0.49808974
694.00  -3.67574544   0.50240827
696.00  -3.71928002   0.50675158
698.00  -3.76293767   0.51111973
700.00  -3.80671838   0.51551281
702.00  -3.85062211   0.51993088
704.00  -3.89464886   0.52437400
706.00  -3.93879859   0.52884225
708.00  -3.98307131   0.53333569
710.00  -4.02746698   0.53785440
712.00  -4.07198558   0.54239844
714.00  -4.11662710   0.54696789
716.00  -4.16139152   0.55156280
718.00  -4.20627882   0.55618326
720.00  -4.25128898   0.56082933
722.00  -4.29642197   0.56550108
724.00  -4.34167779   0.57019858
726.00  -4.38705641   0.57492190
728.00  -4.43255780   0.57967110
730.00  -4.47818196   0.58444626
732.00  -4.52392886   0.58924744
734.00  -4.56979848   0.59407472
736.00  -4.61579080   0.59892816
738.00  -4.66190581   0.60380783
740.00  -4.70814347   0.60871380
742.00  -4.75450378   0.61364615
744.00  -4.80098671   0.61860493
746.00  -4.84759224   0.62359022
748.00  -4.89432036   0.62860208
750.00  -4.94117103   0.63364059
752.00  -4.98814425   0.63870581
754.00  -5.03523999   0.64379782
756.00  -5.08245822   0.64891668
758.00  -5.12979894   0.65406245
760.00  -5.17726212   0.65923522
762.00  -5.22484774   0.66443505
764.00  -5.27255578   0.66966200
766.00  -5.32038622   0.67491614
768.00  -5.36833903   0.68019755
770.00  -5.41641420   0.68550630
772.00  -5.46461171   0.69084244
774.00  -5.51293153   0.69620605
776.00  -5.56137365   0.70159720
778.00  -5.60993804   0.70701596
780.00  -5.65862468   0.71246239
782.00  -5.70743356   0.71793657
784.00  -5.75636465   0.72343856
786.00  -5.80541792   0.72896843
788.00  -5.85459337   0.73452625
790.00  -5.90389096   0.74011209
792.00  -5.95331068   0.74572601
794.00  -6.00285250   0.75136809
796.00  -6.05251641   0.75703839
798.00  -6.10230238   0.76273698
800.00  -6.15221039   0.76846394
802.00  -6.20224042   0.77421932
804.00  -6.25239245   0.78000319
806.00  -6.30266645   0.78581563
808.00  -6.35306241   0.79165671
810.00  -6.40358030   0.79752648
812.00  -6.45422010   0.80342503
814.00  -6.50498180   0.80935241
816.00  -6.55586535   0.81530870
818.00  -6.60687076   0.82129396
820.00  -6.65799799   0.82730826
822.00  -6.70924701   0.83335167
824.00  -6.76061782   0.83942427
826.00  -6.81211039   0.84552610
828.00  -6.86372469   0.85165726
830.00  -6.91546070   0.85781779
832.00  -6.96731841   0.86400778
834.00  -7.01929778   0.87022728
836.00  -7.07139880   0.87647637
838.00  -7.12362144   0.88275512
840.00  -7.17596569   0.88906358
842.00  -7.22843151   0.89540184
844.00  -7.28101889   0.90176996
846.00  -7.33372780   0.90816800
848.00  -7.38655822   0.91459603
850.00  -7.43951013   0.92105413
852.00  -7.49258351   0.92754235
854.00  -7.54577833   0.93406078
856.00  -7.59909457   0.94060946
858.00  -7.65253220   0.94718848
860.00  -7.70609121   0.95379791
862.00  -7.75977158   0.96043779
864.00  -7.81357326   0.96710822
866.00  -7.86749626   0.97380925
868.00  -7.92154053   0.98054095
870.00  -7.97570607   0.98730339
872.00  -8.02999283   0.99409663
874.00  -8.08440081   1.00092075
876.00  -8.13892998   1.00777581
878.00  -8.19358032   1.01466188
880.00  -8.24835179   1.02157902
882.00  -8.30324438   1.02852731
884.00  -8.35825807   1.03550681
886.00  -8.41339283   1.04251759
888.00  -8.46864864   1.04955971
890.00  -8.52402547   1.05663325
892.00  -8.57952330   1.06373827
894.00  -8.63514210   1.07087484
896.00  -8.69088186   1.07804302
898.00  -8.74674254   1.08524289
900.00  -8.80272414   1.09247450
902.00  -8.85882661   1.09973794
904.00  -8.91504993   1.10703325
906.00  -8.97139409   1.11436052
908.00  -9.02785906   1.12171981
910.00  -9.08444481   1.12911119
912.00  -9.14115132   1.13653472
914.00  -9.19797856   1.14399047
916.00  -9.25492652   1.15147850
918.00  -9.31199516   1.15899889
920.00  -9.36918447   1.16655171
922.00  -9.42649441   1.17413701
924.00  -9.48392497   1.18175486
926.00  -9.54147611   1.18940534
928.00  -9.59914782   1.19708851
930.00  -9.65694007   1.20480444
932.00  -9.71485283   1.21255319
934.00  -9.77288608   1.22033483
936.00  -9.83103979   1.22814942
938.00  -9.88931395   1.23599704
940.00  -9.94770852   1.24387775
942.00 -10.00622348   1.25179162
944.00 -10.06485881   1.25973872
946.00 -10.12361447   1.26771910
948.00 -10.18249045   1.27573284
950.00 -10.24148672   1.28378001
952.00 -10.30060325   1.29186067
954.00 -10.35984003   1.29997488
956.00 -10.41919701   1.30812273
958.00 -10.47867419   1.31630426
960.00 -10.53827152   1.32451955
962.00 -10.59798900   1.33276866
964.00 -10.65782658   1.34105166
966.00 -10.71778426   1.34936863
968.00 -10.77786199   1.35771961
970.00 -10.83805976   1.36610469
972.00 -10.89837754   1.37452392
974.00 -10.95881530   1.38297737
976.00 -11.01937302   1.39146512
978.00 -11.08005067   1.39998722
980.00 -11.14084823   1.40854374
982.00 -11.20176566   1.41713475
984.00 -11.26280296   1.42576032
986.00 -11.32396007   1.43442051
988.00 -11.38523699   1.44311538
990.00 -11.44663369   1.45184501
992.00 -11.50815014   1.46060945
994.00 -11.56978631   1.46940879
996.00 -11.63154217   1.47824307
998.00 -11.69341771   1.48711238
1000.00 -11.75541289   1.49601676
1002.00 -11.81752769   1.50495630
1004.00 -11.87976208   1.51393105
1006.00 -11.94211603   1.52294109
1008.00 -12.00458953   1.53198647
1010.00 -12.06718253   1.54106727
1012.00 -12.12989502   1.55018355
1014.00 -12.19272697   1.55933538
1016.00 -12.25567834   1.56852281
1018.00 -12.31874913   1.57774593
1020.00 -12.38193929   1.58700479
1022.00 -12.44524880   1.59629945
1024.00 -12.50867763   1.60563000
1026.00 -12.57222576   1.61499648
1028.00 -12.63589317   1.62439897
1030.00 -12.69967981   1.63383754
1032.00 -12.76358567   1.64331224
1034.00 -12.82761072   1.65282314
1036.00 -12.89175492   1.66237032
1038.00 -12.95601827   1.67195383
1040.00 -13.02040071   1.68157374
1042.00 -13.08490224   1.69123012
1044.00 -13.14952282   1.70092303
1046.00 -13.21426242   1.71065254
1048.00 -13.27912102   1.72041870
1050.00 -13.34409859   1.73022160
1052.00 -13.40919510   1.74006129
1054.00 -13.47441052   1.74993784
1056.00 -13.53974483   1.75985132
1058.00 -13.60519799   1.76980178
1060.00 -13.67076999   1.77978930
1062.00 -13.73646078   1.78981395
1064.00 -13.80227036   1.79987577
1066.00 -13.86819868   1.80997485
1068.00 -13.93424571   1.82011124
1070.00 -14.00041144   1.83028502
1072.00 -14.06669583   1.84049624
1074.00 -14.13309885   1.85074497
1076.00 -14.19962048   1.86103128
1078.00 -14.26626069   1.87135524
1080.00 -14.33301944   1.88171690
1082.00 -14.39989672   1.89211633
1084.00 -14.46689249   1.90255360
1086.00 -14.53400672   1.91302877
1088.00 -14.60123939   1.92354190
1090.00 -14.66859047   1.93409307
1092.00 -14.73605992   1.94468234
1094.00 -14.80364773   1.95530977
1096.00 -14.87135386   1.96597542
1098.00 -14.93917827   1.97667937
1100.00 -15.00712096   1.98742167
1102.00 -15.07518187   1.99820240
1104.00 -15.14336100   2.00902161
1106.00 -15.21165830   2.01987937
1108.00 -15.28007374   2.03077574
1110.00 -15.34860731   2.04171080
1112.00 -15.41725897   2.05268460
1114.00 -15.48602869   2.06369720
1116.00 -15.55491644   2.07474869
1118.00 -15.62392219   2.08583911
1120.00 -15.69304592   2.09696853
1122.00 -15.76228759   2.10813702
1124.00 -15.83164718   2.11934464
1126.00 -15.90112465   2.13059146
1128.00 -15.97071998   2.14187754
1130.00 -16.04043313   2.15320294
1132.00 -16.11026408   2.16456774
1134.00 -16.18021280   2.17597198
1136.00 -16.25027926   2.18741575
1138.00 -16.32046342   2.19889910
1140.00 -16.39076527   2.21042209
1142.00 -16.46118476   2.22198479
1144.00 -16.53172187   2.23358727
1146.00 -16.60237657   2.24522959
1148.00 -16.67314883   2.25691181
1150.00 -16.74403862   2.26863400
1152.00 -16.81504591   2.28039622
1154.00 -16.88617067   2.29219854
1156.00 -16.95741287   2.30404102
1158.00 -17.02877248   2.31592371
1160.00 -17.10024946   2.32784670
1162.00 -17.17184380   2.33981004
1164.00 -17.24355545   2.35181379
1166.00 -17.31538440   2.36385803
1168.00 -17.38733060   2.37594280
1170.00 -17.45939402   2.38806819
1172.00 -17.53157465   2.40023424
1174.00 -17.60387244   2.41244103
1176.00 -17.67628737   2.42468862
1178.00 -17.74881941   2.43697706
1180.00 -17.82146852   2.44930644
1182.00 -17.89423467   2.46167680
1184.00 -17.96711784   2.47408822
1186.00 -18.04011799   2.48654075
1188.00 -18.11323509   2.49903447
1190.00 -18.18646912   2.51156943
1192.00 -18.25982003   2.52414569
1194.00 -18.33328781   2.53676333
1196.00 -18.40687241   2.54942240
1198.00 -18.48057381   2.56212296
1200.00 -18.55439198   2.57486509
1202.00 -18.62832688   2.58764885
1204.00 -18.70237849   2.60047429
1206.00 -18.77654677   2.61334148
1208.00 -18.85083169   2.62625049
1210.00 -18.92523322   2.63920137
1212.00 -18.99975133   2.65219419
1214.00 -19.07438599   2.66522902
1216.00 -19.14913717   2.67830592
1218.00 -19.22400483   2.69142495
1220.00 -19.29898894   2.70458617
1222.00 -19.37408948   2.71778964
1224.00 -19.44930640   2.73103544
1226.00 -19.52463969   2.74432362
1228.00 -19.60008930   2.75765424
1230.00 -19.67565521   2.77102738
1232.00 -19.75133738   2.78444308
1234.00 -19.82713578   2.79790142
1236.00 -19.90305038   2.81140246
1238.00 -19.97908115   2.82494626
1240.00 -20.05522805   2.83853288
1242.00 -20.13149106   2.85216238
1244.00 -20.20787014   2.86583484
1246.00 -20.28436526   2.87955030
1248.00 -20.36097639   2.89330884
1250.00 -20.43770349   2.90711052
1252.00 -20.51454654   2.92095539
1254.00 -20.59150549   2.93484353
1256.00 -20.66858033   2.94877499
1258.00 -20.74577101   2.96274984
1260.00 -20.82307751   2.97676814
1262.00 -20.90049978   2.99082995
1264.00 -20.97803781   3.00493534
1266.00 -21.05569155   3.01908436
1268.00 -21.13346097   3.03327708
1270.00 -21.21134605   3.04751357
1272.00 -21.28934674   3.06179387
1274.00 -21.36746303   3.07611807
1276.00 -21.44569486   3.09048621
1278.00 -21.52404221   3.10489836
1280.00 -21.60250505   3.11935459
1282.00 -21.68108335   3.13385495
1284.00 -21.75977706   3.14839951
1286.00 -21.83858617   3.16298833
1288.00 -21.91751063   3.17762147
1290.00 -21.99655041   3.19229900
1292.00 -22.07570549   3.20702097
1294.00 -22.15497581   3.22178744
1296.00 -22.23436136   3.23659849
1298.00 -22.31386211   3.25145417
1300.00 -22.39347800   3.26635454
1302.00 -22.47320902   3.28129967
1304.00 -22.55305513   3.29628962
1306.00 -22.63301630   3.31132444
1308.00 -22.71309249   3.32640421
1310.00 -22.79328367   3.34152897
1312.00 -22.87358980   3.35669881
1314.00 -22.95401086   3.37191377
1316.00 -23.03454681   3.38717391
1318.00 -23.11519761   3.40247931
1320.00 -23.19596323   3.41783001
1322.00 -23.27684364   3.43322609
1324.00 -23.35783880   3.44866761
1326.00 -23.43894869   3.46415462
1328.00 -23.52017326   3.47968718
1330.00 -23.60151248   3.49526537
1332.00 -23.68296632   3.51088923
1334.00 -23.76453474   3.52655884
1336.00 -23.84621771   3.54227425
1338.00 -23.92801520   3.55803552
1340.00 -24.00992717   3.57384272
1342.00 -24.09195359   3.58969590
1344.00 -24.17409442   3.60559513
1346.00 -24.25634963   3.62154047
1348.00 -24.33871919   3.63753198
1350.00 -24.42120305   3.65356973
1352.00 -24.50380120   3.66965376
1354.00 -24.58651358   3.68578415
1356.00 -24.66934017   3.70196095
1358.00 -24.75228093   3.71818423
1360.00 -24.83533583   3.73445404
1362.00 -24.91850484   3.75077045
1364.00 -25.00178791   3.76713352
1366.00 -25.08518502   3.78354331
1368.00 -25.16869612   3.79999988
1370.00 -25.25232120   3.81650329
1372.00 -25.33606020   3.83305360
1374.00 -25.41991309   3.84965088
1376.00 -25.50387985   3.86629517
1378.00 -25.58796043   3.88298655
1380.00 -25.67215480   3.89972508
1382.00 -25.75646292   3.91651080
1384.00 -25.84088476   3.93334380
1386.00 -25.92542029   3.95022412
1388.00 -26.01006947   3.96715183
1390.00 -26.09483227   3.98412698
1392.00 -26.17970864   4.00114964
1394.00 -26.26469855   4.01821987
1396.00 -26.34980198   4.03533773
1398.00 -26.43501888   4.05250328
1400.00 -26.52034921   4.06971657
1402.00 -26.60579295   4.08697768
1404.00 -26.69135005   4.10428665
1406.00 -26.77702049   4.12164356
1408.00 -26.86280422   4.13904845
1410.00 -26.94870121   4.15650139
1412.00 -27.03471143   4.17400245
1414.00 -27.12083483   4.19155167
1416.00 -27.20707139   4.20914913
1418.00 -27.29342106   4.22679488
1420.00 -27.37988382   4.24448897
1422.00 -27.46645962   4.26223148
1424.00 -27.55314843   4.28002245
1426.00 -27.63995021   4.29786196
1428.00 -27.72686493   4.31575006
1430.00 -27.81389255   4.33368681
1432.00 -27.90103304   4.35167226
1434.00 -27.98828636   4.36970649
1436.00 -28.07565247   4.38778954
1438.00 -28.16313134   4.40592149
1440.00 -28.25072292   4.42410238
1442.00 -28.33842720   4.44233228
1444.00 -28.42624412   4.46061125
1446.00 -28.51417365   4.47893935
1448.00 -28.60221576   4.49731663
1450.00 -28.69037041   4.51574316
1452.00 -28.77863755   4.53421899
1454.00 -28.86701717   4.55274419
1456.00 -28.95550921   4.57131882
1458.00 -29.04411365   4.58994293
1460.00 -29.13283044   4.60861658
1462.00 -29.22165956   4.62733983
1464.00 -29.31060095   4.64611275
1466.00 -29.39965459   4.66493539
1468.00 -29.48882044   4.68380781
1470.00 -29.57809846   4.70273006
1472.00 -29.66748862   4.72170222
1474.00 -29.75699088   4.74072433
1476.00 -29.84660520   4.75979646
1478.00 -29.93633154   4.77891867
1480.00 -30.02616987   4.79809101
1482.00 -30.11612015   4.81731355
1484.00 -30.20618234   4.83658633
1486.00 -30.29635641   4.85590943
1488.00 -30.38664231   4.87528290
1490.00 -30.47704002   4.89470680
1492.00 -30.56754949   4.91418119
1494.00 -30.65817069   4.93370612
1496.00 -30.74890358   4.95328166
1498.00 -30.83974812   4.97290786
1500.00 -30.93070428   4.99258479
1502.00 -31.02177201   5.01231249
1504.00 -31.11295128   5.03209104
1506.00 -31.20424206   5.05192048
1508.00 -31.29564430   5.07180089
1510.00 -31.38715796   5.09173230
1512.00 -31.47878302   5.11171480
1514.00 -31.57051942   5.13174842
1516.00 -31.66236714   5.15183323
1518.00 -31.75432614   5.17196930
1520.00 -31.84639637   5.19215667
1522.00 -31.93857780   5.21239541
1524.00 -32.03087040   5.23268557
1526.00 -32.12327412   5.25302721
1528.00 -32.21578892   5.27342039
1530.00 -32.30841477   5.29386517
1532.00 -32.40115164   5.31436161
1534.00 -32.49399947   5.33490976
1536.00 -32.58695824   5.35550969
1538.00 -32.68002790   5.37616144
1540.00 -32.77320842   5.39686508
1542.00 -32.86649976   5.41762067
1544.00 -32.95990188   5.43842827
1546.00 -33.05341475   5.45928792
1548.00 -33.14703831   5.48019970
1550.00 -33.24077254   5.50116365
1552.00 -33.33461740   5.52217984
1554.00 -33.42857285   5.54324833
1556.00 -33.52263884   5.56436916
1558.00 -33.61681535   5.58554240
1560.00 -33.71110233   5.60676811
1562.00 -33.80549975   5.62804634
1564.00 -33.90000756   5.64937715
1566.00 -33.99462572   5.67076060
1568.00 -34.08935420   5.69219675
1570.00 -34.18419297   5.71368565
1572.00 -34.27914197   5.73522736
1574.00 -34.37420117   5.75682194
1576.00 -34.46937054   5.77846945
1578.00 -34.56465002   5.80016994
1580.00 -34.66003960   5.82192347
1582.00 -34.75553921   5.84373009
1584.00 -34.85114884   5.86558987
1586.00 -34.94686843   5.88750286
1588.00 -35.04269795   5.90946913
1590.00 -35.13863735   5.93148871
1592.00 -35.23468661   5.95356168
1594.00 -35.33084567   5.97568809
1596.00 -35.42711451   5.99786800
1598.00 -35.52349307   6.02010146
1600.00 -35.61998133   6.04238853
1602.00 -35.71657924   6.06472927
1604.00 -35.81328677   6.08712373
1606.00 -35.91010386   6.10957197
1608.00 -36.00703049   6.13207406
1610.00 -36.10406662   6.15463003
1612.00 -36.20121220   6.17723996
1614.00 -36.29846719   6.19990389
1616.00 -36.39583156   6.22262189
1618.00 -36.49330527   6.24539402
1620.00 -36.59088827   6.26822031
1622.00 -36.68858052   6.29110085
1624.00 -36.78638200   6.31403567
1626.00 -36.88429264   6.33702484
1628.00 -36.98231243   6.36006841
1630.00 -37.08044131   6.38316645
1632.00 -37.17867925   6.40631899
1634.00 -37.27702620   6.42952612
1636.00 -37.37548213   6.45278787
1638.00 -37.47404699   6.47610430
1640.00 -37.57272075   6.49947548
1642.00 -37.67150337   6.52290145
1644.00 -37.77039480   6.54638227
1646.00 -37.86939501   6.56991801
1648.00 -37.96850395   6.59350871
1650.00 -38.06772158   6.61715443
1652.00 -38.16704787   6.64085523
1654.00 -38.26648278   6.66461116
1656.00 -38.36602625   6.68842228
1658.00 -38.46567826   6.71228864
1660.00 -38.56543877   6.73621031
1662.00 -38.66530772   6.76018733
1664.00 -38.76528508   6.78421976
1666.00 -38.86537082   6.80830766
1668.00 -38.96556488   6.83245109
1670.00 -39.06586723   6.85665009
1672.00 -39.16627784   6.88090473
1674.00 -39.26679664   6.90521506
1676.00 -39.36742362   6.92958113
1678.00 -39.46815872   6.95400301
1680.00 -39.56900191   6.97848074
1682.00 -39.66995314   7.00301438
1684.00 -39.77101237   7.02760399
1686.00 -39.87217957   7.05224962
1688.00 -39.97345468   7.07695133
1690.00 -40.07483768   7.10170918
1692.00 -40.17632851   7.12652321
1694.00 -40.27792714   7.15139348
1696.00 -40.37963353   7.17632006
1698.00 -40.48144764   7.20130299
1700.00 -40.58336941   7.22634232
1702.00 -40.68539882   7.25143812
1704.00 -40.78753583   7.27659044
1706.00 -40.88978038   7.30179933
1708.00 -40.99213244   7.32706485
1710.00 -41.09459197   7.35238706
1712.00 -41.19715892   7.37776600
1714.00 -41.29983326   7.40320174
1716.00 -41.40261494   7.42869432
1718.00 -41.50550392   7.45424381
1720.00 -41.60850016   7.47985025
1722.00 -41.71160362   7.50551371
1724.00 -41.81481425   7.53123423
1726.00 -41.91813202   7.55701187
1728.00 -42.02155688   7.58284669
1730.00 -42.12508879   7.60873874
1732.00 -42.22872772   7.63468807
1734.00 -42.33247360   7.66069474
1736.00 -42.43632642   7.68675881
1738.00 -42.54028612   7.71288032
1740.00 -42.64435265   7.73905934
1742.00 -42.74852599   7.76529591
1744.00 -42.85280609   7.79159009
1746.00 -42.95719290   7.81794194
1748.00 -43.06168638   7.84435150
1750.00 -43.16628650   7.87081884
1752.00 -43.27099320   7.89734401
1754.00 -43.37580645   7.92392705
1756.00 -43.48072620   7.95056803
1758.00 -43.58575242   7.97726700
1760.00 -43.69088506   8.00402402
1762.00 -43.79612407   8.03083913
1764.00 -43.90146942   8.05771239
1766.00 -44.00692106   8.08464385
1768.00 -44.11247895   8.11163358
1770.00 -44.21814305   8.13868161
1772.00 -44.32391331   8.16578801
1774.00 -44.42978970   8.19295283
1776.00 -44.53577217   8.22017613
1778.00 -44.64186067   8.24745795
1780.00 -44.74805517   8.27479835
1782.00 -44.85435562   8.30219738
1784.00 -44.96076198   8.32965510
1786.00 -45.06727421   8.35717156
1788.00 -45.17389226   8.38474682
1790.00 -45.28061609   8.41238092
1792.00 -45.38744566   8.44007392
1794.00 -45.49438092   8.46782588
1796.00 -45.60142184   8.49563684
1798.00 -45.70856836   8.52350686
1800.00 -45.81582045   8.55143600
1802.00 -45.92317807   8.57942430
1804.00 -46.03064116   8.60747183
1806.00 -46.13820969   8.63557862
1808.00 -46.24588362   8.66374474
1810.00 -46.35366290   8.69197024
1812.00 -46.46154748   8.72025517
1814.00 -46.56953733   8.74859959
1816.00 -46.67763240   8.77700354
1818.00 -46.78583264   8.80546708
1820.00 -46.89413802   8.83399027
1822.00 -47.00254849   8.86257315
1824.00 -47.11106401   8.89121578
1826.00 -47.21968453   8.91991821
1828.00 -47.32841002   8.94868049
1830.00 -47.43724042   8.97750268
1832.00 -47.54617569   9.00638483
1834.00 -47.65521580   9.03532699
1836.00 -47.76436069   9.06432921
1838.00 -47.87361032   9.09339155
1840.00 -47.98296465   9.12251405
1842.00 -48.09242364   9.15169678
1844.00 -48.20198724   9.18093978
1846.00 -48.31165540   9.21024310
1848.00 -48.42142809   9.23960681
1850.00 -48.53130526   9.26903094
1852.00 -48.64128687   9.29851555
1854.00 -48.75137287   9.32806070
1856.00 -48.86156321   9.35766643
1858.00 -48.97185787   9.38733280
1860.00 -49.08225678   9.41705986
1862.00 -49.19275991   9.44684766
1864.00 -49.30336721   9.47669626
1866.00 -49.41407864   9.50660570
1868.00 -49.52489415   9.53657604
1870.00 -49.63581370   9.56660733
1872.00 -49.74683725   9.59669962
1874.00 -49.85796475   9.62685296
1876.00 -49.96919616   9.65706741
1878.00 -50.08053143   9.68734301
1880.00 -50.19197051   9.71767982
1882.00 -50.30351338   9.74807789
1884.00 -50.41515997   9.77853727
1886.00 -50.52691025   9.80905801
1888.00 -50.63876417   9.83964016
1890.00 -50.75072168   9.87028378
1892.00 -50.86278275   9.90098892
1894.00 -50.97494732   9.93175562
1896.00 -51.08721536   9.96258394
1898.00 -51.19958681   9.99347393
1900.00 -51.31206164  10.02442565
1902.00 -51.42463980  10.05543913
1904.00 -51.53732124  10.08651444
1906.00 -51.65010592  10.11765162
1908.00 -51.76299380  10.14885073
1910.00 -51.87598482  10.18011182
1912.00 -51.98907895  10.21143493
1914.00 -52.10227614  10.24282012
1916.00 -52.21557635  10.27426744
1918.00 -52.32897952  10.30577694
1920.00 -52.44248562  10.33734867
1922.00 -52.55609460  10.36898269
1924.00 -52.66980642  10.40067903
1926.00 -52.78362102  10.43243776
1928.00 -52.89753837  10.46425892
1930.00 -53.01155842  10.49614257
1932.00 -53.12568113  10.52808875
1934.00 -53.23990644  10.56009751
1936.00 -53.35423432  10.59216891
1938.00 -53.46866472  10.62430300
1940.00 -53.58319759  10.65649983
1942.00 -53.69783289  10.68875944
1944.00 -53.81257058  10.72108189
1946.00 -53.92741060  10.75346722
1948.00 -54.04235291  10.78591549
1950.00 -54.15739747  10.81842675
1952.00 -54.27254423  10.85100105
1954.00 -54.38779315  10.88363844
1956.00 -54.50314418  10.91633897
1958.00 -54.61859727  10.94910268
1960.00 -54.73415238  10.98192963
1962.00 -54.84980947  11.01481987
1964.00 -54.96556848  11.04777345
1966.00 -55.08142938  11.08079041
1968.00 -55.19739211  11.11387082
1970.00 -55.31345664  11.14701471
1972.00 -55.42962290  11.18022213
1974.00 -55.54589087  11.21349315
1976.00 -55.66226049  11.24682780
1978.00 -55.77873172  11.28022614
1980.00 -55.89530451  11.31368821
1982.00 -56.01197882  11.34721407
1984.00 -56.12875460  11.38080376
1986.00 -56.24563180  11.41445734
1988.00 -56.36261037  11.44817485
1990.00 -56.47969028  11.48195634
1992.00 -56.59687148  11.51580187
1994.00 -56.71415391  11.54971148
1996.00 -56.83153754  11.58368521
1998.00 -56.94902232  11.61772313
2000.00 -57.06660819  11.65182528
2002.00 -57.18429512  11.68599171
2004.00 -57.30208306  11.72022246
2006.00 -57.41997197  11.75451759
2008.00 -57.53796178  11.78887714
2010.00 -57.65605247  11.82330117
2012.00 -57.77424398  11.85778973
2014.00 -57.89253627  11.89234285
2016.00 -58.01092929  11.92696060
2018.00 -58.12942299  11.96164301
2020.00 -58.24801733  11.99639015
2022.00 -58.36671226  12.03120205
2024.00 -58.48550774  12.06607877
2026.00 -58.60440371  12.10102035
2028.00 -58.72340014  12.13602684
2030.00 -58.84249696  12.17109830
2032.00 -58.96169415  12.20623477
2034.00 -59.08099165  12.24143629
2036.00 -59.20038941  12.27670293
2038.00 -59.31988739  12.31203472
2040.00 -59.43948555  12.34743171
2042.00 -59.55918382  12.38289395
2044.00 -59.67898217  12.41842150
2046.00 -59.79888056  12.45401439
2048.00 -59.91887893  12.48967268
2050.00 -60.03897723  12.52539642
2052.00 -60.15917542  12.56118565
2054.00 -60.27947346  12.59704042
2056.00 -60.39987129  12.63296078
2058.00 -60.52036887  12.66894677
2060.00 -60.64096615  12.70499845
2062.00 -60.76166309  12.74111587
2064.00 -60.88245964  12.77729906
2066.00 -61.00335574  12.81354808
2068.00 -61.12435136  12.84986298
2070.00 -61.24544644  12.88624381
2072.00 -61.36664094  12.92269060
2074.00 -61.48793482  12.95920342
2076.00 -61.60932801  12.99578230
2078.00 -61.73082049  13.03242729
2080.00 -61.85241219  13.06913845
2082.00 -61.97410308  13.10591582
2084.00 -62.09589310  13.14275944
2086.00 -62.21778221  13.17966937
2088.00 -62.33977035  13.21664565
2090.00 -62.46185749  13.25368833
2092.00 -62.58404358  13.29079745
2094.00 -62.70632856  13.32797307
2096.00 -62.82871239  13.36521523
2098.00 -62.95119502  13.40252397
2100.00 -63.07377641  13.43989935
2102.00 -63.19645650  13.47734142
2104.00 -63.31923525  13.51485021
2106.00 -63.44211262  13.55242577
2108.00 -63.56508854  13.59006816
2110.00 -63.68816299  13.62777742
2112.00 -63.81133590  13.66555360
2114.00 -63.93460723  13.70339674
2116.00 -64.05797693  13.74130689
2118.00 -64.18144496  13.77928409
2120.00 -64.30501127  13.81732840
2122.00 -64.42867580  13.85543986
2124.00 -64.55243852  13.89361852
2126.00 -64.67629936  13.93186441
2128.00 -64.80025829  13.97017760
2130.00 -64.92431526  14.00855813
2132.00 -65.04847022  14.04700603
2134.00 -65.17272312  14.08552137
2136.00 -65.29707391  14.12410418
2138.00 -65.42152254  14.16275451
2140.00 -65.54606897  14.20147241
2142.00 -65.67071315  14.24025793
2144.00 -65.79545502  14.27911110
2146.00 -65.92029455  14.31803198
2148.00 -66.04523168  14.35702061
2150.00 -66.17026637  14.39607704
2152.00 -66.29539856  14.43520132
2154.00 -66.42062822  14.47439348
2156.00 -66.54595528  14.51365359
2158.00 -66.67137970  14.55298167
2160.00 -66.79690143  14.59237778
2162.00 -66.92252043  14.63184197
2164.00 -67.04823665  14.67137427
2166.00 -67.17405003  14.71097474
2168.00 -67.29996053  14.75064342
2170.00 -67.42596810  14.79038036
2172.00 -67.55207270  14.83018560
2174.00 -67.67827427  14.87005918
2176.00 -67.80457276  14.91000116
2178.00 -67.93096812  14.95001158
2180.00 -68.05746032  14.99009048
2182.00 -68.18404929  15.03023791
2184.00 -68.31073499  15.07045392
2186.00 -68.43751737  15.11073854
2188.00 -68.56439639  15.15109183
2190.00 -68.69137199  15.19151383
2192.00 -68.81844412  15.23200459
2194.00 -68.94561274  15.27256414
2196.00 -69.07287779  15.31319254
2198.00 -69.20023923  15.35388983
2200.00 -69.32769701  15.39465606
2202.00 -69.45525109  15.43549127
2204.00 -69.58290140  15.47639550
2206.00 -69.71064790  15.51736880
2208.00 -69.83849054  15.55841122
2210.00 -69.96642928  15.59952280
2212.00 -70.09446407  15.64070358
2214.00 -70.22259485  15.68195361
2216.00 -70.35082157  15.72327294
2218.00 -70.47914419  15.76466160
2220.00 -70.60756266  15.80611964
2222.00 -70.73607693  15.84764712
2224.00 -70.86468695  15.88924406
2226.00 -70.99339267  15.93091052
2228.00 -71.12219403  15.97264654
2230.00 -71.25109100  16.01445217
2232.00 -71.38008352  16.05632744
2234.00 -71.50917155  16.09827241
2236.00 -71.63835503  16.14028712
2238.00 -71.76763391  16.18237161
2240.00 -71.89700814  16.22452592
2242.00 -72.02647768  16.26675011
2244.00 -72.15604248  16.30904421
2246.00 -72.28570248  16.35140826
2248.00 -72.41545764  16.39384232
2250.00 -72.54530790  16.43634642
2252.00 -72.67525323  16.47892062
2254.00 -72.80529355  16.52156494
2256.00 -72.93542884  16.56427945
2258.00 -73.06565904  16.60706417
2260.00 -73.19598409  16.64991916
2262.00 -73.32640395  16.69284446
2264.00 -73.45691857  16.73584011
2266.00 -73.58752791  16.77890616
2268.00 -73.71823190  16.82204264
2270.00 -73.84903050  16.86524961
2272.00 -73.97992366  16.90852710
2274.00 -74.11091133  16.95187517
2276.00 -74.24199346  16.99529384
2278.00 -74.37317000  17.03878317
2280.00 -74.50444090  17.08234320
2282.00 -74.63580611  17.12597397
2284.00 -74.76726558  17.16967553
2286.00 -74.89881926  17.21344792
2288.00 -75.03046710  17.25729118
2290.00 -75.16220905  17.30120535
2292.00 -75.29404506  17.34519048
2294.00 -75.42597508  17.38924661
2296.00 -75.55799906  17.43337378
2298.00 -75.69011696  17.47757205
2300.00 -75.82232871  17.52184144
2302.00 -75.95463427  17.56618200
2304.00 -76.08703359  17.61059378
2306.00 -76.21952661  17.65507681
2308.00 -76.35211330  17.69963115
2310.00 -76.48479360  17.74425682
2312.00 -76.61756745  17.78895389
2314.00 -76.75043481  17.83372238
2316.00 -76.88339563  17.87856234
2318.00 -77.01644985  17.92347381
2320.00 -77.14959744  17.96845684
2322.00 -77.28283833  18.01351147
2324.00 -77.41617247  18.05863773
2326.00 -77.54959982  18.10383568
2328.00 -77.68312032  18.14910535
2330.00 -77.81673393  18.19444679
2332.00 -77.95044059  18.23986004
2334.00 -78.08424026  18.28534513
2336.00 -78.21813288  18.33090212
2338.00 -78.35211840  18.37653105
2340.00 -78.48619677  18.42223195
2342.00 -78.62036794  18.46800487
2344.00 -78.75463186  18.51384984
2346.00 -78.88898849  18.55976693
2348.00 -79.02343776  18.60575615
2350.00 -79.15797963  18.65181756
2352.00 -79.29261404  18.69795120
2354.00 -79.42734095  18.74415711
2356.00 -79.56216031  18.79043532
2358.00 -79.69707206  18.83678589
2360.00 -79.83207616  18.88320885
2362.00 -79.96717255  18.92970425
2364.00 -80.10236118  18.97627212
2366.00 -80.23764200  19.02291252
2368.00 -80.37301497  19.06962547
2370.00 -80.50848002  19.11641102
2372.00 -80.64403711  19.16326921
2374.00 -80.77968619  19.21020009
2376.00 -80.91542721  19.25720369
2378.00 -81.05126011  19.30428005
2380.00 -81.18718484  19.35142922
2382.00 -81.32320136  19.39865124
2384.00 -81.45930961  19.44594615
2386.00 -81.59550954  19.49331398
2388.00 -81.73180110  19.54075479
2390.00 -81.86818424  19.58826861
2392.00 -82.00465891  19.63585547
2394.00 -82.14122505  19.68351544
2396.00 -82.27788262  19.73124853
2398.00 -82.41463156  19.77905480
2400.00 -82.55147183  19.82693428
2402.00 -82.68840336  19.87488702
2404.00 -82.82542612  19.92291305
2406.00 -82.96254004  19.97101242
2408.00 -83.09974509  20.01918516
2410.00 -83.23704119  20.06743133
2412.00 -83.37442832  20.11575095
2414.00 -83.51190640  20.16414406
2416.00 -83.64947540  20.21261072
2418.00 -83.78713526  20.26115095
2420.00 -83.92488592  20.30976481
2422.00 -84.06272734  20.35845232
2424.00 -84.20065947  20.40721353
2426.00 -84.33868226  20.45604847
2428.00 -84.47679564  20.50495720
2430.00 -84.61499958  20.55393974
2432.00 -84.75329401  20.60299615
2434.00 -84.89167889  20.65212645
2436.00 -85.03015417  20.70133069
2438.00 -85.16871980  20.75060891
2440.00 -85.30737571  20.79996115
2442.00 -85.44612187  20.84938744
2444.00 -85.58495822  20.89888783
2446.00 -85.72388470  20.94846236
2448.00 -85.86290127  20.99811106
2450.00 -86.00200788  21.04783398
2452.00 -86.14120446  21.09763116
2454.00 -86.28049098  21.14750263
2456.00 -86.41986737  21.19744844
2458.00 -86.55933360  21.24746861
2460.00 -86.69888959  21.29756321
2462.00 -86.83853531  21.34773225
2464.00 -86.97827070  21.39797578
2466.00 -87.11809571  21.44829385
2468.00 -87.25801029  21.49868648
2470.00 -87.39801438  21.54915373
2472.00 -87.53810794  21.59969562
2474.00 -87.67829090  21.65031220
2476.00 -87.81856323  21.70100350
2478.00 -87.95892486  21.75176957
2480.00 -88.09937575  21.80261044
2482.00 -88.23991584  21.85352616
2484.00 -88.38054508  21.90451675
2486.00 -88.52126342  21.95558227
2488.00 -88.66207080  22.00672274
2490.00 -88.80296718  22.05793822
2492.00 -88.94395250  22.10922872
2494.00 -89.08502672  22.16059430
2496.00 -89.22618976  22.21203500
2498.00 -89.36744160  22.26355084
2500.00 -89.50878217  22.31514188
2502.00 -89.65021142  22.36680814
2504.00 -89.79172929  22.41854967
2506.00 -89.93333575  22.47036651
2508.00 -90.07503072  22.52225868
2510.00 -90.21681417  22.57422624
2512.00 -90.35868604  22.62626922
2514.00 -90.50064627  22.67838766
2516.00 -90.64269482  22.73058159
2518.00 -90.78483163  22.78285105
2520.00 -90.92705665  22.83519609
2522.00 -91.06936983  22.88761673
2524.00 -91.21177111  22.94011302
2526.00 -91.35426044  22.99268500
2528.00 -91.49683777  23.04533270
2530.00 -91.63950305  23.09805616
2532.00 -91.78225623  23.15085542
2534.00 -91.92509724  23.20373052
2536.00 -92.06802605  23.25668149
2538.00 -92.21104259  23.30970837
2540.00 -92.35414681  23.36281119
2542.00 -92.49733867  23.41599001
2544.00 -92.64061811  23.46924485
2546.00 -92.78398507  23.52257575
2548.00 -92.92743950  23.57598275
2550.00 -93.07098135  23.62946588
2552.00 -93.21461058  23.68302519
2554.00 -93.35832711  23.73666071
2556.00 -93.50213091  23.79037247
2558.00 -93.64602192  23.84416052
2560.00 -93.79000009  23.89802489
2562.00 -93.93406535  23.95196562
2564.00 -94.07821767  24.00598274
2566.00 -94.22245699  24.06007630
2568.00 -94.36678326  24.11424633
2570.00 -94.51119641  24.16849286
2572.00 -94.65569640  24.22281594
2574.00 -94.80028319  24.27721560
2576.00 -94.94495670  24.33169187
2578.00 -95.08971690  24.38624479
2580.00 -95.23456372  24.44087441
2582.00 -95.37949712  24.49558075
2584.00 -95.52451703  24.55036386
2586.00 -95.66962342  24.60522377
2588.00 -95.81481622  24.66016051
2590.00 -95.96009539  24.71517412
2592.00 -96.10546086  24.77026464
2594.00 -96.25091259  24.82543211
2596.00 -96.39645053  24.88067656
2598.00 -96.54207461  24.93599803
2600.00 -96.68778479  24.99139655
2602.00 -96.83358101  25.04687216
2604.00 -96.97946323  25.10242490
2606.00 -97.12543138  25.15805480
2608.00 -97.27148541  25.21376190
2610.00 -97.41762528  25.26954623
2612.00 -97.56385092  25.32540783
2614.00 -97.71016229  25.38134674
2616.00 -97.85655933  25.43736299
2618.00 -98.00304199  25.49345661
2620.00 -98.14961021  25.54962765
2622.00 -98.29626394  25.60587614
2624.00 -98.44300313  25.66220212
2626.00 -98.58982773  25.71860561
2628.00 -98.73673767  25.77508666
2630.00 -98.88373291  25.83164530
2632.00 -99.03081340  25.88828157
2634.00 -99.17797908  25.94499550
2636.00 -99.32522989  26.00178713
2638.00 -99.47256579  26.05865649
2640.00 -99.61998672  26.11560362
2642.00 -99.76749263  26.17262855
2644.00 -99.91508346  26.22973132
2646.00 -100.06275916  26.28691197
2648.00 -100.21051967  26.34417052
2650.00 -100.35836495  26.40150702
2652.00 -100.50629494  26.45892150
2654.00 -100.65430958  26.51641399
2656.00 -100.80240883  26.57398453
2658.00 -100.95059262  26.63163316
2660.00 -101.09886091  26.68935990
2662.00 -101.24721364  26.74716479
2664.00 -101.39565076  26.80504788
2666.00 -101.54417221  26.86300919
2668.00 -101.69277794  26.92104875
2670.00 -101.84146790  26.97916661
2672.00 -101.99024203  27.03736280
2674.00 -102.13910028  27.09563734
2676.00 -102.28804259  27.15399028
2678.00 -102.43706892  27.21242165
2680.00 -102.58617920  27.27093149
2682.00 -102.73537339  27.32951983
2684.00 -102.88465142  27.38818670
2686.00 -103.03401326  27.44693213
2688.00 -103.18345884  27.50575617
2690.00 -103.33298810  27.56465885
2692.00 -103.48260100  27.62364019
2694.00 -103.63229748  27.68270024
2696.00 -103.78207749  27.74183903
2698.00 -103.93194097  27.80105659
2700.00 -104.08188787  27.86035295
2702.00 -104.23191813  27.91972816
2704.00 -104.38203171  27.97918224
2706.00 -104.53222854  28.03871522
2708.00 -104.68250858  28.09832715
2710.00 -104.83287177  28.15801806
2712.00 -104.98331805  28.21778797
2714.00 -105.13384737  28.27763693
2716.00 -105.28445968  28.33756496
2718.00 -105.43515492  28.39757210
2720.00 -105.58593304  28.45765838
2722.00 -105.73679399  28.51782385
2724.00 -105.88773771  28.57806852
2726.00 -106.03876414  28.63839243
2728.00 -106.18987324  28.69879562
2730.00 -106.34106495  28.75927813
2732.00 -106.49233921  28.81983997
2734.00 -106.64369597  28.88048119
2736.00 -106.79513518  28.94120182
2738.00 -106.94665678  29.00200190
2740.00 -107.09826071  29.06288144
2742.00 -107.24994693  29.12384050
2744.00 -107.40171538  29.18487910
2746.00 -107.55356601  29.24599728
2748.00 -107.70549875  29.30719506
2750.00 -107.85751356  29.36847248
2752.00 -108.00961039  29.42982957
2754.00 -108.16178917  29.49126637
2756.00 -108.31404985  29.55278291
2758.00 -108.46639239  29.61437922
2760.00 -108.61881672  29.67605534
2762.00 -108.77132279  29.73781129
2764.00 -108.92391054  29.79964710
2766.00 -109.07657993  29.86156282
2768.00 -109.22933090  29.92355848
2770.00 -109.38216339  29.98563410
2772.00 -109.53507734  30.04778972
2774.00 -109.68807272  30.11002536
2776.00 -109.84114945  30.17234108
2778.00 -109.99430748  30.23473688
2780.00 -110.14754677  30.29721282
2782.00 -110.30086726  30.35976891
2784.00 -110.45426888  30.42240519
2786.00 -110.60775160  30.48512170
2788.00 -110.76131534  30.54791846
2790.00 -110.91496007  30.61079551
2792.00 -111.06868572  30.67375288
2794.00 -111.22249223  30.73679060
2796.00 -111.37637957  30.79990871
2798.00 -111.53034766  30.86310722
2800.00 -111.68439646  30.92638619
2802.00 -111.83852591  30.98974563
2804.00 -111.99273595  31.05318558
2806.00 -112.14702654  31.11670607
2808.00 -112.30139762  31.18030714
2810.00 -112.45584912  31.24398881
2812.00 -112.61038101  31.30775111
2814.00 -112.76499322  31.37159408
2816.00 -112.91968569  31.43551775
2818.00 -113.07445838  31.49952215
2820.00 -113.22931123  31.56360731
2822.00 -113.38424419  31.62777326
2824.00 -113.53925719  31.69202004
2826.00 -113.69435019  31.75634767
2828.00 -113.84952313  31.82075618
2830.00 -114.00477595  31.88524561
2832.00 -114.16010860  31.94981599
2834.00 -114.31552103  32.01446734
2836.00 -114.47101318  32.07919971
2838.00 -114.62658500  32.14401311
2840.00 -114.78223643  32.20890759
2842.00 -114.93796741  32.27388317
2844.00 -115.09377790  32.33893988
2846.00 -115.24966783  32.40407775
2848.00 -115.40563716  32.46929681
2850.00 -115.56168582  32.53459710
2852.00 -115.71781376  32.59997865
2854.00 -115.87402094  32.66544148
2856.00 -116.03030728  32.73098562
2858.00 -116.18667274  32.79661111
2860.00 -116.34311726  32.86231798
2862.00 -116.49964080  32.92810625
2864.00 -116.65624328  32.99397596
2866.00 -116.81292466  33.05992714
2868.00 -116.96968488  33.12595982
2870.00 -117.12652390  33.19207402
2872.00 -117.28344164  33.25826978
2874.00 -117.44043806  33.32454712
2876.00 -117.59751311  33.39090609
2878.00 -117.75466672  33.45734670
2880.00 -117.91189884  33.52386899
2882.00 -118.06920943  33.59047298
2884.00 -118.22659841  33.65715872
2886.00 -118.38406574  33.72392622
2888.00 -118.54161137  33.79077551
2890.00 -118.69923523  33.85770663
2892.00 -118.85693727  33.92471961
2894.00 -119.01471744  33.99181447
2896.00 -119.17257569  34.05899125
2898.00 -119.33051194  34.12624997
2900.00 -119.48852617  34.19359067
2902.00 -119.64661829  34.26101337
2904.00 -119.80478827  34.32851810
2906.00 -119.96303604  34.39610489
2908.00 -120.12136156  34.46377378
2910.00 -120.27976476  34.53152478
2912.00 -120.43824559  34.59935794
2914.00 -120.59680400  34.66727327
2916.00 -120.75543993  34.73527081
2918.00 -120.91415332  34.80335059
2920.00 -121.07294412  34.87151263
2922.00 -121.23181227  34.93975697
2924.00 -121.39075773  35.00808363
2926.00 -121.54978043  35.07649265
2928.00 -121.70888031  35.14498405
2930.00 -121.86805733  35.21355785
2932.00 -122.02731143  35.28221410
2934.00 -122.18664255  35.35095281
2936.00 -122.34605064  35.41977402
2938.00 -122.50553564  35.48867775
2940.00 -122.66509750  35.55766404
2942.00 -122.82473615  35.62673291
2944.00 -122.98445156  35.69588439
2946.00 -123.14424365  35.76511850
2948.00 -123.30411238  35.83443529
2950.00 -123.46405769  35.90383477
2952.00 -123.62407952  35.97331697
2954.00 -123.78417783  36.04288193
2956.00 -123.94435254  36.11252966
2958.00 -124.10460362  36.18226021
2960.00 -124.26493099  36.25207359
2962.00 -124.42533462  36.32196983
2964.00 -124.58581443  36.39194897
2966.00 -124.74637039  36.46201103
2968.00 -124.90700242  36.53215603
2970.00 -125.06771048  36.60238402
2972.00 -125.22849451  36.67269500
2974.00 -125.38935445  36.74308902
2976.00 -125.55029025  36.81356610
2978.00 -125.71130186  36.88412627
2980.00 -125.87238921  36.95476955
2982.00 -126.03355226  37.02549597
2984.00 -126.19479094  37.09630556
2986.00 -126.35610521  37.16719835
2988.00 -126.51749500  37.23817437
2990.00 -126.67896026  37.30923364
2992.00 -126.84050094  37.38037618
2994.00 -127.00211697  37.45160204
2996.00 -127.16380831  37.52291123
2998.00 -127.32557490  37.59430378
3000.00 -127.48741668  37.66577972
3002.00 -127.64933359  37.73733908
3004.00 -127.81132559  37.80898188
3006.00 -127.97339261  37.88070815
3008.00 -128.13553460  37.95251792
3010.00 -128.29775151  38.02441121
3012.00 -128.46004328  38.09638805
3014.00 -128.62240984  38.16844847
3016.00 -128.78485116  38.24059250
3018.00 -128.94736717  38.31282016
3020.00 -129.10995781  38.38513148
3022.00 -129.27262304  38.45752648
3024.00 -129.43536278  38.53000519
3026.00 -129.59817700  38.60256765
3028.00 -129.76106563  38.67521386
3030.00 -129.92402862  38.74794388
3032.00 -130.08706591  38.82075770
3034.00 -130.25017745  38.89365538
3036.00 -130.41336318  38.96663692
3038.00 -130.57662304  39.03970236
3040.00 -130.73995698  39.11285173
3042.00 -130.90336494  39.18608504
3044.00 -131.06684687  39.25940233
3046.00 -131.23040271  39.33280363
3048.00 -131.39403241  39.40628895
3050.00 -131.55773591  39.47985833
3052.00 -131.72151315  39.55351178
3054.00 -131.88536408  39.62724935
3056.00 -132.04928865  39.70107105
3058.00 -132.21328679  39.77497690
3060.00 -132.37735845  39.84896694
3062.00 -132.54150358  39.92304119
3064.00 -132.70572211  39.99719968
3066.00 -132.87001400  40.07144242
3068.00 -133.03437919  40.14576946
3070.00 -133.19881762  40.22018081
3072.00 -133.36332924  40.29467650
3074.00 -133.52791398  40.36925655
3076.00 -133.69257180  40.44392099
3078.00 -133.85730264  40.51866984
3080.00 -134.02210644  40.59350314
3082.00 -134.18698315  40.66842090
3084.00 -134.35193271  40.74342316
3086.00 -134.51695506  40.81850993
3088.00 -134.68205015  40.89368124
3090.00 -134.84721793  40.96893712
3092.00 -135.01245833  41.04427759
3094.00 -135.17777130  41.11970268
3096.00 -135.34315679  41.19521241
3098.00 -135.50861474  41.27080680
3100.00 -135.67414509  41.34648590
3102.00 -135.83974779  41.42224970
3104.00 -136.00542278  41.49809825
3106.00 -136.17117000  41.57403157
3108.00 -136.33698941  41.65004968
3110.00 -136.50288094  41.72615260
3112.00 -136.66884453  41.80234037
3114.00 -136.83488014  41.87861300
3116.00 -137.00098770  41.95497052
3118.00 -137.16716717  42.03141296
3120.00 -137.33341848  42.10794034
3122.00 -137.49974157  42.18455268
3124.00 -137.66613640  42.26125001
3126.00 -137.83260290  42.33803235
3128.00 -137.99914102  42.41489973
3130.00 -138.16575070  42.49185217
3132.00 -138.33243190  42.56888970
3134.00 -138.49918454  42.64601234
3136.00 -138.66600858  42.72322011
3138.00 -138.83290396  42.80051304
3140.00 -138.99987062  42.87789115
3142.00 -139.16690851  42.95535447
3144.00 -139.33401757  43.03290302
3146.00 -139.50119775  43.11053683
3148.00 -139.66844898  43.18825591
3150.00 -139.83577122  43.26606029
3152.00 -140.00316440  43.34395000
3154.00 -140.17062848  43.42192506
3156.00 -140.33816339  43.49998550
3158.00 -140.50576908  43.57813133
3160.00 -140.67344549  43.65636258
3162.00 -140.84119257  43.73467927
3164.00 -141.00901026  43.81308144
3166.00 -141.17689850  43.89156909
3168.00 -141.34485724  43.97014227
3170.00 -141.51288642  44.04880097
3172.00 -141.68098599  44.12754524
3174.00 -141.84915589  44.20637510
3176.00 -142.01739606  44.28529056
3178.00 -142.18570645  44.36429166
3180.00 -142.35408700  44.44337841
3182.00 -142.52253766  44.52255084
3184.00 -142.69105836  44.60180897
3186.00 -142.85964906  44.68115282
3188.00 -143.02830969  44.76058242
3190.00 -143.19704021  44.84009779
3192.00 -143.36584055  44.91969896
3194.00 -143.53471065  44.99938594
3196.00 -143.70365047  45.07915876
3198.00 -143.87265995  45.15901744
3200.00 -144.04173902  45.23896200
3202.00 -144.21088764  45.31899247
3204.00 -144.38010574  45.39910887
3206.00 -144.54939328  45.47931123
3208.00 -144.71875019  45.55959956
3210.00 -144.88817642  45.63997388
3212.00 -145.05767191  45.72043423
3214.00 -145.22723661  45.80098062
3216.00 -145.39687046  45.88161307
3218.00 -145.56657340  45.96233161
3220.00 -145.73634538  46.04313626
3222.00 -145.90618634  46.12402704
3224.00 -146.07609622  46.20500398
3226.00 -146.24607498  46.28606709
3228.00 -146.41612254  46.36721640
3230.00 -146.58623887  46.44845193
3232.00 -146.75642389  46.52977370
3234.00 -146.92667756  46.61118174
3236.00 -147.09699981  46.69267606
3238.00 -147.26739060  46.77425670
3240.00 -147.43784986  46.85592366
3242.00 -147.60837754  46.93767697
3244.00 -147.77897358  47.01951666
3246.00 -147.94963793  47.10144275
3248.00 -148.12037053  47.18345525
3250.00 -148.29117132  47.26555419
3252.00 -148.46204025  47.34773959
3254.00 -148.63297726  47.43001147
3256.00 -148.80398230  47.51236986
3258.00 -148.97505530  47.59481477
3260.00 -149.14619622  47.67734622
3262.00 -149.31740499  47.75996425
3264.00 -149.48868156  47.84266887
3266.00 -149.66002588  47.92546009
3268.00 -149.83143788  48.00833795
3270.00 -150.00291752  48.09130246
3272.00 -150.17446473  48.17435364
3274.00 -150.34607945  48.25749152
3276.00 -150.51776164  48.34071612
3278.00 -150.68951124  48.42402745
3280.00 -150.86132818  48.50742555
3282.00 -151.03321242  48.59091042
3284.00 -151.20516389  48.67448209
3286.00 -151.37718255  48.75814058
3288.00 -151.54926832  48.84188592
3290.00 -151.72142117  48.92571812
3292.00 -151.89364103  49.00963720
3294.00 -152.06592784  49.09364319
3296.00 -152.23828155  49.17773610
3298.00 -152.41070210  49.26191595
3300.00 -152.58318944  49.34618278
3302.00 -152.75574351  49.43053659
3304.00 -152.92836425  49.51497740
3306.00 -153.10105161  49.59950525
3308.00 -153.27380553  49.68412014
3310.00 -153.44662596  49.76882210
3312.00 -153.61951283  49.85361114
3314.00 -153.79246609  49.93848730
3316.00 -153.96548569  50.02345059
3318.00 -154.13857157  50.10850102
3320.00 -154.31172367  50.19363863
3322.00 -154.48494194  50.27886342
3324.00 -154.65822632  50.36417542
3326.00 -154.83157675  50.44957465
3328.00 -155.00499318  50.53506114
3330.00 -155.17847555  50.62063489
3332.00 -155.35202380  50.70629593
3334.00 -155.52563788  50.79204427
3336.00 -155.69931773  50.87787995
3338.00 -155.87306330  50.96380298
3340.00 -156.04687453  51.04981337
3342.00 -156.22075136  51.13591115
3344.00 -156.39469374  51.22209634
3346.00 -156.56870160  51.30836896
3348.00 -156.74277490  51.39472902
3350.00 -156.91691358  51.48117655
3352.00 -157.09111758  51.56771156
3354.00 -157.26538684  51.65433408
3356.00 -157.43972131  51.74104412
3358.00 -157.61412094  51.82784171
3360.00 -157.78858565  51.91472685
3362.00 -157.96311541  52.00169958
3364.00 -158.13771015  52.08875991
3366.00 -158.31236982  52.17590786
3368.00 -158.48709435  52.26314345
3370.00 -158.66188370  52.35046670
3372.00 -158.83673781  52.43787763
3374.00 -159.01165661  52.52537625
3376.00 -159.18664006  52.61296258
3378.00 -159.36168810  52.70063665
3380.00 -159.53680067  52.78839848
3382.00 -159.71197772  52.87624807
3384.00 -159.88721918  52.96418546
3386.00 -160.06252501  53.05221065
3388.00 -160.23789514  53.14032367
3390.00 -160.41332952  53.22852454
3392.00 -160.58882810  53.31681327
3394.00 -160.76439081  53.40518989
3396.00 -160.94001760  53.49365440
3398.00 -161.11570842  53.58220684
3400.00 -161.29146320  53.67084722
3402.00 -161.46728190  53.75957555
3404.00 -161.64316445  53.84839186
3406.00 -161.81911080  53.93729616
3408.00 -161.99512089  54.02628847
3410.00 -162.17119467  54.11536882
3412.00 -162.34733207  54.20453721
3414.00 -162.52353305  54.29379367
3416.00 -162.69979755  54.38313821
3418.00 -162.87612551  54.47257085
3420.00 -163.05251687  54.56209161
3422.00 -163.22897157  54.65170051
3424.00 -163.40548957  54.74139757
3426.00 -163.58207081  54.83118280
3428.00 -163.75871522  54.92105623
3430.00 -163.93542275  55.01101786
3432.00 -164.11219335  55.10106772
3434.00 -164.28902696  55.19120582
3436.00 -164.46592352  55.28143219
3438.00 -164.64288298  55.37174683
3440.00 -164.81990528  55.46214977
3442.00 -164.99699036  55.55264103
3444.00 -165.17413817  55.64322062
3446.00 -165.35134865  55.73388856
3448.00 -165.52862174  55.82464487
3450.00 -165.70595739  55.91548956
3452.00 -165.88335555  56.00642265
3454.00 -166.06081615  56.09744416
3456.00 -166.23833914  56.18855411
3458.00 -166.41592446  56.27975251
3460.00 -166.59357206  56.37103938
3462.00 -166.77128187  56.46241474
3464.00 -166.94905386  56.55387860
3466.00 -167.12688794  56.64543098
3468.00 -167.30478408  56.73707190
3470.00 -167.48274222  56.82880138
3472.00 -167.66076229  56.92061943
3474.00 -167.83884424  57.01252607
3476.00 -168.01698802  57.10452131
3478.00 -168.19519357  57.19660518
3480.00 -168.37346083  57.28877768
3482.00 -168.55178975  57.38103884
3484.00 -168.73018027  57.47338867
3486.00 -168.90863233  57.56582719
3488.00 -169.08714588  57.65835442
3490.00 -169.26572086  57.75097036
3492.00 -169.44435721  57.84367505
3494.00 -169.62305488  57.93646849
3496.00 -169.80181382  58.02935070
3498.00 -169.98063395  58.12232170
3500.00 -170.15951524  58.21538150
3502.00 -170.33845762  58.30853012
3504.00 -170.51746104  58.40176758
3506.00 -170.69652544  58.49509388
3508.00 -170.87565076  58.58850906
3510.00 -171.05483695  58.68201312
3512.00 -171.23408395  58.77560608
3514.00 -171.41339171  58.86928796
3516.00 -171.59276016  58.96305876
3518.00 -171.77218926  59.05691852
3520.00 -171.95167894  59.15086724
3522.00 -172.13122915  59.24490493
3524.00 -172.31083984  59.33903163
3526.00 -172.49051094  59.43324733
3528.00 -172.67024240  59.52755206
3530.00 -172.85003417  59.62194583
3532.00 -173.02988619  59.71642866
3534.00 -173.20979839  59.81100056
3536.00 -173.38977074  59.90566155
3538.00 -173.56980316  60.00041165
3540.00 -173.74989560  60.09525086
3542.00 -173.93004801  60.19017921
3544.00 -174.11026033  60.28519671
3546.00 -174.29053251  60.38030338
3548.00 -174.47086448  60.47549922
3550.00 -174.65125619  60.57078426
3552.00 -174.83170759  60.66615851
3554.00 -175.01221862  60.76162199
3556.00 -175.19278922  60.85717471
3558.00 -175.37341934  60.95281668
3560.00 -175.55410891  61.04854793
3562.00 -175.73485789  61.14436846
3564.00 -175.91566622  61.24027830
3566.00 -176.09653384  61.33627744
3568.00 -176.27746069  61.43236592
3570.00 -176.45844673  61.52854375
3572.00 -176.63949188  61.62481093
3574.00 -176.82059610  61.72116749
3576.00 -177.00175933  61.81761344
3578.00 -177.18298152  61.91414880
3580.00 -177.36426260  62.01077357
3582.00 -177.54560252  62.10748777
3584.00 -177.72700123  62.20429142
3586.00 -177.90845867  62.30118454
3588.00 -178.08997478  62.39816713
3590.00 -178.27154950  62.49523921
3592.00 -178.45318279  62.59240080
3594.00 -178.63487458  62.68965190
3596.00 -178.81662481  62.78699254
3598.00 -178.99843344  62.88442273
3600.00 -179.18030041  62.98194248
3602.00 -179.36222565  63.07955180
3604.00 -179.54420911  63.17725072
3606.00 -179.72625075  63.27503924
3608.00 -179.90835049  63.37291738
3610.00 -180.09050828  63.47088515
3612.00 -180.27272408  63.56894256
3614.00 -180.45499781  63.66708964
3616.00 -180.63732944  63.76532638
3618.00 -180.81971889  63.86365282
3620.00 -181.00216611  63.96206896
3622.00 -181.18467105  64.06057481
3624.00 -181.36723366  64.15917039
3626.00 -181.54985387  64.25785571
3628.00 -181.73253162  64.35663079
3630.00 -181.91526687  64.45549563
3632.00 -182.09805956  64.55445026
3634.00 -182.28090962  64.65349469
3636.00 -182.46381701  64.75262892
3638.00 -182.64678167  64.85185298
3640.00 -182.82980354  64.95116687
3642.00 -183.01288256  65.05057061
3644.00 -183.19601869  65.15006422
3646.00 -183.37921185  65.24964770
3648.00 -183.56246201  65.34932107
3650.00 -183.74576910  65.44908434
3652.00 -183.92913306  65.54893753
3654.00 -184.11255384  65.64888064
3656.00 -184.29603138  65.74891370
3658.00 -184.47956563  65.84903671
3660.00 -184.66315653  65.94924968
3662.00 -184.84680403  66.04955264
3664.00 -185.03050807  66.14994559
3666.00 -185.21426858  66.25042854
3668.00 -185.39808553  66.35100151
3670.00 -185.58195884  66.45166451
3672.00 -185.76588847  66.55241756
3674.00 -185.94987435  66.65326066
3676.00 -186.13391644  66.75419383
3678.00 -186.31801468  66.85521708
3680.00 -186.50216900  66.95633043
3682.00 -186.68637936  67.05753388
3684.00 -186.87064570  67.15882745
3686.00 -187.05496796  67.26021115
3688.00 -187.23934608  67.36168499
3690.00 -187.42378002  67.46324899
3692.00 -187.60826971  67.56490315
3694.00 -187.79281510  67.66664750
3696.00 -187.97741613  67.76848204
3698.00 -188.16207274  67.87040678
3700.00 -188.34678489  67.97242174
3702.00 -188.53155251  68.07452692
3704.00 -188.71637555  68.17672235
3706.00 -188.90125395  68.27900803
3708.00 -189.08618765  68.38138397
3710.00 -189.27117661  68.48385019
3712.00 -189.45622076  68.58640669
3714.00 -189.64132005  68.68905350
3716.00 -189.82647442  68.79179061
3718.00 -190.01168382  68.89461805
3720.00 -190.19694818  68.99753583
3722.00 -190.38226747  69.10054395
3724.00 -190.56764161  69.20364243
3726.00 -190.75307055  69.30683128
3728.00 -190.93855424  69.41011050
3730.00 -191.12409262  69.51348012
3732.00 -191.30968564  69.61694015
3734.00 -191.49533323  69.72049059
3736.00 -191.68103535  69.82413146
3738.00 -191.86679194  69.92786276
3740.00 -192.05260293  70.03168451
3742.00 -192.23846829  70.13559673
3744.00 -192.42438794  70.23959941
3746.00 -192.61036184  70.34369258
3748.00 -192.79638992  70.44787624
3750.00 -192.98247214  70.55215041
3752.00 -193.16860843  70.65651509
3754.00 -193.35479874  70.76097030
3756.00 -193.54104302  70.86551604
3758.00 -193.72734121  70.97015234
3760.00 -193.91369325  71.07487919
3762.00 -194.10009908  71.17969662
3764.00 -194.28655866  71.28460462
3766.00 -194.47307193  71.38960322
3768.00 -194.65963882  71.49469242
3770.00 -194.84625929  71.59987223
3772.00 -195.03293327  71.70514267
3774.00 -195.21966072  71.81050374
3776.00 -195.40644157  71.91595546
3778.00 -195.59327578  72.02149783
3780.00 -195.78016328  72.12713086
3782.00 -195.96710402  72.23285458
3784.00 -196.15409795  72.33866898
3786.00 -196.34114500  72.44457407
3788.00 -196.52824512  72.55056987
3790.00 -196.71539826  72.65665640
3792.00 -196.90260436  72.76283364
3794.00 -197.08986337  72.86910163
3796.00 -197.27717523  72.97546036
3798.00 -197.46453988  73.08190986
3800.00 -197.65195726  73.18845012
3802.00 -197.83942733  73.29508115
3804.00 -198.02695003  73.40180298
3806.00 -198.21452530  73.50861560
3808.00 -198.40215308  73.61551903
3810.00 -198.58983332  73.72251328
3812.00 -198.77756597  73.82959836
3814.00 -198.96535097  73.93677428
3816.00 -199.15318825  74.04404104
3818.00 -199.34107778  74.15139865
3820.00 -199.52901949  74.25884714
3822.00 -199.71701332  74.36638650
3824.00 -199.90505922  74.47401674
3826.00 -200.09315714  74.58173788
3828.00 -200.28130702  74.68954993
3830.00 -200.46950880  74.79745289
3832.00 -200.65776242  74.90544677
3834.00 -200.84606785  75.01353159
3836.00 -201.03442500  75.12170734
3838.00 -201.22283384  75.22997405
3840.00 -201.41129431  75.33833172
3842.00 -201.59980634  75.44678036
3844.00 -201.78836989  75.55531998
3846.00 -201.97698490  75.66395058
3848.00 -202.16565131  75.77267219
3850.00 -202.35436907  75.88148480
3852.00 -202.54313813  75.99038842
3854.00 -202.73195842  76.09938307
3856.00 -202.92082989  76.20846875
3858.00 -203.10975249  76.31764548
3860.00 -203.29872616  76.42691325
3862.00 -203.48775084  76.53627209
3864.00 -203.67682649  76.64572199
3866.00 -203.86595304  76.75526297
3868.00 -204.05513044  76.86489504
3870.00 -204.24435863  76.97461820
3872.00 -204.43363756  77.08443247
3874.00 -204.62296717  77.19433784
3876.00 -204.81234741  77.30433434
3878.00 -205.00177822  77.41442197
3880.00 -205.19125955  77.52460073
3882.00 -205.38079134  77.63487064
3884.00 -205.57037354  77.74523170
3886.00 -205.76000608  77.85568393
3888.00 -205.94968892  77.96622732
3890.00 -206.13942200  78.07686190
3892.00 -206.32920527  78.18758766
3894.00 -206.51903866  78.29840462
3896.00 -206.70892213  78.40931278
3898.00 -206.89885562  78.52031216
3900.00 -207.08883907  78.63140275
3902.00 -207.27887243  78.74258457
3904.00 -207.46895564  78.85385763
3906.00 -207.65908864  78.96522193
3908.00 -207.84927139  79.07667748
3910.00 -208.03950383  79.18822429
3912.00 -208.22978590  79.29986237
3914.00 -208.42011754  79.41159172
3916.00 -208.61049871  79.52341236
3918.00 -208.80092934  79.63532429
3920.00 -208.99140938  79.74732751
3922.00 -209.18193878  79.85942205
3924.00 -209.37251748  79.97160789
3926.00 -209.56314542  80.08388506
3928.00 -209.75382255  80.19625355
3930.00 -209.94454882  80.30871338
3932.00 -210.13532416  80.42126456
3934.00 -210.32614853  80.53390708
3936.00 -210.51702187  80.64664097
3938.00 -210.70794413  80.75946622
3940.00 -210.89891524  80.87238284
3942.00 -211.08993515  80.98539084
3944.00 -211.28100382  81.09849023
3946.00 -211.47212118  81.21168102
3948.00 -211.66328718  81.32496320
3950.00 -211.85450176  81.43833680
3952.00 -212.04576486  81.55180181
3954.00 -212.23707645  81.66535824
3956.00 -212.42843645  81.77900611
3958.00 -212.61984481  81.89274541
3960.00 -212.81130148  82.00657615
3962.00 -213.00280641  82.12049835
3964.00 -213.19435953  82.23451200
3966.00 -213.38596079  82.34861711
3968.00 -213.57761015  82.46281370
3970.00 -213.76930753  82.57710177
3972.00 -213.96105290  82.69148131
3974.00 -214.15284619  82.80595235
3976.00 -214.34468734  82.92051489
3978.00 -214.53657631  83.03516893
3980.00 -214.72851304  83.14991449
3982.00 -214.92049747  83.26475155
3984.00 -215.11252955  83.37968015
3986.00 -215.30460922  83.49470027
3988.00 -215.49673644  83.60981193
3990.00 -215.68891113  83.72501513
3992.00 -215.88113325  83.84030988
3994.00 -216.07340275  83.95569619
3996.00 -216.26571957  84.07117405
3998.00 -216.45808365  84.18674349
4000.00 -216.65049494  84.30240450
4002.00 -216.84295338  84.41815708
4004.00 -217.03545893  84.53400126
4006.00 -217.22801152  84.64993702
4008.00 -217.42061110  84.76596439
4010.00 -217.61325761  84.88208335
4012.00 -217.80595101  84.99829393
4014.00 -217.99869123  85.11459612
4016.00 -218.19147822  85.23098994
4018.00 -218.38431193  85.34747538
4020.00 -218.57719230  85.46405245
4022.00 -218.77011928  85.58072116
4024.00 -218.96309280  85.69748152
4026.00 -219.15611283  85.81433353
4028.00 -219.34917930  85.93127719
4030.00 -219.54229215  86.04831251
4032.00 -219.73545134  86.16543950
4034.00 -219.92865681  86.28265816
4036.00 -220.12190850  86.39996850
4038.00 -220.31520636  86.51737053
4040.00 -220.50855034  86.63486424
4042.00 -220.70194037  86.75244964
4044.00 -220.89537641  86.87012675
4046.00 -221.08885841  86.98789556
4048.00 -221.28238629  87.10575607
4050.00 -221.47596002  87.22370831
4052.00 -221.66957954  87.34175226
4054.00 -221.86324479  87.45988793
4056.00 -222.05695571  87.57811534
4058.00 -222.25071226  87.69643448
4060.00 -222.44451438  87.81484537
4062.00 -222.63836201  87.93334799
4064.00 -222.83225510  88.05194237
4066.00 -223.02619360  88.17062850
4068.00 -223.22017745  88.28940640
4070.00 -223.41420659  88.40827605
4072.00 -223.60828098  88.52723748
4074.00 -223.80240055  88.64629068
4076.00 -223.99656526  88.76543566
4078.00 -224.19077504  88.88467242
4080.00 -224.38502985  89.00400097
4082.00 -224.57932963  89.12342131
4084.00 -224.77367432  89.24293345
4086.00 -224.96806387  89.36253739
4088.00 -225.16249823  89.48223314
4090.00 -225.35697734  89.60202070
4092.00 -225.55150115  89.72190007
4094.00 -225.74606960  89.84187126
4096.00 -225.94068265  89.96193428
4098.00 -226.13534022  90.08208912
4100.00 -226.33004228  90.20233580
4102.00 -226.52478876  90.32267431
4104.00 -226.71957961  90.44310466
4106.00 -226.91441479  90.56362686
4108.00 -227.10929422  90.68424091
4110.00 -227.30421786  90.80494681
4112.00 -227.49918566  90.92574457
4114.00 -227.69419756  91.04663418
4116.00 -227.88925350  91.16761567
4118.00 -228.08435344  91.28868902
4120.00 -228.27949731  91.40985424
4122.00 -228.47468507  91.53111134
4124.00 -228.66991666  91.65246032
4126.00 -228.86519202  91.77390119
4128.00 -229.06051111  91.89543394
4130.00 -229.25587386  92.01705859
4132.00 -229.45128022  92.13877513
4134.00 -229.64673014  92.26058356
4136.00 -229.84222357  92.38248391
4138.00 -230.03776044  92.50447615
4140.00 -230.23334072  92.62656031
4142.00 -230.42896433  92.74873638
4144.00 -230.62463123  92.87100437
4146.00 -230.82034137  92.99336427
4148.00 -231.01609469  93.11581610
4150.00 -231.21189113  93.23835986
4152.00 -231.40773065  93.36099554
4154.00 -231.60361318  93.48372316
4156.00 -231.79953868  93.60654272
4158.00 -231.99550709  93.72945421
4160.00 -232.19151836  93.85245765
4162.00 -232.38757242  93.97555303
4164.00 -232.58366924  94.09874036
4166.00 -232.77980875  94.22201965
4168.00 -232.97599090  94.34539089
4170.00 -233.17221563  94.46885408
4172.00 -233.36848290  94.59240924
4174.00 -233.56479265  94.71605636
4176.00 -233.76114482  94.83979545
4178.00 -233.95753936  94.96362650
4180.00 -234.15397622  95.08754953
4182.00 -234.35045535  95.21156454
4184.00 -234.54697668  95.33567152
4186.00 -234.74354017  95.45987048
4188.00 -234.94014576  95.58416143
4190.00 -235.13679340  95.70854436
4192.00 -235.33348303  95.83301928
4194.00 -235.53021461  95.95758618
4196.00 -235.72698807  96.08224509
4198.00 -235.92380336  96.20699599
4200.00 -236.12066044  96.33183888
4202.00 -236.31755924  96.45677378
4204.00 -236.51449971  96.58180068
4206.00 -236.71148180  96.70691958
4208.00 -236.90850545  96.83213049
4210.00 -237.10557062  96.95743341
4212.00 -237.30267724  97.08282835
4214.00 -237.49982527  97.20831529
4216.00 -237.69701464  97.33389426
4218.00 -237.89424531  97.45956524
4220.00 -238.09151723  97.58532824
4222.00 -238.28883034  97.71118327
4224.00 -238.48618458  97.83713031
4226.00 -238.68357990  97.96316939
4228.00 -238.88101625  98.08930049
4230.00 -239.07849358  98.21552363
4232.00 -239.27601183  98.34183879
4234.00 -239.47357094  98.46824599
4236.00 -239.67117088  98.59474522
4238.00 -239.86881157  98.72133650
4240.00 -240.06649297  98.84801981
4242.00 -240.26421502  98.97479516
4244.00 -240.46197768  99.10166255
4246.00 -240.65978088  99.22862199
4248.00 -240.85762458  99.35567347
4250.00 -241.05550871  99.48281700
4252.00 -241.25343324  99.61005258
4254.00 -241.45139810  99.73738021
4256.00 -241.64940324  99.86479989
4258.00 -241.84744860  99.99231162
4260.00 -242.04553414 100.11991541
4262.00 -242.24365980 100.24761125
4264.00 -242.44182553 100.37539915
4266.00 -242.64003127 100.50327911
4268.00 -242.83827697 100.63125112
4270.00 -243.03656258 100.75931520
4272.00 -243.23488804 100.88747134
4274.00 -243.43325331 101.01571954
4276.00 -243.63165832 101.14405981
4278.00 -243.83010303 101.27249213
4280.00 -244.02858737 101.40101653
4282.00 -244.22711131 101.52963299
4284.00 -244.42567478 101.65834152
4286.00 -244.62427773 101.78714212
4288.00 -244.82292011 101.91603479
4290.00 -245.02160187 102.04501952
4292.00 -245.22032295 102.17409633
4294.00 -245.41908330 102.30326521
4296.00 -245.61788286 102.43252617
4298.00 -245.81672159 102.56187919
4300.00 -246.01559942 102.69132429
4302.00 -246.21451632 102.82086147
4304.00 -246.41347222 102.95049072
4306.00 -246.61246706 103.08021204
4308.00 -246.81150081 103.21002544
4310.00 -247.01057340 103.33993092
4312.00 -247.20968479 103.46992848
4314.00 -247.40883491 103.60001811
4316.00 -247.60802372 103.73019982
4318.00 -247.80725116 103.86047361
4320.00 -248.00651718 103.99083947
4322.00 -248.20582173 104.12129742
4324.00 -248.40516476 104.25184744
4326.00 -248.60454620 104.38248955
4328.00 -248.80396602 104.51322373
4330.00 -249.00342415 104.64404999
4332.00 -249.20292054 104.77496833
4334.00 -249.40245514 104.90597876
4336.00 -249.60202790 105.03708126
4338.00 -249.80163877 105.16827584
4340.00 -250.00128768 105.29956250
4342.00 -250.20097460 105.43094124
4344.00 -250.40069946 105.56241206
4346.00 -250.60046222 105.69397496
4348.00 -250.80026281 105.82562994
4350.00 -251.00010120 105.95737699
4352.00 -251.19997732 106.08921613
4354.00 -251.39989112 106.22114734
4356.00 -251.59984255 106.35317063
4358.00 -251.79983157 106.48528600
4360.00 -251.99985810 106.61749345
4362.00 -252.19992211 106.74979297
4364.00 -252.40002353 106.88218457
4366.00 -252.60016233 107.01466825
4368.00 -252.80033844 107.14724400
4370.00 -253.00055181 107.27991183
4372.00 -253.20080239 107.41267173
4374.00 -253.40109012 107.54552370
4376.00 -253.60141496 107.67846775
4378.00 -253.80177686 107.81150387
4380.00 -254.00217575 107.94463206
4382.00 -254.20261159 108.07785232
4384.00 -254.40308432 108.21116465
4386.00 -254.60359389 108.34456905
4388.00 -254.80414026 108.47806552
4390.00 -255.00472336 108.61165406
4392.00 -255.20534315 108.74533466
4394.00 -255.40599956 108.87910733
4396.00 -255.60669256 109.01297207
4398.00 -255.80742209 109.14692886
4400.00 -256.00818809 109.28097772
4402.00 -256.20899051 109.41511865
4404.00 -256.40982931 109.54935163
4406.00 -256.61070442 109.68367667
4408.00 -256.81161580 109.81809377
4410.00 -257.01256339 109.95260292
4412.00 -257.21354715 110.08720413
4414.00 -257.41456701 110.22189740
4416.00 -257.61562293 110.35668271
4418.00 -257.81671486 110.49156008
4420.00 -258.01784273 110.62652950
4422.00 -258.21900651 110.76159097
4424.00 -258.42020614 110.89674448
4426.00 -258.62144156 111.03199004
4428.00 -258.82271273 111.16732765
4430.00 -259.02401959 111.30275729
4432.00 -259.22536209 111.43827898
4434.00 -259.42674018 111.57389271
4436.00 -259.62815380 111.70959847
4438.00 -259.82960290 111.84539627
4440.00 -260.03108744 111.98128611
4442.00 -260.23260736 112.11726797
4444.00 -260.43416260 112.25334187
4446.00 -260.63575313 112.38950780
4448.00 -260.83737887 112.52576575
4450.00 -261.03903979 112.66211573
4452.00 -261.24073582 112.79855773
4454.00 -261.44246693 112.93509175
4456.00 -261.64423305 113.07171779
4458.00 -261.84603413 113.20843585
4460.00 -262.04787013 113.34524593
4462.00 -262.24974098 113.48214801
4464.00 -262.45164665 113.61914211
4466.00 -262.65358707 113.75622822
4468.00 -262.85556219 113.89340633
4470.00 -263.05757197 114.03067645
4472.00 -263.25961635 114.16803856
4474.00 -263.46169528 114.30549268
4476.00 -263.66380871 114.44303880
4478.00 -263.86595658 114.58067691
4480.00 -264.06813885 114.71840701
4482.00 -264.27035546 114.85622911
4484.00 -264.47260636 114.99414319
4486.00 -264.67489150 115.13214925
4488.00 -264.87721083 115.27024730
4490.00 -265.07956429 115.40843733
4492.00 -265.28195184 115.54671934
4494.00 -265.48437342 115.68509332
4496.00 -265.68682898 115.82355927
4498.00 -265.88931847 115.96211720
4500.00 -266.09184184 116.10076709
4502.00 -266.29439904 116.23950894
4504.00 -266.49699001 116.37834276
4506.00 -266.69961470 116.51726853
4508.00 -266.90227307 116.65628626
4510.00 -267.10496505 116.79539595
4512.00 -267.30769060 116.93459758
4514.00 -267.51044968 117.07389116
4516.00 -267.71324221 117.21327668
4518.00 -267.91606817 117.35275415
4520.00 -268.11892748 117.49232355
4522.00 -268.32182011 117.63198489
4524.00 -268.52474600 117.77173815
4526.00 -268.72770509 117.91158335
4528.00 -268.93069735 118.05152047
4530.00 -269.13372271 118.19154952
4532.00 -269.33678112 118.33167048
4534.00 -269.53987254 118.47188336
4536.00 -269.74299691 118.61218816
4538.00 -269.94615419 118.75258486
4540.00 -270.14934431 118.89307346
4542.00 -270.35256723 119.03365397
4544.00 -270.55582290 119.17432638
4546.00 -270.75911127 119.31509068
4548.00 -270.96243228 119.45594688
4550.00 -271.16578589 119.59689496
4552.00 -271.36917204 119.73793493
4554.00 -271.57259068 119.87906678
4556.00 -271.77604176 120.02029051
4558.00 -271.97952523 120.16160611
4560.00 -272.18304104 120.30301358
4562.00 -272.38658913 120.44451292
4564.00 -272.59016947 120.58610412
4566.00 -272.79378199 120.72778718
4568.00 -272.99742664 120.86956210
4570.00 -273.20110338 121.01142886
4572.00 -273.40481215 121.15338748
4574.00 -273.60855290 121.29543793
4576.00 -273.81232558 121.43758023
4578.00 -274.01613014 121.57981437
4580.00 -274.21996653 121.72214033
4582.00 -274.42383470 121.86455812
4584.00 -274.62773460 122.00706774
4586.00 -274.83166617 122.14966917
4588.00 -275.03562936 122.29236243
4590.00 -275.23962413 122.43514749
4592.00 -275.44365043 122.57802436
4594.00 -275.64770820 122.72099303
4596.00 -275.85179739 122.86405350
4598.00 -276.05591795 123.00720577
4600.00 -276.26006983 123.15044982
4602.00 -276.46425298 123.29378566
4604.00 -276.66846736 123.43721328
4606.00 -276.87271290 123.58073268
4608.00 -277.07698955 123.72434385
4610.00 -277.28129728 123.86804679
4612.00 -277.48563602 124.01184150
4614.00 -277.69000573 124.15572796
4616.00 -277.89440635 124.29970617
4618.00 -278.09883784 124.44377614
4620.00 -278.30330014 124.58793785
4622.00 -278.50779321 124.73219130
4624.00 -278.71231699 124.87653649
4626.00 -278.91687143 125.02097341
4628.00 -279.12145649 125.16550205
4630.00 -279.32607210 125.31012242
4632.00 -279.53071823 125.45483450
4634.00 -279.73539482 125.59963829
4636.00 -279.94010182 125.74453380
4638.00 -280.14483918 125.88952100
4640.00 -280.34960684 126.03459990
4642.00 -280.55440477 126.17977049
4644.00 -280.75923291 126.32503277
4646.00 -280.96409120 126.47038673
4648.00 -281.16897961 126.61583237
4650.00 -281.37389807 126.76136969
4652.00 -281.57884654 126.90699866
4654.00 -281.78382496 127.05271930
4656.00 -281.98883330 127.19853160
4658.00 -282.19387149 127.34443555
4660.00 -282.39893948 127.49043114
4662.00 -282.60403724 127.63651838
4664.00 -282.80916470 127.78269725
4666.00 -283.01432181 127.92896775
4668.00 -283.21950853 128.07532987
4670.00 -283.42472481 128.22178362
4672.00 -283.62997060 128.36832898
4674.00 -283.83524583 128.51496595
4676.00 -284.04055048 128.66169452
4678.00 -284.24588448 128.80851468
4680.00 -284.45124779 128.95542644
4682.00 -284.65664035 129.10242979
4684.00 -284.86206211 129.24952472
4686.00 -285.06751304 129.39671122
4688.00 -285.27299306 129.54398929
4690.00 -285.47850215 129.69135893
4692.00 -285.68404024 129.83882012
4694.00 -285.88960728 129.98637287
4696.00 -286.09520323 130.13401716
4698.00 -286.30082804 130.28175300
4700.00 -286.50648165 130.42958036
4702.00 -286.71216402 130.57749926
4704.00 -286.91787510 130.72550968
4706.00 -287.12361483 130.87361162
4708.00 -287.32938317 131.02180507
4710.00 -287.53518006 131.17009002
4712.00 -287.74100547 131.31846648
4714.00 -287.94685933 131.46693442
4716.00 -288.15274160 131.61549386
4718.00 -288.35865223 131.76414477
4720.00 -288.56459116 131.91288716
4722.00 -288.77055836 132.06172102
4724.00 -288.97655376 132.21064634
4726.00 -289.18257732 132.35966312
4728.00 -289.38862900 132.50877134
4730.00 -289.59470873 132.65797101
4732.00 -289.80081648 132.80726212
4734.00 -290.00695218 132.95664466
4736.00 -290.21311580 133.10611862
4738.00 -290.41930728 133.25568400
4740.00 -290.62552657 133.40534079
4742.00 -290.83177363 133.55508899
4744.00 -291.03804840 133.70492859
4746.00 -291.24435083 133.85485957
4748.00 -291.45068088 134.00488195
4750.00 -291.65703850 134.15499570
4752.00 -291.86342363 134.30520083
4754.00 -292.06983622 134.45549732
4756.00 -292.27627624 134.60588517
4758.00 -292.48274362 134.75636437
4760.00 -292.68923832 134.90693492
4762.00 -292.89576029 135.05759680
4764.00 -293.10230949 135.20835002
4766.00 -293.30888585 135.35919457
4768.00 -293.51548933 135.51013043
4770.00 -293.72211989 135.66115760
4772.00 -293.92877747 135.81227608
4774.00 -294.13546202 135.96348585
4776.00 -294.34217350 136.11478692
4778.00 -294.54891186 136.26617927
4780.00 -294.75567704 136.41766290
4782.00 -294.96246900 136.56923779
4784.00 -295.16928769 136.72090395
4786.00 -295.37613305 136.87266137
4788.00 -295.58300505 137.02451003
4790.00 -295.78990363 137.17644993
4792.00 -295.99682874 137.32848107
4794.00 -296.20378034 137.48060343
4796.00 -296.41075837 137.63281701
4798.00 -296.61776278 137.78512181
4800.00 -296.82479353 137.93751781
4802.00 -297.03185057 138.09000501
4804.00 -297.23893385 138.24258339
4806.00 -297.44604331 138.39525296
4808.00 -297.65317892 138.54801371
4810.00 -297.86034062 138.70086562
4812.00 -298.06752836 138.85380869
4814.00 -298.27474210 139.00684292
4816.00 -298.48198178 139.15996829
4818.00 -298.68924736 139.31318479
4820.00 -298.89653879 139.46649243
4822.00 -299.10385602 139.61989119
4824.00 -299.31119900 139.77338107
4826.00 -299.51856767 139.92696205
4828.00 -299.72596201 140.08063413
4830.00 -299.93338195 140.23439730
4832.00 -300.14082744 140.38825156
4834.00 -300.34829844 140.54219689
4836.00 -300.55579490 140.69623329
4838.00 -300.76331677 140.85036075
4840.00 -300.97086400 141.00457926
4842.00 -301.17843655 141.15888882
4844.00 -301.38603436 141.31328941
4846.00 -301.59365738 141.46778103
4848.00 -301.80130557 141.62236367
4850.00 -302.00897889 141.77703733
4852.00 -302.21667727 141.93180198
4854.00 -302.42440067 142.08665764
4856.00 -302.63214905 142.24160428
4858.00 -302.83992236 142.39664191
4860.00 -303.04772054 142.55177050
4862.00 -303.25554355 142.70699006
4864.00 -303.46339134 142.86230057
4866.00 -303.67126386 143.01770203
4868.00 -303.87916107 143.17319443
4870.00 -304.08708291 143.32877776
4872.00 -304.29502934 143.48445202
4874.00 -304.50300031 143.64021718
4876.00 -304.71099576 143.79607326
4878.00 -304.91901567 143.95202023
4880.00 -305.12705996 144.10805808
4882.00 -305.33512860 144.26418682
4884.00 -305.54322154 144.42040643
4886.00 -305.75133874 144.57671690
4888.00 -305.95948013 144.73311823
4890.00 -306.16764567 144.88961040
4892.00 -306.37583533 145.04619341
4894.00 -306.58404904 145.20286725
4896.00 -306.79228676 145.35963191
4898.00 -307.00054844 145.51648738
4900.00 -307.20883403 145.67343365
4902.00 -307.41714349 145.83047072
4904.00 -307.62547677 145.98759857
4906.00 -307.83383382 146.14481720
4908.00 -308.04221459 146.30212659
4910.00 -308.25061904 146.45952675
4912.00 -308.45904711 146.61701765
4914.00 -308.66749876 146.77459929
4916.00 -308.87597394 146.93227167
4918.00 -309.08447260 147.09003477
4920.00 -309.29299470 147.24788858
4922.00 -309.50154019 147.40583310
4924.00 -309.71010901 147.56386831
4926.00 -309.91870113 147.72199421
4928.00 -310.12731649 147.88021079
4930.00 -310.33595505 148.03851803
4932.00 -310.54461676 148.19691593
4934.00 -310.75330156 148.35540449
4936.00 -310.96200942 148.51398368
4938.00 -311.17074029 148.67265351
4940.00 -311.37949412 148.83141396
4942.00 -311.58827085 148.99026502
4944.00 -311.79707045 149.14920669
4946.00 -312.00589287 149.30823894
4948.00 -312.21473805 149.46736179
4950.00 -312.42360595 149.62657521
4952.00 -312.63249653 149.78587919
4954.00 -312.84140973 149.94527374
4956.00 -313.05034551 150.10475883
4958.00 -313.25930382 150.26433445
4960.00 -313.46828462 150.42400061
4962.00 -313.67728785 150.58375728
4964.00 -313.88631347 150.74360447
4966.00 -314.09536143 150.90354215
4968.00 -314.30443169 151.06357032
4970.00 -314.51352419 151.22368897
4972.00 -314.72263889 151.38389809
4974.00 -314.93177575 151.54419767
4976.00 -315.14093471 151.70458771
4978.00 -315.35011573 151.86506818
4980.00 -315.55931875 152.02563908
4982.00 -315.76854375 152.18630041
4984.00 -315.97779066 152.34705215
4986.00 -316.18705943 152.50789429
4988.00 -316.39635003 152.66882682
4990.00 -316.60566241 152.82984973
4992.00 -316.81499651 152.99096301
4994.00 -317.02435230 153.15216666
4996.00 -317.23372971 153.31346066
4998.00 -317.44312872 153.47484500
5000.00 -317.65254926 153.63631967
