wavelength(nm)         real         imag
100.00   3.84824277   0.00049459
102.00   3.84615198   0.00052486
104.00   3.84401980   0.00055634
106.00   3.84184624   0.00058905
108.00   3.83963129   0.00062303
110.00   3.83737496   0.00065828
112.00   3.83507724   0.00069484
114.00   3.83273815   0.00073273
116.00   3.83035767   0.00077197
118.00   3.82793582   0.00081259
120.00   3.82547259   0.00085461
122.00   3.82296798   0.00089806
124.00   3.82042200   0.00094295
126.00   3.81783464   0.00098931
128.00   3.81520590   0.00103716
130.00   3.81253580   0.00108654
132.00   3.80982432   0.00113746
134.00   3.80707148   0.00118994
136.00   3.80427726   0.00124402
138.00   3.80144168   0.00129970
140.00   3.79856473   0.00135703
142.00   3.79564641   0.00141601
144.00   3.79268674   0.00147668
146.00   3.78968569   0.00153906
148.00   3.78664329   0.00160317
150.00   3.78355953   0.00166904
152.00   3.78043441   0.00173669
154.00   3.77726793   0.00180614
156.00   3.77406010   0.00187741
158.00   3.77081091   0.00195054
160.00   3.76752037   0.00202554
162.00   3.76418848   0.00210244
164.00   3.76081524   0.00218126
166.00   3.75740065   0.00226203
168.00   3.75394471   0.00234476
170.00   3.75044742   0.00242949
172.00   3.74690880   0.00251623
174.00   3.74332883   0.00260502
176.00   3.73970752   0.00269586
178.00   3.73604487   0.00278880
180.00   3.73234088   0.00288384
182.00   3.72859555   0.00298102
184.00   3.72480890   0.00308036
186.00   3.72098090   0.00318188
188.00   3.71711158   0.00328561
190.00   3.71320093   0.00339157
192.00   3.70924895   0.00349977
194.00   3.70525564   0.00361026
196.00   3.70122101   0.00372305
198.00   3.69714506   0.00383816
200.00   3.69302779   0.00395561
202.00   3.68886920   0.00407544
204.00   3.68466929   0.00419767
206.00   3.68042806   0.00432231
208.00   3.67614553   0.00444940
210.00   3.67182168   0.00457895
212.00   3.66745652   0.00471099
214.00   3.66305005   0.00484554
216.00   3.65860228   0.00498263
218.00   3.65411320   0.00512228
220.00   3.64958283   0.00526452
222.00   3.64501115   0.00540936
224.00   3.64039817   0.00555684
226.00   3.63574390   0.00570697
228.00   3.63104834   0.00585978
230.00   3.62631148   0.00601529
232.00   3.62153333   0.00617352
234.00   3.61671390   0.00633451
236.00   3.61185318   0.00649827
238.00   3.60695118   0.00666483
240.00   3.60200789   0.00683420
242.00   3.59702333   0.00700643
244.00   3.59199749   0.00718151
246.00   3.58693037   0.00735949
248.00   3.58182198   0.00754039
250.00   3.57667233   0.00772422
252.00   3.57148140   0.00791102
254.00   3.56624921   0.00810080
256.00   3.56097576   0.00829359
258.00   3.55566104   0.00848942
260.00   3.55030507   0.00868830
262.00   3.54490783   0.00889026
264.00   3.53946935   0.00909532
266.00   3.53398961   0.00930351
268.00   3.52846863   0.00951486
270.00   3.52290639   0.00972937
272.00   3.51730292   0.00994709
274.00   3.51165820   0.01016803
276.00   3.50597224   0.01039221
278.00   3.50024504   0.01061966
280.00   3.49447661   0.01085040
282.00   3.48866695   0.01108446
284.00   3.48281606   0.01132186
286.00   3.47692394   0.01156262
288.00   3.47099060   0.01180677
290.00   3.46501603   0.01205433
292.00   3.45900025   0.01230533
294.00   3.45294325   0.01255978
296.00   3.44684503   0.01281771
298.00   3.44070561   0.01307914
300.00   3.43452497   0.01334411
302.00   3.42830313   0.01361262
304.00   3.42204009   0.01388472
306.00   3.41573585   0.01416041
308.00   3.40939041   0.01443972
310.00   3.40300377   0.01472267
312.00   3.39657594   0.01500930
314.00   3.39010693   0.01529962
316.00   3.38359672   0.01559366
318.00   3.37704534   0.01589143
320.00   3.37045277   0.01619297
322.00   3.36381903   0.01649830
324.00   3.35714411   0.01680744
326.00   3.35042801   0.01712041
328.00   3.34367075   0.01743724
330.00   3.33687233   0.01775795
332.00   3.33003274   0.01808256
334.00   3.32315199   0.01841110
336.00   3.31623008   0.01874360
338.00   3.30926702   0.01908007
340.00   3.30226280   0.01942053
342.00   3.29521744   0.01976502
344.00   3.28813094   0.02011356
346.00   3.28100329   0.02046616
348.00   3.27383451   0.02082286
350.00   3.26662458   0.02118367
352.00   3.25937353   0.02154862
354.00   3.25208135   0.02191774
356.00   3.24474804   0.02229104
358.00   3.23737361   0.02266855
360.00   3.22995806   0.02305029
362.00   3.22250139   0.02343629
364.00   3.21500361   0.02382657
366.00   3.20746472   0.02422116
368.00   3.19988472   0.02462007
370.00   3.19226362   0.02502333
372.00   3.18460142   0.02543097
374.00   3.17689812   0.02584301
376.00   3.16915373   0.02625946
378.00   3.16136825   0.02668036
380.00   3.15354168   0.02710573
382.00   3.14567403   0.02753559
384.00   3.13776530   0.02796996
386.00   3.12981550   0.02840887
388.00   3.12182462   0.02885235
390.00   3.11379267   0.02930041
392.00   3.10571966   0.02975307
394.00   3.09760558   0.03021037
396.00   3.08945045   0.03067232
398.00   3.08125426   0.03113896
400.00   3.07301702   0.03161029
402.00   3.06473873   0.03208635
404.00   3.05641940   0.03256716
406.00   3.04805903   0.03305274
408.00   3.03965762   0.03354312
410.00   3.03121517   0.03403831
412.00   3.02273170   0.03453835
414.00   3.01420720   0.03504325
416.00   3.00564168   0.03555305
418.00   2.99703514   0.03606775
420.00   2.98838759   0.03658739
422.00   2.97969902   0.03711199
424.00   2.97096945   0.03764157
426.00   2.96219887   0.03817616
428.00   2.95338730   0.03871578
430.00   2.94453473   0.03926045
432.00   2.93564116   0.03981020
434.00   2.92670661   0.04036504
436.00   2.91773108   0.04092501
438.00   2.90871456   0.04149013
440.00   2.89965707   0.04206041
442.00   2.89055861   0.04263589
444.00   2.88141918   0.04321658
446.00   2.87223878   0.04380251
448.00   2.86301742   0.04439371
450.00   2.85375511   0.04499019
452.00   2.84445185   0.04559198
454.00   2.83510763   0.04619910
456.00   2.82572248   0.04681158
458.00   2.81629638   0.04742943
460.00   2.80682935   0.04805269
462.00   2.79732138   0.04868138
464.00   2.78777249   0.04931551
466.00   2.77818267   0.04995512
468.00   2.76855194   0.05060022
470.00   2.75888029   0.05125084
472.00   2.74916773   0.05190700
474.00   2.73941426   0.05256873
476.00   2.72961989   0.05323605
478.00   2.71978462   0.05390898
480.00   2.70990846   0.05458754
482.00   2.69999140   0.05527176
484.00   2.69003347   0.05596167
486.00   2.68003465   0.05665728
488.00   2.66999495   0.05735861
490.00   2.65991439   0.05806570
492.00   2.64979295   0.05877857
494.00   2.63963065   0.05949723
496.00   2.62942750   0.06022171
498.00   2.61918349   0.06095203
500.00   2.60889862   0.06168823
502.00   2.59857292   0.06243031
504.00   2.58820637   0.06317831
506.00   2.57779898   0.06393224
508.00   2.56735077   0.06469214
510.00   2.55686172   0.06545802
512.00   2.54633185   0.06622990
514.00   2.53576117   0.06700782
516.00   2.52514967   0.06779178
518.00   2.51449736   0.06858183
520.00   2.50380425   0.06937797
522.00   2.49307033   0.07018024
524.00   2.48229563   0.07098865
526.00   2.47148013   0.07180323
528.00   2.46062384   0.07262400
530.00   2.44972678   0.07345099
532.00   2.43878894   0.07428421
534.00   2.42781032   0.07512370
536.00   2.41679094   0.07596947
538.00   2.40573080   0.07682155
540.00   2.39462990   0.07767996
542.00   2.38348825   0.07854472
544.00   2.37230585   0.07941586
546.00   2.36108271   0.08029340
548.00   2.34981883   0.08117737
550.00   2.33851421   0.08206777
552.00   2.32716887   0.08296465
554.00   2.31578281   0.08386803
556.00   2.30435603   0.08477791
558.00   2.29288853   0.08569434
560.00   2.28138033   0.08661733
562.00   2.26983143   0.08754690
564.00   2.25824182   0.08848308
566.00   2.24661152   0.08942589
568.00   2.23494054   0.09037536
570.00   2.22322887   0.09133150
572.00   2.21147652   0.09229434
574.00   2.19968351   0.09326390
576.00   2.18784982   0.09424022
578.00   2.17597547   0.09522330
580.00   2.16406046   0.09621317
582.00   2.15210481   0.09720986
584.00   2.14010850   0.09821338
586.00   2.12807155   0.09922377
588.00   2.11599397   0.10024104
590.00   2.10387575   0.10126522
592.00   2.09171691   0.10229633
594.00   2.07951745   0.10333439
596.00   2.06727737   0.10437943
598.00   2.05499669   0.10543147
600.00   2.04267539   0.10649053
602.00   2.03031350   0.10755664
604.00   2.01791102   0.10862981
606.00   2.00546794   0.10971008
608.00   1.99298428   0.11079746
610.00   1.98046005   0.11189197
612.00   1.96789524   0.11299365
614.00   1.95528986   0.11410251
616.00   1.94264393   0.11521857
618.00   1.92995743   0.11634186
620.00   1.91723039   0.11747241
622.00   1.90446280   0.11861023
624.00   1.89165468   0.11975535
626.00   1.87880601   0.12090778
628.00   1.86591682   0.12206757
630.00   1.85298711   0.12323471
632.00   1.84001688   0.12440925
634.00   1.82700614   0.12559120
636.00   1.81395489   0.12678058
638.00   1.80086314   0.12797742
640.00   1.78773090   0.12918175
642.00   1.77455817   0.13039357
644.00   1.76134495   0.13161293
646.00   1.74809126   0.13283983
648.00   1.73479710   0.13407430
650.00   1.72146247   0.13531637
652.00   1.70808738   0.13656606
654.00   1.69467183   0.13782338
656.00   1.68121584   0.13908837
658.00   1.66771941   0.14036105
660.00   1.65418253   0.14164144
662.00   1.64060523   0.14292956
664.00   1.62698750   0.14422543
666.00   1.61332935   0.14552908
668.00   1.59963079   0.14684053
670.00   1.58589182   0.14815980
672.00   1.57211245   0.14948692
674.00   1.55829269   0.15082191
676.00   1.54443253   0.15216479
678.00   1.53053199   0.15351559
680.00   1.51659108   0.15487432
682.00   1.50260979   0.15624101
684.00   1.48858814   0.15761568
686.00   1.47452613   0.15899836
688.00   1.46042376   0.16038907
690.00   1.44628105   0.16178783
692.00   1.43209799   0.16319466
694.00   1.41787460   0.16460959
696.00   1.40361089   0.16603263
698.00   1.38930685   0.16746382
700.00   1.37496249   0.16890317
702.00   1.36057782   0.17035071
704.00   1.34615285   0.17180646
706.00   1.33168759   0.17327044
708.00   1.31718203   0.17474268
710.00   1.30263618   0.17622319
712.00   1.28805006   0.17771201
714.00   1.27342366   0.17920915
716.00   1.25875700   0.18071463
718.00   1.24405008   0.18222848
720.00   1.22930290   0.18375073
722.00   1.21451548   0.18528138
724.00   1.19968781   0.18682048
726.00   1.18481991   0.18836803
728.00   1.16991179   0.18992406
730.00   1.15496344   0.19148860
732.00   1.13997488   0.19306167
734.00   1.12494610   0.19464328
736.00   1.10987713   0.19623347
738.00   1.09476796   0.19783225
740.00   1.07961860   0.19943965
742.00   1.06442906   0.20105568
744.00   1.04919934   0.20268038
746.00   1.03392946   0.20431377
748.00   1.01861941   0.20595586
750.00   1.00326920   0.20760669
752.00   0.98787885   0.20926626
754.00   0.97244835   0.21093461
756.00   0.95697771   0.21261176
758.00   0.94146695   0.21429773
760.00   0.92591606   0.21599254
762.00   0.91032506   0.21769621
764.00   0.89469395   0.21940878
766.00   0.87902273   0.22113025
768.00   0.86331142   0.22286066
770.00   0.84756002   0.22460002
772.00   0.83176853   0.22634836
774.00   0.81593698   0.22810570
776.00   0.80006535   0.22987206
778.00   0.78415366   0.23164747
780.00   0.76820191   0.23343195
782.00   0.75221012   0.23522551
784.00   0.73617829   0.23702819
786.00   0.72010642   0.23884000
788.00   0.70399452   0.24066097
790.00   0.68784261   0.24249112
792.00   0.67165068   0.24433047
794.00   0.65541874   0.24617905
796.00   0.63914680   0.24803687
798.00   0.62283488   0.24990397
800.00   0.60648296   0.25178035
802.00   0.59009107   0.25366605
804.00   0.57365920   0.25556109
806.00   0.55718737   0.25746548
808.00   0.54067559   0.25937926
810.00   0.52412385   0.26130244
812.00   0.50753217   0.26323504
814.00   0.49090056   0.26517709
816.00   0.47422901   0.26712862
818.00   0.45751755   0.26908964
820.00   0.44076617   0.27106017
822.00   0.42397488   0.27304024
824.00   0.40714370   0.27502987
826.00   0.39027262   0.27702908
828.00   0.37336165   0.27903790
830.00   0.35641081   0.28105635
832.00   0.33942009   0.28308444
834.00   0.32238952   0.28512220
836.00   0.30531908   0.28716966
838.00   0.28820880   0.28922684
840.00   0.27105867   0.29129375
842.00   0.25386872   0.29337042
844.00   0.23663893   0.29545688
846.00   0.21936933   0.29755314
848.00   0.20205991   0.29965923
850.00   0.18471069   0.30177517
852.00   0.16732167   0.30390098
854.00   0.14989286   0.30603668
856.00   0.13242427   0.30818230
858.00   0.11491591   0.31033786
860.00   0.09736777   0.31250337
862.00   0.07977988   0.31467887
864.00   0.06215224   0.31686438
866.00   0.04448485   0.31905991
868.00   0.02677773   0.32126549
870.00   0.00903087   0.32348114
872.00  -0.00875570   0.32570689
874.00  -0.02658199   0.32794275
876.00  -0.04444799   0.33018875
878.00  -0.06235368   0.33244491
880.00  -0.08029906   0.33471125
882.00  -0.09828413   0.33698780
884.00  -0.11630888   0.33927457
886.00  -0.13437329   0.34157159
888.00  -0.15247736   0.34387887
890.00  -0.17062108   0.34619646
892.00  -0.18880445   0.34852435
894.00  -0.20702746   0.35086259
896.00  -0.22529009   0.35321118
898.00  -0.24359235   0.35557015
900.00  -0.26193422   0.35793952
902.00  -0.28031569   0.36031932
904.00  -0.29873676   0.36270957
906.00  -0.31719742   0.36511028
908.00  -0.33569766   0.36752149
910.00  -0.35423748   0.36994321
912.00  -0.37281686   0.37237546
914.00  -0.39143580   0.37481827
916.00  -0.41009429   0.37727166
918.00  -0.42879232   0.37973565
920.00  -0.44752989   0.38221026
922.00  -0.46630698   0.38469551
924.00  -0.48512359   0.38719144
926.00  -0.50397971   0.38969805
928.00  -0.52287533   0.39221537
930.00  -0.54181044   0.39474342
932.00  -0.56078504   0.39728223
934.00  -0.57979912   0.39983182
936.00  -0.59885267   0.40239220
938.00  -0.61794567   0.40496340
940.00  -0.63707813   0.40754545
942.00  -0.65625004   0.41013836
944.00  -0.67546138   0.41274215
946.00  -0.69471215   0.41535685
948.00  -0.71400234   0.41798248
950.00  -0.73333194   0.42061907
952.00  -0.75270094   0.42326662
954.00  -0.77210934   0.42592517
956.00  -0.79155713   0.42859474
958.00  -0.81104430   0.43127534
960.00  -0.83057083   0.43396701
962.00  -0.85013673   0.43666976
964.00  -0.86974198   0.43938361
966.00  -0.88938658   0.44210859
968.00  -0.90907051   0.44484472
970.00  -0.92879377   0.44759201
972.00  -0.94855635   0.45035050
974.00  -0.96835825   0.45312020
976.00  -0.98819944   0.45590113
978.00  -1.00807993   0.45869332
980.00  -1.02799971   0.46149679
982.00  -1.04795877   0.46431156
984.00  -1.06795709   0.46713765
986.00  -1.08799467   0.46997508
988.00  -1.10807151   0.47282388
990.00  -1.12818759   0.47568406
992.00  -1.14834291   0.47855565
994.00  -1.16853745   0.48143868
996.00  -1.18877120   0.48433315
998.00  -1.20904417   0.48723910
1000.00  -1.22935634   0.49015654
1002.00  -1.24970770   0.49308550
1004.00  -1.27009824   0.49602600
1006.00  -1.29052796   0.49897806
1008.00  -1.31099684   0.50194170
1010.00  -1.33150488   0.50491694
1012.00  -1.35205207   0.50790381
1014.00  -1.37263839   0.51090232
1016.00  -1.39326385   0.51391250
1018.00  -1.41392843   0.51693438
1020.00  -1.43463212   0.51996796
1022.00  -1.45537492   0.52301327
1024.00  -1.47615681   0.52607034
1026.00  -1.49697779   0.52913919
1028.00  -1.51783785   0.53221983
1030.00  -1.53873697   0.53531229
1032.00  -1.55967515   0.53841659
1034.00  -1.58065239   0.54153276
1036.00  -1.60166867   0.54466080
1038.00  -1.62272398   0.54780075
1040.00  -1.64381831   0.55095263
1042.00  -1.66495166   0.55411646
1044.00  -1.68612402   0.55729225
1046.00  -1.70733537   0.56048004
1048.00  -1.72858571   0.56367984
1050.00  -1.74987503   0.56689167
1052.00  -1.77120332   0.57011556
1054.00  -1.79257057   0.57335152
1056.00  -1.81397678   0.57659958
1058.00  -1.83542192   0.57985976
1060.00  -1.85690600   0.58313208
1062.00  -1.87842901   0.58641657
1064.00  -1.89999092   0.58971324
1066.00  -1.92159175   0.59302211
1068.00  -1.94323147   0.59634321
1070.00  -1.96491008   0.59967655
1072.00  -1.98662757   0.60302217
1074.00  -2.00838393   0.60638008
1076.00  -2.03017915   0.60975029
1078.00  -2.05201322   0.61313285
1080.00  -2.07388613   0.61652775
1082.00  -2.09579787   0.61993503
1084.00  -2.11774844   0.62335471
1086.00  -2.13973782   0.62678681
1088.00  -2.16176600   0.63023134
1090.00  -2.18383298   0.63368834
1092.00  -2.20593874   0.63715782
1094.00  -2.22808329   0.64063980
1096.00  -2.25026659   0.64413431
1098.00  -2.27248866   0.64764136
1100.00  -2.29474947   0.65116098
1102.00  -2.31704902   0.65469319
1104.00  -2.33938731   0.65823800
1106.00  -2.36176431   0.66179545
1108.00  -2.38418002   0.66536555
1110.00  -2.40663443   0.66894832
1112.00  -2.42912753   0.67254379
1114.00  -2.45165932   0.67615197
1116.00  -2.47422977   0.67977289
1118.00  -2.49683889   0.68340657
1120.00  -2.51948667   0.68705303
1122.00  -2.54217308   0.69071228
1124.00  -2.56489813   0.69438436
1126.00  -2.58766181   0.69806928
1128.00  -2.61046409   0.70176706
1130.00  -2.63330499   0.70547773
1132.00  -2.65618447   0.70920130
1134.00  -2.67910255   0.71293780
1136.00  -2.70205920   0.71668725
1138.00  -2.72505441   0.72044967
1140.00  -2.74808818   0.72422507
1142.00  -2.77116050   0.72801349
1144.00  -2.79427136   0.73181494
1146.00  -2.81742074   0.73562944
1148.00  -2.84060864   0.73945702
1150.00  -2.86383505   0.74329769
1152.00  -2.88709995   0.74715147
1154.00  -2.91040334   0.75101840
1156.00  -2.93374522   0.75489848
1158.00  -2.95712555   0.75879174
1160.00  -2.98054435   0.76269820
1162.00  -3.00400160   0.76661788
1164.00  -3.02749728   0.77055080
1166.00  -3.05103139   0.77449699
1168.00  -3.07460392   0.77845646
1170.00  -3.09821486   0.78242923
1172.00  -3.12186420   0.78641533
1174.00  -3.14555193   0.79041478
1176.00  -3.16927803   0.79442759
1178.00  -3.19304251   0.79845379
1180.00  -3.21684534   0.80249340
1182.00  -3.24068652   0.80654644
1184.00  -3.26456604   0.81061293
1186.00  -3.28848389   0.81469289
1188.00  -3.31244005   0.81878634
1190.00  -3.33643453   0.82289331
1192.00  -3.36046730   0.82701381
1194.00  -3.38453836   0.83114787
1196.00  -3.40864770   0.83529550
1198.00  -3.43279531   0.83945673
1200.00  -3.45698117   0.84363157
1202.00  -3.48120528   0.84782005
1204.00  -3.50546763   0.85202220
1206.00  -3.52976821   0.85623802
1208.00  -3.55410700   0.86046754
1210.00  -3.57848400   0.86471078
1212.00  -3.60289919   0.86896776
1214.00  -3.62735257   0.87323851
1216.00  -3.65184413   0.87752304
1218.00  -3.67637385   0.88182137
1220.00  -3.70094172   0.88613352
1222.00  -3.72554774   0.89045953
1224.00  -3.75019190   0.89479939
1226.00  -3.77487418   0.89915315
1228.00  -3.79959457   0.90352081
1230.00  -3.82435306   0.90790239
1232.00  -3.84914965   0.91229793
1234.00  -3.87398432   0.91670744
1236.00  -3.89885706   0.92113093
1238.00  -3.92376786   0.92556843
1240.00  -3.94871672   0.93001997
1242.00  -3.97370361   0.93448555
1244.00  -3.99872854   0.93896521
1246.00  -4.02379148   0.94345896
1248.00  -4.04889243   0.94796683
1250.00  -4.07403138   0.95248882
1252.00  -4.09920832   0.95702497
1254.00  -4.12442324   0.96157530
1256.00  -4.14967612   0.96613982
1258.00  -4.17496696   0.97071855
1260.00  -4.20029574   0.97531152
1262.00  -4.22566246   0.97991875
1264.00  -4.25106710   0.98454025
1266.00  -4.27650966   0.98917605
1268.00  -4.30199011   0.99382617
1270.00  -4.32750846   0.99849063
1272.00  -4.35306470   1.00316944
1274.00  -4.37865880   1.00786264
1276.00  -4.40429076   1.01257023
1278.00  -4.42996057   1.01729224
1280.00  -4.45566822   1.02202870
1282.00  -4.48141370   1.02677961
1284.00  -4.50719699   1.03154501
1286.00  -4.53301809   1.03632490
1288.00  -4.55887699   1.04111932
1290.00  -4.58477367   1.04592828
1292.00  -4.61070812   1.05075180
1294.00  -4.63668034   1.05558991
1296.00  -4.66269030   1.06044262
1298.00  -4.68873801   1.06530995
1300.00  -4.71482345   1.07019192
1302.00  -4.74094661   1.07508856
1304.00  -4.76710747   1.07999988
1306.00  -4.79330604   1.08492591
1308.00  -4.81954229   1.08986666
1310.00  -4.84581621   1.09482215
1312.00  -4.87212780   1.09979241
1314.00  -4.89847704   1.10477746
1316.00  -4.92486392   1.10977731
1318.00  -4.95128844   1.11479198
1320.00  -4.97775057   1.11982151
1322.00  -5.00425032   1.12486589
1324.00  -5.03078766   1.12992517
1326.00  -5.05736259   1.13499935
1328.00  -5.08397510   1.14008846
1330.00  -5.11062517   1.14519251
1332.00  -5.13731279   1.15031153
1334.00  -5.16403796   1.15544554
1336.00  -5.19080065   1.16059455
1338.00  -5.21760087   1.16575859
1340.00  -5.24443860   1.17093768
1342.00  -5.27131382   1.17613183
1344.00  -5.29822653   1.18134107
1346.00  -5.32517672   1.18656542
1348.00  -5.35216437   1.19180490
1350.00  -5.37918947   1.19705952
1352.00  -5.40625201   1.20232931
1354.00  -5.43335199   1.20761429
1356.00  -5.46048938   1.21291447
1358.00  -5.48766418   1.21822989
1360.00  -5.51487638   1.22356054
1362.00  -5.54212596   1.22890647
1364.00  -5.56941292   1.23426769
1366.00  -5.59673724   1.23964421
1368.00  -5.62409890   1.24503605
1370.00  -5.65149791   1.25044325
1372.00  -5.67893425   1.25586581
1374.00  -5.70640790   1.26130376
1376.00  -5.73391886   1.26675711
1378.00  -5.76146711   1.27222590
1380.00  -5.78905265   1.27771012
1382.00  -5.81667545   1.28320982
1384.00  -5.84433551   1.28872500
1386.00  -5.87203283   1.29425569
1388.00  -5.89976737   1.29980190
1390.00  -5.92753915   1.30536366
1392.00  -5.95534813   1.31094098
1394.00  -5.98319432   1.31653389
1396.00  -6.01107770   1.32214240
1398.00  -6.03899825   1.32776654
1400.00  -6.06695598   1.33340632
1402.00  -6.09495086   1.33906177
1404.00  -6.12298288   1.34473290
1406.00  -6.15105203   1.35041973
1408.00  -6.17915831   1.35612229
1410.00  -6.20730169   1.36184059
1412.00  -6.23548217   1.36757466
1414.00  -6.26369973   1.37332450
1416.00  -6.29195437   1.37909015
1418.00  -6.32024607   1.38487163
1420.00  -6.34857482   1.39066894
1422.00  -6.37694061   1.39648211
1424.00  -6.40534342   1.40231117
1426.00  -6.43378325   1.40815612
1428.00  -6.46226009   1.41401700
1430.00  -6.49077391   1.41989381
1432.00  -6.51932471   1.42578659
1434.00  -6.54791249   1.43169534
1436.00  -6.57653721   1.43762009
1438.00  -6.60519888   1.44356086
1440.00  -6.63389748   1.44951767
1442.00  -6.66263301   1.45549053
1444.00  -6.69140544   1.46147947
1446.00  -6.72021476   1.46748451
1448.00  -6.74906098   1.47350566
1450.00  -6.77794406   1.47954295
1452.00  -6.80686400   1.48559639
1454.00  -6.83582079   1.49166601
1456.00  -6.86481442   1.49775182
1458.00  -6.89384488   1.50385384
1460.00  -6.92291214   1.50997210
1462.00  -6.95201621   1.51610661
1464.00  -6.98115706   1.52225739
1466.00  -7.01033469   1.52842445
1468.00  -7.03954909   1.53460783
1470.00  -7.06880024   1.54080754
1472.00  -7.09808812   1.54702360
1474.00  -7.12741274   1.55325603
1476.00  -7.15677407   1.55950484
1478.00  -7.18617211   1.56577006
1480.00  -7.21560683   1.57205171
1482.00  -7.24507824   1.57834980
1484.00  -7.27458631   1.58466435
1486.00  -7.30413104   1.59099540
1488.00  -7.33371241   1.59734294
1490.00  -7.36333042   1.60370701
1492.00  -7.39298504   1.61008762
1494.00  -7.42267626   1.61648479
1496.00  -7.45240409   1.62289854
1498.00  -7.48216849   1.62932889
1500.00  -7.51196946   1.63577586
1502.00  -7.54180699   1.64223946
1504.00  -7.57168107   1.64871973
1506.00  -7.60159167   1.65521667
1508.00  -7.63153880   1.66173030
1510.00  -7.66152244   1.66826066
1512.00  -7.69154257   1.67480774
1514.00  -7.72159918   1.68137158
1516.00  -7.75169227   1.68795219
1518.00  -7.78182181   1.69454959
1520.00  -7.81198780   1.70116380
1522.00  -7.84219023   1.70779484
1524.00  -7.87242907   1.71444273
1526.00  -7.90270433   1.72110749
1528.00  -7.93301598   1.72778914
1530.00  -7.96336401   1.73448769
1532.00  -7.99374842   1.74120316
1534.00  -8.02416918   1.74793558
1536.00  -8.05462629   1.75468496
1538.00  -8.08511974   1.76145132
1540.00  -8.11564950   1.76823469
1542.00  -8.14621558   1.77503507
1544.00  -8.17681795   1.78185249
1546.00  -8.20745661   1.78868698
1548.00  -8.23813153   1.79553853
1550.00  -8.26884272   1.80240718
1552.00  -8.29959015   1.80929295
1554.00  -8.33037381   1.81619585
1556.00  -8.36119369   1.82311590
1558.00  -8.39204979   1.83005313
1560.00  -8.42294207   1.83700754
1562.00  -8.45387054   1.84397916
1564.00  -8.48483519   1.85096801
1566.00  -8.51583598   1.85797411
1568.00  -8.54687293   1.86499747
1570.00  -8.57794600   1.87203812
1572.00  -8.60905519   1.87909607
1574.00  -8.64020049   1.88617134
1576.00  -8.67138189   1.89326395
1578.00  -8.70259936   1.90037392
1580.00  -8.73385290   1.90750127
1582.00  -8.76514250   1.91464602
1584.00  -8.79646814   1.92180818
1586.00  -8.82782981   1.92898778
1588.00  -8.85922750   1.93618483
1590.00  -8.89066119   1.94339935
1592.00  -8.92213087   1.95063136
1594.00  -8.95363653   1.95788088
1596.00  -8.98517815   1.96514793
1598.00  -9.01675573   1.97243253
1600.00  -9.04836925   1.97973469
1602.00  -9.08001869   1.98705443
1604.00  -9.11170405   1.99439177
1606.00  -9.14342530   2.00174674
1608.00  -9.17518245   2.00911935
1610.00  -9.20697547   2.01650961
1612.00  -9.23880435   2.02391755
1614.00  -9.27066908   2.03134319
1616.00  -9.30256965   2.03878654
1618.00  -9.33450604   2.04624762
1620.00  -9.36647824   2.05372645
1622.00  -9.39848624   2.06122306
1624.00  -9.43053002   2.06873745
1626.00  -9.46260957   2.07626964
1628.00  -9.49472487   2.08381966
1630.00  -9.52687593   2.09138753
1632.00  -9.55906271   2.09897325
1634.00  -9.59128521   2.10657686
1636.00  -9.62354342   2.11419837
1638.00  -9.65583732   2.12183779
1640.00  -9.68816689   2.12949514
1642.00  -9.72053214   2.13717046
1644.00  -9.75293303   2.14486374
1646.00  -9.78536957   2.15257501
1648.00  -9.81784173   2.16030429
1650.00  -9.85034950   2.16805160
1652.00  -9.88289287   2.17581696
1654.00  -9.91547183   2.18360038
1656.00  -9.94808636   2.19140188
1658.00  -9.98073645   2.19922148
1660.00 -10.01342209   2.20705920
1662.00 -10.04614326   2.21491506
1664.00 -10.07889995   2.22278907
1666.00 -10.11169215   2.23068126
1668.00 -10.14451984   2.23859163
1670.00 -10.17738301   2.24652022
1672.00 -10.21028165   2.25446704
1674.00 -10.24321574   2.26243210
1676.00 -10.27618527   2.27041542
1678.00 -10.30919023   2.27841703
1680.00 -10.34223060   2.28643694
1682.00 -10.37530637   2.29447517
1684.00 -10.40841753   2.30253174
1686.00 -10.44156405   2.31060666
1688.00 -10.47474594   2.31869996
1690.00 -10.50796318   2.32681164
1692.00 -10.54121574   2.33494174
1694.00 -10.57450363   2.34309026
1696.00 -10.60782682   2.35125723
1698.00 -10.64118530   2.35944267
1700.00 -10.67457906   2.36764658
1702.00 -10.70800809   2.37586900
1704.00 -10.74147237   2.38410993
1706.00 -10.77497188   2.39236940
1708.00 -10.80850662   2.40064742
1710.00 -10.84207657   2.40894401
1712.00 -10.87568172   2.41725920
1714.00 -10.90932205   2.42559299
1716.00 -10.94299755   2.43394541
1718.00 -10.97670820   2.44231647
1720.00 -11.01045400   2.45070619
1722.00 -11.04423493   2.45911459
1724.00 -11.07805098   2.46754169
1726.00 -11.11190212   2.47598751
1728.00 -11.14578835   2.48445206
1730.00 -11.17970966   2.49293535
1732.00 -11.21366603   2.50143742
1734.00 -11.24765744   2.50995828
1736.00 -11.28168389   2.51849793
1738.00 -11.31574536   2.52705642
1740.00 -11.34984183   2.53563374
1742.00 -11.38397330   2.54422991
1744.00 -11.41813974   2.55284497
1746.00 -11.45234115   2.56147892
1748.00 -11.48657750   2.57013177
1750.00 -11.52084880   2.57880356
1752.00 -11.55515501   2.58749430
1754.00 -11.58949614   2.59620399
1756.00 -11.62387216   2.60493267
1758.00 -11.65828306   2.61368035
1760.00 -11.69272883   2.62244705
1762.00 -11.72720946   2.63123278
1764.00 -11.76172492   2.64003757
1766.00 -11.79627521   2.64886142
1768.00 -11.83086031   2.65770436
1770.00 -11.86548021   2.66656641
1772.00 -11.90013489   2.67544758
1774.00 -11.93482435   2.68434789
1776.00 -11.96954856   2.69326736
1778.00 -12.00430751   2.70220600
1780.00 -12.03910119   2.71116384
1782.00 -12.07392958   2.72014089
1784.00 -12.10879268   2.72913717
1786.00 -12.14369046   2.73815269
1788.00 -12.17862291   2.74718748
1790.00 -12.21359002   2.75624154
1792.00 -12.24859178   2.76531491
1794.00 -12.28362816   2.77440759
1796.00 -12.31869916   2.78351960
1798.00 -12.35380477   2.79265097
1800.00 -12.38894496   2.80180170
1802.00 -12.42411972   2.81097182
1804.00 -12.45932905   2.82016134
1806.00 -12.49457291   2.82937028
1808.00 -12.52985132   2.83859866
1810.00 -12.56516423   2.84784649
1812.00 -12.60051165   2.85711380
1814.00 -12.63589356   2.86640059
1816.00 -12.67130995   2.87570689
1818.00 -12.70676079   2.88503272
1820.00 -12.74224609   2.89437809
1822.00 -12.77776581   2.90374301
1824.00 -12.81331995   2.91312751
1826.00 -12.84890850   2.92253161
1828.00 -12.88453143   2.93195531
1830.00 -12.92018874   2.94139865
1832.00 -12.95588041   2.95086162
1834.00 -12.99160643   2.96034426
1836.00 -13.02736678   2.96984658
1838.00 -13.06316144   2.97936860
1840.00 -13.09899042   2.98891033
1842.00 -13.13485368   2.99847179
1844.00 -13.17075121   3.00805300
1846.00 -13.20668301   3.01765397
1848.00 -13.24264905   3.02727472
1850.00 -13.27864932   3.03691528
1852.00 -13.31468382   3.04657565
1854.00 -13.35075251   3.05625585
1856.00 -13.38685539   3.06595591
1858.00 -13.42299245   3.07567583
1860.00 -13.45916367   3.08541564
1862.00 -13.49536904   3.09517534
1864.00 -13.53160853   3.10495497
1866.00 -13.56788214   3.11475453
1868.00 -13.60418986   3.12457405
1870.00 -13.64053166   3.13441353
1872.00 -13.67690753   3.14427300
1874.00 -13.71331747   3.15415247
1876.00 -13.74976144   3.16405197
1878.00 -13.78623945   3.17397150
1880.00 -13.82275148   3.18391108
1882.00 -13.85929750   3.19387074
1884.00 -13.89587751   3.20385048
1886.00 -13.93249149   3.21385033
1888.00 -13.96913943   3.22387030
1890.00 -14.00582131   3.23391041
1892.00 -14.04253712   3.24397067
1894.00 -14.07928684   3.25405111
1896.00 -14.11607046   3.26415173
1898.00 -14.15288797   3.27427256
1900.00 -14.18973934   3.28441362
1902.00 -14.22662457   3.29457491
1904.00 -14.26354364   3.30475645
1906.00 -14.30049653   3.31495827
1908.00 -14.33748324   3.32518038
1910.00 -14.37450374   3.33542280
1912.00 -14.41155802   3.34568554
1914.00 -14.44864607   3.35596862
1916.00 -14.48576787   3.36627205
1918.00 -14.52292341   3.37659586
1920.00 -14.56011267   3.38694005
1922.00 -14.59733564   3.39730465
1924.00 -14.63459230   3.40768968
1926.00 -14.67188264   3.41809514
1928.00 -14.70920664   3.42852106
1930.00 -14.74656429   3.43896745
1932.00 -14.78395558   3.44943434
1934.00 -14.82138049   3.45992172
1936.00 -14.85883900   3.47042963
1938.00 -14.89633109   3.48095808
1940.00 -14.93385677   3.49150708
1942.00 -14.97141600   3.50207665
1944.00 -15.00900878   3.51266682
1946.00 -15.04663509   3.52327758
1948.00 -15.08429491   3.53390897
1950.00 -15.12198823   3.54456099
1952.00 -15.15971504   3.55523367
1954.00 -15.19747532   3.56592702
1956.00 -15.23526906   3.57664106
1958.00 -15.27309623   3.58737579
1960.00 -15.31095684   3.59813125
1962.00 -15.34885085   3.60890745
1964.00 -15.38677826   3.61970439
1966.00 -15.42473904   3.63052210
1968.00 -15.46273320   3.64136060
1970.00 -15.50076070   3.65221990
1972.00 -15.53882155   3.66310002
1974.00 -15.57691571   3.67400097
1976.00 -15.61504318   3.68492277
1978.00 -15.65320393   3.69586544
1980.00 -15.69139797   3.70682899
1982.00 -15.72962526   3.71781344
1984.00 -15.76788581   3.72881880
1986.00 -15.80617958   3.73984510
1988.00 -15.84450656   3.75089234
1990.00 -15.88286675   3.76196054
1992.00 -15.92126013   3.77304973
1994.00 -15.95968667   3.78415991
1996.00 -15.99814637   3.79529110
1998.00 -16.03663921   3.80644332
2000.00 -16.07516517   3.81761658
2002.00 -16.11372424   3.82881091
2004.00 -16.15231641   3.84002631
2006.00 -16.19094166   3.85126280
2008.00 -16.22959997   3.86252040
2010.00 -16.26829133   3.87379913
2012.00 -16.30701572   3.88509900
2014.00 -16.34577313   3.89642002
2016.00 -16.38456355   3.90776221
2018.00 -16.42338695   3.91912560
2020.00 -16.46224333   3.93051019
2022.00 -16.50113267   3.94191600
2024.00 -16.54005494   3.95334304
2026.00 -16.57901015   3.96479134
2028.00 -16.61799826   3.97626091
2030.00 -16.65701928   3.98775176
2032.00 -16.69607317   3.99926391
2034.00 -16.73515993   4.01079737
2036.00 -16.77427955   4.02235217
2038.00 -16.81343199   4.03392831
2040.00 -16.85261726   4.04552582
2042.00 -16.89183533   4.05714471
2044.00 -16.93108619   4.06878499
2046.00 -16.97036983   4.08044669
2048.00 -17.00968622   4.09212981
2050.00 -17.04903536   4.10383437
2052.00 -17.08841723   4.11556039
2054.00 -17.12783180   4.12730789
2056.00 -17.16727908   4.13907687
2058.00 -17.20675904   4.15086736
2060.00 -17.24627166   4.16267938
2062.00 -17.28581693   4.17451292
2064.00 -17.32539484   4.18636803
2066.00 -17.36500537   4.19824469
2068.00 -17.40464851   4.21014295
2070.00 -17.44432423   4.22206280
2072.00 -17.48403253   4.23400427
2074.00 -17.52377339   4.24596736
2076.00 -17.56354678   4.25795211
2078.00 -17.60335271   4.26995851
2080.00 -17.64319115   4.28198660
2082.00 -17.68306208   4.29403637
2084.00 -17.72296549   4.30610786
2086.00 -17.76290137   4.31820107
2088.00 -17.80286970   4.33031601
2090.00 -17.84287046   4.34245272
2092.00 -17.88290364   4.35461119
2094.00 -17.92296922   4.36679145
2096.00 -17.96306719   4.37899351
2098.00 -18.00319753   4.39121739
2100.00 -18.04336023   4.40346310
2102.00 -18.08355527   4.41573066
2104.00 -18.12378263   4.42802008
2106.00 -18.16404230   4.44033138
2108.00 -18.20433427   4.45266457
2110.00 -18.24465851   4.46501967
2112.00 -18.28501502   4.47739670
2114.00 -18.32540377   4.48979567
2116.00 -18.36582475   4.50221659
2118.00 -18.40627795   4.51465948
2120.00 -18.44676335   4.52712436
2122.00 -18.48728093   4.53961124
2124.00 -18.52783068   4.55212013
2126.00 -18.56841258   4.56465106
2128.00 -18.60902662   4.57720404
2130.00 -18.64967278   4.58977907
2132.00 -18.69035104   4.60237619
2134.00 -18.73106139   4.61499539
2136.00 -18.77180382   4.62763670
2138.00 -18.81257830   4.64030014
2140.00 -18.85338483   4.65298572
2142.00 -18.89422338   4.66569344
2144.00 -18.93509395   4.67842334
2146.00 -18.97599650   4.69117542
2148.00 -19.01693104   4.70394970
2150.00 -19.05789754   4.71674619
2152.00 -19.09889598   4.72956491
2154.00 -19.13992636   4.74240587
2156.00 -19.18098866   4.75526909
2158.00 -19.22208285   4.76815459
2160.00 -19.26320893   4.78106237
2162.00 -19.30436687   4.79399246
2164.00 -19.34555667   4.80694487
2166.00 -19.38677830   4.81991961
2168.00 -19.42803175   4.83291670
2170.00 -19.46931701   4.84593615
2172.00 -19.51063405   4.85897798
2174.00 -19.55198287   4.87204221
2176.00 -19.59336344   4.88512884
2178.00 -19.63477576   4.89823789
2180.00 -19.67621980   4.91136939
2182.00 -19.71769554   4.92452334
2184.00 -19.75920298   4.93769975
2186.00 -19.80074210   4.95089865
2188.00 -19.84231288   4.96412005
2190.00 -19.88391530   4.97736395
2192.00 -19.92554935   4.99063039
2194.00 -19.96721501   5.00391936
2196.00 -20.00891227   5.01723090
2198.00 -20.05064111   5.03056500
2200.00 -20.09240151   5.04392169
2202.00 -20.13419347   5.05730098
2204.00 -20.17601695   5.07070289
2206.00 -20.21787196   5.08412743
2208.00 -20.25975846   5.09757461
2210.00 -20.30167644   5.11104445
2212.00 -20.34362590   5.12453697
2214.00 -20.38560680   5.13805217
2216.00 -20.42761915   5.15159008
2218.00 -20.46966291   5.16515070
2220.00 -20.51173807   5.17873406
2222.00 -20.55384463   5.19234017
2224.00 -20.59598255   5.20596904
2226.00 -20.63815183   5.21962068
2228.00 -20.68035245   5.23329512
2230.00 -20.72258439   5.24699236
2232.00 -20.76484764   5.26071242
2234.00 -20.80714218   5.27445531
2236.00 -20.84946799   5.28822105
2238.00 -20.89182507   5.30200966
2240.00 -20.93421338   5.31582115
2242.00 -20.97663292   5.32965552
2244.00 -21.01908367   5.34351281
2246.00 -21.06156561   5.35739301
2248.00 -21.10407873   5.37129615
2250.00 -21.14662301   5.38522224
2252.00 -21.18919844   5.39917130
2254.00 -21.23180499   5.41314333
2256.00 -21.27444266   5.42713836
2258.00 -21.31711142   5.44115639
2260.00 -21.35981126   5.45519745
2262.00 -21.40254216   5.46926154
2264.00 -21.44530411   5.48334868
2266.00 -21.48809710   5.49745888
2268.00 -21.53092109   5.51159217
2270.00 -21.57377609   5.52574855
2272.00 -21.61666206   5.53992803
2274.00 -21.65957900   5.55413064
2276.00 -21.70252689   5.56835638
2278.00 -21.74550572   5.58260527
2280.00 -21.78851546   5.59687732
2282.00 -21.83155609   5.61117256
2284.00 -21.87462762   5.62549098
2286.00 -21.91773001   5.63983261
2288.00 -21.96086325   5.65419747
2290.00 -22.00402732   5.66858555
2292.00 -22.04722221   5.68299689
2294.00 -22.09044791   5.69743149
2296.00 -22.13370439   5.71188936
2298.00 -22.17699164   5.72637053
2300.00 -22.22030964   5.74087500
2302.00 -22.26365837   5.75540279
2304.00 -22.30703783   5.76995391
2306.00 -22.35044799   5.78452838
2308.00 -22.39388883   5.79912621
2310.00 -22.43736035   5.81374742
2312.00 -22.48086252   5.82839201
2314.00 -22.52439532   5.84306001
2316.00 -22.56795875   5.85775142
2318.00 -22.61155278   5.87246626
2320.00 -22.65517739   5.88720455
2322.00 -22.69883258   5.90196630
2324.00 -22.74251832   5.91675152
2326.00 -22.78623460   5.93156022
2328.00 -22.82998141   5.94639242
2330.00 -22.87375871   5.96124814
2332.00 -22.91756651   5.97612739
2334.00 -22.96140477   5.99103017
2336.00 -23.00527350   6.00595651
2338.00 -23.04917266   6.02090642
2340.00 -23.09310224   6.03587992
2342.00 -23.13706223   6.05087700
2344.00 -23.18105260   6.06589770
2346.00 -23.22507335   6.08094202
2348.00 -23.26912445   6.09600998
2350.00 -23.31320590   6.11110159
2352.00 -23.35731766   6.12621687
2354.00 -23.40145973   6.14135582
2356.00 -23.44563209   6.15651847
2358.00 -23.48983472   6.17170482
2360.00 -23.53406761   6.18691489
2362.00 -23.57833074   6.20214869
2364.00 -23.62262409   6.21740624
2366.00 -23.66694764   6.23268754
2368.00 -23.71130138   6.24799263
2370.00 -23.75568530   6.26332149
2372.00 -23.80009937   6.27867416
2374.00 -23.84454358   6.29405065
2376.00 -23.88901791   6.30945096
2378.00 -23.93352235   6.32487511
2380.00 -23.97805688   6.34032311
2382.00 -24.02262148   6.35579498
2384.00 -24.06721613   6.37129074
2386.00 -24.11184082   6.38681039
2388.00 -24.15649554   6.40235394
2390.00 -24.20118026   6.41792142
2392.00 -24.24589496   6.43351284
2394.00 -24.29063964   6.44912820
2396.00 -24.33541427   6.46476752
2398.00 -24.38021884   6.48043082
2400.00 -24.42505334   6.49611810
2402.00 -24.46991773   6.51182939
2404.00 -24.51481202   6.52756469
2406.00 -24.55973617   6.54332402
2408.00 -24.60469018   6.55910739
2410.00 -24.64967402   6.57491481
2412.00 -24.69468769   6.59074630
2414.00 -24.73973115   6.60660188
2416.00 -24.78480441   6.62248154
2418.00 -24.82990743   6.63838532
2420.00 -24.87504021   6.65431321
2422.00 -24.92020272   6.67026524
2424.00 -24.96539495   6.68624142
2426.00 -25.01061689   6.70224175
2428.00 -25.05586850   6.71826626
2430.00 -25.10114979   6.73431495
2432.00 -25.14646073   6.75038785
2434.00 -25.19180130   6.76648495
2436.00 -25.23717149   6.78260628
2438.00 -25.28257128   6.79875185
2440.00 -25.32800065   6.81492167
2442.00 -25.37345959   6.83111576
2444.00 -25.41894808   6.84733412
2446.00 -25.46446611   6.86357677
2448.00 -25.51001365   6.87984372
2450.00 -25.55559068   6.89613499
2452.00 -25.60119720   6.91245060
2454.00 -25.64683319   6.92879054
2456.00 -25.69249862   6.94515483
2458.00 -25.73819348   6.96154350
2460.00 -25.78391776   6.97795655
2462.00 -25.82967143   6.99439399
2464.00 -25.87545449   7.01085583
2466.00 -25.92126690   7.02734210
2468.00 -25.96710867   7.04385279
2470.00 -26.01297976   7.06038794
2472.00 -26.05888016   7.07694754
2474.00 -26.10480986   7.09353161
2476.00 -26.15076884   7.11014016
2478.00 -26.19675707   7.12677321
2480.00 -26.24277455   7.14343077
2482.00 -26.28882126   7.16011285
2484.00 -26.33489717   7.17681946
2486.00 -26.38100228   7.19355062
2488.00 -26.42713657   7.21030634
2490.00 -26.47330001   7.22708663
2492.00 -26.51949259   7.24389151
2494.00 -26.56571430   7.26072098
2496.00 -26.61196511   7.27757507
2498.00 -26.65824501   7.29445378
2500.00 -26.70455399   7.31135712
2502.00 -26.75089202   7.32828511
2504.00 -26.79725909   7.34523776
2506.00 -26.84365518   7.36221508
2508.00 -26.89008028   7.37921709
2510.00 -26.93653436   7.39624380
2512.00 -26.98301741   7.41329522
2514.00 -27.02952941   7.43037136
2516.00 -27.07607035   7.44747223
2518.00 -27.12264021   7.46459785
2520.00 -27.16923897   7.48174824
2522.00 -27.21586661   7.49892340
2524.00 -27.26252312   7.51612334
2526.00 -27.30920848   7.53334808
2528.00 -27.35592267   7.55059763
2530.00 -27.40266568   7.56787200
2532.00 -27.44943748   7.58517120
2534.00 -27.49623806   7.60249526
2536.00 -27.54306741   7.61984417
2538.00 -27.58992550   7.63721795
2540.00 -27.63681233   7.65461662
2542.00 -27.68372786   7.67204019
2544.00 -27.73067209   7.68948866
2546.00 -27.77764499   7.70696205
2548.00 -27.82464656   7.72446038
2550.00 -27.87167677   7.74198365
2552.00 -27.91873560   7.75953188
2554.00 -27.96582304   7.77710508
2556.00 -28.01293907   7.79470326
2558.00 -28.06008368   7.81232643
2560.00 -28.10725684   7.82997461
2562.00 -28.15445854   7.84764781
2564.00 -28.20168876   7.86534604
2566.00 -28.24894749   7.88306931
2568.00 -28.29623470   7.90081764
2570.00 -28.34355038   7.91859103
2572.00 -28.39089451   7.93638950
2574.00 -28.43826708   7.95421306
2576.00 -28.48566807   7.97206173
2578.00 -28.53309745   7.98993551
2580.00 -28.58055522   8.00783441
2582.00 -28.62804136   8.02575846
2584.00 -28.67555584   8.04370766
2586.00 -28.72309865   8.06168201
2588.00 -28.77066978   8.07968155
2590.00 -28.81826920   8.09770627
2592.00 -28.86589690   8.11575619
2594.00 -28.91355286   8.13383131
2596.00 -28.96123707   8.15193166
2598.00 -29.00894950   8.17005725
2600.00 -29.05669014   8.18820808
2602.00 -29.10445897   8.20638417
2604.00 -29.15225598   8.22458553
2606.00 -29.20008114   8.24281217
2608.00 -29.24793444   8.26106410
2610.00 -29.29581586   8.27934134
2612.00 -29.34372539   8.29764390
2614.00 -29.39166301   8.31597178
2616.00 -29.43962869   8.33432500
2618.00 -29.48762242   8.35270358
2620.00 -29.53564419   8.37110752
2622.00 -29.58369398   8.38953684
2624.00 -29.63177177   8.40799154
2626.00 -29.67987754   8.42647164
2628.00 -29.72801127   8.44497715
2630.00 -29.77617295   8.46350809
2632.00 -29.82436256   8.48206446
2634.00 -29.87258008   8.50064627
2636.00 -29.92082549   8.51925354
2638.00 -29.96909879   8.53788628
2640.00 -30.01739994   8.55654450
2642.00 -30.06572893   8.57522821
2644.00 -30.11408575   8.59393742
2646.00 -30.16247038   8.61267215
2648.00 -30.21088279   8.63143240
2650.00 -30.25932298   8.65021819
2652.00 -30.30779092   8.66902954
2654.00 -30.35628659   8.68786644
2656.00 -30.40480999   8.70672891
2658.00 -30.45336109   8.72561697
2660.00 -30.50193987   8.74453062
2662.00 -30.55054632   8.76346988
2664.00 -30.59918042   8.78243476
2666.00 -30.64784214   8.80142526
2668.00 -30.69653149   8.82044141
2670.00 -30.74524842   8.83948320
2672.00 -30.79399294   8.85855066
2674.00 -30.84276502   8.87764380
2676.00 -30.89156464   8.89676262
2678.00 -30.94039178   8.91590714
2680.00 -30.98924644   8.93507736
2682.00 -31.03812858   8.95427331
2684.00 -31.08703820   8.97349499
2686.00 -31.13597527   8.99274240
2688.00 -31.18493978   9.01201558
2690.00 -31.23393171   9.03131451
2692.00 -31.28295104   9.05063922
2694.00 -31.33199776   9.06998972
2696.00 -31.38107184   9.08936602
2698.00 -31.43017327   9.10876812
2700.00 -31.47930204   9.12819605
2702.00 -31.52845811   9.14764980
2704.00 -31.57764149   9.16712940
2706.00 -31.62685214   9.18663485
2708.00 -31.67609005   9.20616617
2710.00 -31.72535521   9.22572336
2712.00 -31.77464759   9.24530644
2714.00 -31.82396718   9.26491542
2716.00 -31.87331396   9.28455030
2718.00 -31.92268791   9.30421111
2720.00 -31.97208902   9.32389784
2722.00 -32.02151726   9.34361052
2724.00 -32.07097262   9.36334915
2726.00 -32.12045509   9.38311374
2728.00 -32.16996463   9.40290431
2730.00 -32.21950125   9.42272086
2732.00 -32.26906491   9.44256341
2734.00 -32.31865560   9.46243196
2736.00 -32.36827331   9.48232653
2738.00 -32.41791801   9.50224714
2740.00 -32.46758968   9.52219378
2742.00 -32.51728832   9.54216647
2744.00 -32.56701390   9.56216522
2746.00 -32.61676640   9.58219004
2748.00 -32.66654581   9.60224095
2750.00 -32.71635210   9.62231795
2752.00 -32.76618527   9.64242106
2754.00 -32.81604529   9.66255028
2756.00 -32.86593215   9.68270562
2758.00 -32.91584582   9.70288710
2760.00 -32.96578629   9.72309473
2762.00 -33.01575354   9.74332852
2764.00 -33.06574756   9.76358847
2766.00 -33.11576832   9.78387460
2768.00 -33.16581581   9.80418693
2770.00 -33.21589002   9.82452545
2772.00 -33.26599091   9.84489018
2774.00 -33.31611848   9.86528114
2776.00 -33.36627270   9.88569833
2778.00 -33.41645357   9.90614175
2780.00 -33.46666105   9.92661144
2782.00 -33.51689514   9.94710738
2784.00 -33.56715581   9.96762960
2786.00 -33.61744306   9.98817811
2788.00 -33.66775685  10.00875290
2790.00 -33.71809717  10.02935401
2792.00 -33.76846401  10.04998143
2794.00 -33.81885734  10.07063518
2796.00 -33.86927715  10.09131526
2798.00 -33.91972342  10.11202169
2800.00 -33.97019614  10.13275448
2802.00 -34.02069528  10.15351363
2804.00 -34.07122082  10.17429917
2806.00 -34.12177276  10.19511109
2808.00 -34.17235106  10.21594941
2810.00 -34.22295572  10.23681414
2812.00 -34.27358671  10.25770529
2814.00 -34.32424402  10.27862287
2816.00 -34.37492763  10.29956689
2818.00 -34.42563752  10.32053736
2820.00 -34.47637368  10.34153429
2822.00 -34.52713608  10.36255769
2824.00 -34.57792471  10.38360758
2826.00 -34.62873954  10.40468395
2828.00 -34.67958057  10.42578683
2830.00 -34.73044777  10.44691621
2832.00 -34.78134113  10.46807212
2834.00 -34.83226063  10.48925456
2836.00 -34.88320624  10.51046354
2838.00 -34.93417796  10.53169908
2840.00 -34.98517576  10.55296117
2842.00 -35.03619963  10.57424984
2844.00 -35.08724955  10.59556509
2846.00 -35.13832549  10.61690693
2848.00 -35.18942745  10.63827538
2850.00 -35.24055540  10.65967043
2852.00 -35.29170933  10.68109211
2854.00 -35.34288921  10.70254043
2856.00 -35.39409504  10.72401538
2858.00 -35.44532679  10.74551699
2860.00 -35.49658444  10.76704526
2862.00 -35.54786798  10.78860020
2864.00 -35.59917739  10.81018182
2866.00 -35.65051264  10.83179013
2868.00 -35.70187373  10.85342515
2870.00 -35.75326063  10.87508688
2872.00 -35.80467333  10.89677533
2874.00 -35.85611181  10.91849051
2876.00 -35.90757605  10.94023243
2878.00 -35.95906602  10.96200111
2880.00 -36.01058173  10.98379654
2882.00 -36.06212314  11.00561874
2884.00 -36.11369023  11.02746773
2886.00 -36.16528300  11.04934351
2888.00 -36.21690142  11.07124608
2890.00 -36.26854547  11.09317547
2892.00 -36.32021514  11.11513167
2894.00 -36.37191040  11.13711470
2896.00 -36.42363124  11.15912457
2898.00 -36.47537765  11.18116130
2900.00 -36.52714960  11.20322487
2902.00 -36.57894708  11.22531532
2904.00 -36.63077006  11.24743264
2906.00 -36.68261853  11.26957685
2908.00 -36.73449247  11.29174796
2910.00 -36.78639187  11.31394597
2912.00 -36.83831670  11.33617090
2914.00 -36.89026694  11.35842275
2916.00 -36.94224259  11.38070154
2918.00 -36.99424362  11.40300727
2920.00 -37.04627000  11.42533996
2922.00 -37.09832174  11.44769960
2924.00 -37.15039880  11.47008623
2926.00 -37.20250117  11.49249983
2928.00 -37.25462882  11.51494042
2930.00 -37.30678175  11.53740802
2932.00 -37.35895994  11.55990262
2934.00 -37.41116336  11.58242425
2936.00 -37.46339200  11.60497291
2938.00 -37.51564583  11.62754860
2940.00 -37.56792485  11.65015134
2942.00 -37.62022903  11.67278114
2944.00 -37.67255836  11.69543800
2946.00 -37.72491281  11.71812194
2948.00 -37.77729238  11.74083297
2950.00 -37.82969703  11.76357109
2952.00 -37.88212676  11.78633632
2954.00 -37.93458154  11.80912865
2956.00 -37.98706135  11.83194811
2958.00 -38.03956619  11.85479470
2960.00 -38.09209602  11.87766843
2962.00 -38.14465084  11.90056931
2964.00 -38.19723062  11.92349735
2966.00 -38.24983534  11.94645256
2968.00 -38.30246500  11.96943495
2970.00 -38.35511956  11.99244452
2972.00 -38.40779901  12.01548129
2974.00 -38.46050333  12.03854526
2976.00 -38.51323251  12.06163644
2978.00 -38.56598653  12.08475485
2980.00 -38.61876536  12.10790049
2982.00 -38.67156900  12.13107337
2984.00 -38.72439741  12.15427351
2986.00 -38.77725059  12.17750090
2988.00 -38.83012852  12.20075555
2990.00 -38.88303117  12.22403749
2992.00 -38.93595853  12.24734671
2994.00 -38.98891058  12.27068323
2996.00 -39.04188731  12.29404705
2998.00 -39.09488869  12.31743818
3000.00 -39.14791470  12.34085663
3002.00 -39.20096533  12.36430242
3004.00 -39.25404057  12.38777554
3006.00 -39.30714038  12.41127601
3008.00 -39.36026476  12.43480384
3010.00 -39.41341368  12.45835904
3012.00 -39.46658713  12.48194161
3014.00 -39.51978509  12.50555156
3016.00 -39.57300753  12.52918891
3018.00 -39.62625445  12.55285366
3020.00 -39.67952583  12.57654582
3022.00 -39.73282164  12.60026539
3024.00 -39.78614186  12.62401240
3026.00 -39.83948649  12.64778684
3028.00 -39.89285549  12.67158872
3030.00 -39.94624886  12.69541806
3032.00 -39.99966658  12.71927486
3034.00 -40.05310862  12.74315914
3036.00 -40.10657496  12.76707089
3038.00 -40.16006560  12.79101013
3040.00 -40.21358051  12.81497686
3042.00 -40.26711967  12.83897111
3044.00 -40.32068307  12.86299286
3046.00 -40.37427068  12.88704214
3048.00 -40.42788249  12.91111895
3050.00 -40.48151848  12.93522330
3052.00 -40.53517863  12.95935520
3054.00 -40.58886293  12.98351465
3056.00 -40.64257135  13.00770167
3058.00 -40.69630388  13.03191627
3060.00 -40.75006049  13.05615845
3062.00 -40.80384118  13.08042821
3064.00 -40.85764592  13.10472558
3066.00 -40.91147469  13.12905055
3068.00 -40.96532747  13.15340314
3070.00 -41.01920426  13.17778336
3072.00 -41.07310502  13.20219120
3074.00 -41.12702974  13.22662669
3076.00 -41.18097841  13.25108983
3078.00 -41.23495100  13.27558063
3080.00 -41.28894749  13.30009909
3082.00 -41.34296788  13.32464522
3084.00 -41.39701213  13.34921904
3086.00 -41.45108023  13.37382055
3088.00 -41.50517216  13.39844976
3090.00 -41.55928791  13.42310668
3092.00 -41.61342745  13.44779131
3094.00 -41.66759077  13.47250367
3096.00 -41.72177785  13.49724376
3098.00 -41.77598867  13.52201159
3100.00 -41.83022322  13.54680717
3102.00 -41.88448146  13.57163050
3104.00 -41.93876339  13.59648160
3106.00 -41.99306899  13.62136048
3108.00 -42.04739824  13.64626713
3110.00 -42.10175112  13.67120158
3112.00 -42.15612761  13.69616382
3114.00 -42.21052770  13.72115387
3116.00 -42.26495136  13.74617173
3118.00 -42.31939858  13.77121741
3120.00 -42.37386934  13.79629092
3122.00 -42.42836361  13.82139227
3124.00 -42.48288139  13.84652147
3126.00 -42.53742266  13.87167852
3128.00 -42.59198739  13.89686343
3130.00 -42.64657556  13.92207621
3132.00 -42.70118717  13.94731687
3134.00 -42.75582218  13.97258541
3136.00 -42.81048059  13.99788185
3138.00 -42.86516237  14.02320619
3140.00 -42.91986751  14.04855844
3142.00 -42.97459598  14.07393860
3144.00 -43.02934778  14.09934669
3146.00 -43.08412287  14.12478272
3148.00 -43.13892125  14.15024668
3150.00 -43.19374288  14.17573859
3152.00 -43.24858777  14.20125846
3154.00 -43.30345588  14.22680629
3156.00 -43.35834720  14.25238210
3158.00 -43.41326170  14.27798588
3160.00 -43.46819938  14.30361765
3162.00 -43.52316022  14.32927742
3164.00 -43.57814419  14.35496519
3166.00 -43.63315127  14.38068097
3168.00 -43.68818145  14.40642477
3170.00 -43.74323471  14.43219659
3172.00 -43.79831104  14.45799645
3174.00 -43.85341041  14.48382435
3176.00 -43.90853280  14.50968030
3178.00 -43.96367819  14.53556430
3180.00 -44.01884658  14.56147637
3182.00 -44.07403793  14.58741651
3184.00 -44.12925224  14.61338473
3186.00 -44.18448948  14.63938103
3188.00 -44.23974963  14.66540543
3190.00 -44.29503267  14.69145793
3192.00 -44.35033860  14.71753854
3194.00 -44.40566738  14.74364727
3196.00 -44.46101901  14.76978412
3198.00 -44.51639345  14.79594911
3200.00 -44.57179070  14.82214223
3202.00 -44.62721074  14.84836350
3204.00 -44.68265354  14.87461293
3206.00 -44.73811909  14.90089051
3208.00 -44.79360737  14.92719627
3210.00 -44.84911836  14.95353020
3212.00 -44.90465205  14.97989231
3214.00 -44.96020841  15.00628262
3216.00 -45.01578743  15.03270112
3218.00 -45.07138908  15.05914783
3220.00 -45.12701336  15.08562275
3222.00 -45.18266023  15.11212589
3224.00 -45.23832969  15.13865727
3226.00 -45.29402171  15.16521687
3228.00 -45.34973628  15.19180472
3230.00 -45.40547337  15.21842081
3232.00 -45.46123298  15.24506517
3234.00 -45.51701507  15.27173779
3236.00 -45.57281964  15.29843867
3238.00 -45.62864666  15.32516784
3240.00 -45.68449612  15.35192529
3242.00 -45.74036799  15.37871103
3244.00 -45.79626226  15.40552508
3246.00 -45.85217891  15.43236743
3248.00 -45.90811792  15.45923809
3250.00 -45.96407928  15.48613708
3252.00 -46.02006296  15.51306439
3254.00 -46.07606895  15.54002004
3256.00 -46.13209722  15.56700403
3258.00 -46.18814776  15.59401637
3260.00 -46.24422056  15.62105706
3262.00 -46.30031558  15.64812612
3264.00 -46.35643283  15.67522355
3266.00 -46.41257226  15.70234936
3268.00 -46.46873387  15.72950355
3270.00 -46.52491765  15.75668613
3272.00 -46.58112356  15.78389711
3274.00 -46.63735159  15.81113650
3276.00 -46.69360173  15.83840429
3278.00 -46.74987395  15.86570051
3280.00 -46.80616824  15.89302515
3282.00 -46.86248458  15.92037822
3284.00 -46.91882294  15.94775973
3286.00 -46.97518332  15.97516969
3288.00 -47.03156569  16.00260810
3290.00 -47.08797003  16.03007498
3292.00 -47.14439633  16.05757032
3294.00 -47.20084457  16.08509413
3296.00 -47.25731473  16.11264642
3298.00 -47.31380678  16.14022720
3300.00 -47.37032072  16.16783647
3302.00 -47.42685652  16.19547424
3304.00 -47.48341417  16.22314052
3306.00 -47.53999364  16.25083532
3308.00 -47.59659492  16.27855863
3310.00 -47.65321799  16.30631047
3312.00 -47.70986283  16.33409085
3314.00 -47.76652942  16.36189976
3316.00 -47.82321775  16.38973722
3318.00 -47.87992779  16.41760324
3320.00 -47.93665954  16.44549782
3322.00 -47.99341296  16.47342096
3324.00 -48.05018804  16.50137268
3326.00 -48.10698476  16.52935297
3328.00 -48.16380310  16.55736186
3330.00 -48.22064305  16.58539933
3332.00 -48.27750459  16.61346541
3334.00 -48.33438769  16.64156009
3336.00 -48.39129235  16.66968338
3338.00 -48.44821853  16.69783529
3340.00 -48.50516623  16.72601583
3342.00 -48.56213542  16.75422500
3344.00 -48.61912609  16.78246281
3346.00 -48.67613822  16.81072926
3348.00 -48.73317178  16.83902437
3350.00 -48.79022676  16.86734813
3352.00 -48.84730315  16.89570055
3354.00 -48.90440092  16.92408165
3356.00 -48.96152005  16.95249142
3358.00 -49.01866053  16.98092987
3360.00 -49.07582234  17.00939702
3362.00 -49.13300546  17.03789286
3364.00 -49.19020987  17.06641740
3366.00 -49.24743555  17.09497065
3368.00 -49.30468248  17.12355261
3370.00 -49.36195065  17.15216329
3372.00 -49.41924004  17.18080270
3374.00 -49.47655063  17.20947084
3376.00 -49.53388239  17.23816772
3378.00 -49.59123532  17.26689335
3380.00 -49.64860939  17.29564773
3382.00 -49.70600459  17.32443087
3384.00 -49.76342089  17.35324276
3386.00 -49.82085828  17.38208343
3388.00 -49.87831674  17.41095288
3390.00 -49.93579625  17.43985111
3392.00 -49.99329679  17.46877812
3394.00 -50.05081835  17.49773393
3396.00 -50.10836090  17.52671854
3398.00 -50.16592443  17.55573196
3400.00 -50.22350891  17.58477419
3402.00 -50.28111434  17.61384523
3404.00 -50.33874069  17.64294510
3406.00 -50.39638794  17.67207380
3408.00 -50.45405608  17.70123134
3410.00 -50.51174508  17.73041772
3412.00 -50.56945493  17.75963295
3414.00 -50.62718561  17.78887703
3416.00 -50.68493709  17.81814997
3418.00 -50.74270938  17.84745178
3420.00 -50.80050243  17.87678246
3422.00 -50.85831624  17.90614202
3424.00 -50.91615079  17.93553046
3426.00 -50.97400605  17.96494779
3428.00 -51.03188202  17.99439401
3430.00 -51.08977867  18.02386914
3432.00 -51.14769598  18.05337317
3434.00 -51.20563393  18.08290612
3436.00 -51.26359251  18.11246798
3438.00 -51.32157170  18.14205877
3440.00 -51.37957147  18.17167848
3442.00 -51.43759182  18.20132714
3444.00 -51.49563272  18.23100473
3446.00 -51.55369415  18.26071127
3448.00 -51.61177610  18.29044677
3450.00 -51.66987854  18.32021122
3452.00 -51.72800147  18.35000464
3454.00 -51.78614485  18.37982702
3456.00 -51.84430867  18.40967838
3458.00 -51.90249292  18.43955872
3460.00 -51.96069757  18.46946805
3462.00 -52.01892260  18.49940637
3464.00 -52.07716801  18.52937369
3466.00 -52.13543376  18.55937001
3468.00 -52.19371984  18.58939534
3470.00 -52.25202624  18.61944969
3472.00 -52.31035293  18.64953305
3474.00 -52.36869989  18.67964544
3476.00 -52.42706711  18.70978686
3478.00 -52.48545457  18.73995732
3480.00 -52.54386224  18.77015682
3482.00 -52.60229012  18.80038536
3484.00 -52.66073818  18.83064296
3486.00 -52.71920641  18.86092962
3488.00 -52.77769478  18.89124534
3490.00 -52.83620328  18.92159013
3492.00 -52.89473189  18.95196399
3494.00 -52.95328058  18.98236693
3496.00 -53.01184935  19.01279896
3498.00 -53.07043818  19.04326008
3500.00 -53.12904703  19.07375029
3502.00 -53.18767591  19.10426961
3504.00 -53.24632478  19.13481803
3506.00 -53.30499363  19.16539556
3508.00 -53.36368245  19.19600221
3510.00 -53.42239120  19.22663798
3512.00 -53.48111988  19.25730288
3514.00 -53.53986847  19.28799691
3516.00 -53.59863694  19.31872008
3518.00 -53.65742529  19.34947239
3520.00 -53.71623348  19.38025385
3522.00 -53.77506150  19.41106446
3524.00 -53.83390934  19.44190423
3526.00 -53.89277697  19.47277316
3528.00 -53.95166438  19.50367127
3530.00 -54.01057155  19.53459854
3532.00 -54.06949846  19.56555500
3534.00 -54.12844509  19.59654064
3536.00 -54.18741142  19.62755547
3538.00 -54.24639744  19.65859949
3540.00 -54.30540312  19.68967271
3542.00 -54.36442845  19.72077514
3544.00 -54.42347341  19.75190678
3546.00 -54.48253798  19.78306763
3548.00 -54.54162214  19.81425770
3550.00 -54.60072588  19.84547699
3552.00 -54.65984917  19.87672551
3554.00 -54.71899199  19.90800327
3556.00 -54.77815434  19.93931026
3558.00 -54.83733619  19.97064650
3560.00 -54.89653751  20.00201199
3562.00 -54.95575830  20.03340673
3564.00 -55.01499854  20.06483074
3566.00 -55.07425820  20.09628400
3568.00 -55.13353727  20.12776653
3570.00 -55.19283573  20.15927834
3572.00 -55.25215356  20.19081942
3574.00 -55.31149074  20.22238979
3576.00 -55.37084726  20.25398944
3578.00 -55.43022309  20.28561839
3580.00 -55.48961822  20.31727664
3582.00 -55.54903262  20.34896418
3584.00 -55.60846629  20.38068104
3586.00 -55.66791920  20.41242720
3588.00 -55.72739134  20.44420268
3590.00 -55.78688267  20.47600748
3592.00 -55.84639320  20.50784161
3594.00 -55.90592289  20.53970507
3596.00 -55.96547174  20.57159786
3598.00 -56.02503971  20.60351999
3600.00 -56.08462680  20.63547146
3602.00 -56.14423298  20.66745229
3604.00 -56.20385824  20.69946247
3606.00 -56.26350256  20.73150200
3608.00 -56.32316591  20.76357090
3610.00 -56.38284829  20.79566917
3612.00 -56.44254967  20.82779680
3614.00 -56.50227003  20.85995382
3616.00 -56.56200936  20.89214021
3618.00 -56.62176764  20.92435599
3620.00 -56.68154484  20.95660116
3622.00 -56.74134096  20.98887572
3624.00 -56.80115597  21.02117968
3626.00 -56.86098985  21.05351305
3628.00 -56.92084258  21.08587582
3630.00 -56.98071416  21.11826801
3632.00 -57.04060455  21.15068961
3634.00 -57.10051374  21.18314063
3636.00 -57.16044172  21.21562108
3638.00 -57.22038845  21.24813095
3640.00 -57.28035394  21.28067027
3642.00 -57.34033814  21.31323901
3644.00 -57.40034106  21.34583721
3646.00 -57.46036267  21.37846485
3648.00 -57.52040295  21.41112194
3650.00 -57.58046188  21.44380848
3652.00 -57.64053944  21.47652449
3654.00 -57.70063563  21.50926996
3656.00 -57.76075041  21.54204489
3658.00 -57.82088377  21.57484930
3660.00 -57.88103569  21.60768319
3662.00 -57.94120615  21.64054656
3664.00 -58.00139514  21.67343941
3666.00 -58.06160263  21.70636176
3668.00 -58.12182861  21.73931359
3670.00 -58.18207306  21.77229493
3672.00 -58.24233596  21.80530576
3674.00 -58.30261730  21.83834611
3676.00 -58.36291705  21.87141596
3678.00 -58.42323519  21.90451533
3680.00 -58.48357171  21.93764421
3682.00 -58.54392659  21.97080262
3684.00 -58.60429981  22.00399055
3686.00 -58.66469136  22.03720802
3688.00 -58.72510121  22.07045502
3690.00 -58.78552934  22.10373155
3692.00 -58.84597574  22.13703764
3694.00 -58.90644039  22.17037326
3696.00 -58.96692327  22.20373844
3698.00 -59.02742436  22.23713317
3700.00 -59.08794365  22.27055746
3702.00 -59.14848111  22.30401132
3704.00 -59.20903673  22.33749474
3706.00 -59.26961049  22.37100772
3708.00 -59.33020237  22.40455029
3710.00 -59.39081235  22.43812243
3712.00 -59.45144041  22.47172416
3714.00 -59.51208654  22.50535546
3716.00 -59.57275072  22.53901636
3718.00 -59.63343293  22.57270686
3720.00 -59.69413314  22.60642695
3722.00 -59.75485135  22.64017664
3724.00 -59.81558753  22.67395594
3726.00 -59.87634167  22.70776484
3728.00 -59.93711375  22.74160336
3730.00 -59.99790374  22.77547149
3732.00 -60.05871164  22.80936925
3734.00 -60.11953742  22.84329662
3736.00 -60.18038106  22.87725363
3738.00 -60.24124255  22.91124027
3740.00 -60.30212186  22.94525654
3742.00 -60.36301899  22.97930245
3744.00 -60.42393390  23.01337800
3746.00 -60.48486659  23.04748320
3748.00 -60.54581703  23.08161804
3750.00 -60.60678521  23.11578254
3752.00 -60.66777111  23.14997670
3754.00 -60.72877470  23.18420052
3756.00 -60.78979598  23.21845400
3758.00 -60.85083491  23.25273715
3760.00 -60.91189150  23.28704997
3762.00 -60.97296571  23.32139246
3764.00 -61.03405752  23.35576463
3766.00 -61.09516693  23.39016648
3768.00 -61.15629391  23.42459802
3770.00 -61.21743844  23.45905925
3772.00 -61.27860050  23.49355017
3774.00 -61.33978009  23.52807078
3776.00 -61.40097717  23.56262110
3778.00 -61.46219173  23.59720111
3780.00 -61.52342375  23.63181084
3782.00 -61.58467322  23.66645027
3784.00 -61.64594011  23.70111941
3786.00 -61.70722440  23.73581827
3788.00 -61.76852609  23.77054685
3790.00 -61.82984515  23.80530515
3792.00 -61.89118156  23.84009318
3794.00 -61.95253530  23.87491094
3796.00 -62.01390636  23.90975843
3798.00 -62.07529471  23.94463565
3800.00 -62.13670035  23.97954262
3802.00 -62.19812324  24.01447933
3804.00 -62.25956338  24.04944578
3806.00 -62.32102074  24.08444198
3808.00 -62.38249531  24.11946794
3810.00 -62.44398707  24.15452365
3812.00 -62.50549600  24.18960912
3814.00 -62.56702207  24.22472435
3816.00 -62.62856528  24.25986935
3818.00 -62.69012561  24.29504411
3820.00 -62.75170303  24.33024865
3822.00 -62.81329754  24.36548296
3824.00 -62.87490910  24.40074705
3826.00 -62.93653770  24.43604092
3828.00 -62.99818333  24.47136458
3830.00 -63.05984596  24.50671802
3832.00 -63.12152559  24.54210125
3834.00 -63.18322218  24.57751428
3836.00 -63.24493572  24.61295710
3838.00 -63.30666619  24.64842972
3840.00 -63.36841358  24.68393214
3842.00 -63.43017787  24.71946437
3844.00 -63.49195903  24.75502641
3846.00 -63.55375706  24.79061826
3848.00 -63.61557193  24.82623992
3850.00 -63.67740362  24.86189140
3852.00 -63.73925211  24.89757270
3854.00 -63.80111740  24.93328383
3856.00 -63.86299945  24.96902478
3858.00 -63.92489825  25.00479556
3860.00 -63.98681379  25.04059617
3862.00 -64.04874604  25.07642662
3864.00 -64.11069499  25.11228690
3866.00 -64.17266061  25.14817703
3868.00 -64.23464290  25.18409699
3870.00 -64.29664183  25.22004681
3872.00 -64.35865738  25.25602647
3874.00 -64.42068954  25.29203599
3876.00 -64.48273829  25.32807536
3878.00 -64.54480360  25.36414459
3880.00 -64.60688547  25.40024368
3882.00 -64.66898387  25.43637263
3884.00 -64.73109878  25.47253145
3886.00 -64.79323019  25.50872013
3888.00 -64.85537808  25.54493869
3890.00 -64.91754243  25.58118712
3892.00 -64.97972323  25.61746543
3894.00 -65.04192045  25.65377362
3896.00 -65.10413407  25.69011169
3898.00 -65.16636408  25.72647964
3900.00 -65.22861046  25.76287748
3902.00 -65.29087320  25.79930521
3904.00 -65.35315227  25.83576284
3906.00 -65.41544765  25.87225036
3908.00 -65.47775933  25.90876777
3910.00 -65.54008729  25.94531509
3912.00 -65.60243151  25.98189231
3914.00 -65.66479198  26.01849944
3916.00 -65.72716867  26.05513647
3918.00 -65.78956156  26.09180342
3920.00 -65.85197065  26.12850027
3922.00 -65.91439591  26.16522705
3924.00 -65.97683732  26.20198374
3926.00 -66.03929486  26.23877035
3928.00 -66.10176852  26.27558688
3930.00 -66.16425828  26.31243334
3932.00 -66.22676412  26.34930973
3934.00 -66.28928602  26.38621605
3936.00 -66.35182397  26.42315230
3938.00 -66.41437794  26.46011849
3940.00 -66.47694792  26.49711461
3942.00 -66.53953389  26.53414068
3944.00 -66.60213584  26.57119668
3946.00 -66.66475374  26.60828263
3948.00 -66.72738757  26.64539853
3950.00 -66.79003732  26.68254438
3952.00 -66.85270297  26.71972017
3954.00 -66.91538450  26.75692593
3956.00 -66.97808190  26.79416164
3958.00 -67.04079514  26.83142730
3960.00 -67.10352421  26.86872293
3962.00 -67.16626909  26.90604852
3964.00 -67.22902976  26.94340408
3966.00 -67.29180621  26.98078960
3968.00 -67.35459841  27.01820509
3970.00 -67.41740635  27.05565056
3972.00 -67.48023001  27.09312600
3974.00 -67.54306936  27.13063141
3976.00 -67.60592441  27.16816680
3978.00 -67.66879512  27.20573218
3980.00 -67.73168147  27.24332753
3982.00 -67.79458346  27.28095287
3984.00 -67.85750106  27.31860820
3986.00 -67.92043425  27.35629352
3988.00 -67.98338301  27.39400883
3990.00 -68.04634734  27.43175413
3992.00 -68.10932720  27.46952942
3994.00 -68.17232259  27.50733472
3996.00 -68.23533347  27.54517001
3998.00 -68.29835985  27.58303530
4000.00 -68.36140169  27.62093060
4002.00 -68.42445898  27.65885590
4004.00 -68.48753171  27.69681121
4006.00 -68.55061985  27.73479653
4008.00 -68.61372338  27.77281186
4010.00 -68.67684229  27.81085721
4012.00 -68.73997656  27.84893257
4014.00 -68.80312618  27.88703794
4016.00 -68.86629111  27.92517334
4018.00 -68.92947136  27.96333875
4020.00 -68.99266689  28.00153419
4022.00 -69.05587769  28.03975965
4024.00 -69.11910375  28.07801514
4026.00 -69.18234504  28.11630066
4028.00 -69.24560154  28.15461620
4030.00 -69.30887325  28.19296178
4032.00 -69.37216013  28.23133740
4034.00 -69.43546218  28.26974305
4036.00 -69.49877937  28.30817873
4038.00 -69.56211169  28.34664446
4040.00 -69.62545912  28.38514022
4042.00 -69.68882164  28.42366603
4044.00 -69.75219923  28.46222189
4046.00 -69.81559188  28.50080778
4048.00 -69.87899956  28.53942373
4050.00 -69.94242227  28.57806973
4052.00 -70.00585997  28.61674578
4054.00 -70.06931267  28.65545188
4056.00 -70.13278032  28.69418803
4058.00 -70.19626293  28.73295424
4060.00 -70.25976046  28.77175051
4062.00 -70.32327291  28.81057684
4064.00 -70.38680025  28.84943323
4066.00 -70.45034247  28.88831968
4068.00 -70.51389954  28.92723620
4070.00 -70.57747146  28.96618278
4072.00 -70.64105820  29.00515943
4074.00 -70.70465975  29.04416615
4076.00 -70.76827608  29.08320294
4078.00 -70.83190718  29.12226980
4080.00 -70.89555304  29.16136673
4082.00 -70.95921363  29.20049374
4084.00 -71.02288893  29.23965083
4086.00 -71.08657893  29.27883799
4088.00 -71.15028362  29.31805524
4090.00 -71.21400296  29.35730256
4092.00 -71.27773695  29.39657997
4094.00 -71.34148557  29.43588746
4096.00 -71.40524880  29.47522503
4098.00 -71.46902661  29.51459270
4100.00 -71.53281901  29.55399045
4102.00 -71.59662595  29.59341829
4104.00 -71.66044744  29.63287622
4106.00 -71.72428344  29.67236424
4108.00 -71.78813395  29.71188236
4110.00 -71.85199894  29.75143057
4112.00 -71.91587840  29.79100887
4114.00 -71.97977231  29.83061728
4116.00 -72.04368065  29.87025578
4118.00 -72.10760340  29.90992439
4120.00 -72.17154055  29.94962309
4122.00 -72.23549208  29.98935190
4124.00 -72.29945797  30.02911081
4126.00 -72.36343820  30.06889982
4128.00 -72.42743275  30.10871895
4130.00 -72.49144162  30.14856818
4132.00 -72.55546477  30.18844751
4134.00 -72.61950219  30.22835696
4136.00 -72.68355387  30.26829652
4138.00 -72.74761978  30.30826619
4140.00 -72.81169991  30.34826598
4142.00 -72.87579424  30.38829588
4144.00 -72.93990276  30.42835589
4146.00 -73.00402544  30.46844602
4148.00 -73.06816227  30.50856627
4150.00 -73.13231322  30.54871664
4152.00 -73.19647829  30.58889713
4154.00 -73.26065746  30.62910774
4156.00 -73.32485070  30.66934847
4158.00 -73.38905800  30.70961932
4160.00 -73.45327934  30.74992030
4162.00 -73.51751471  30.79025141
4164.00 -73.58176408  30.83061264
4166.00 -73.64602744  30.87100399
4168.00 -73.71030477  30.91142548
4170.00 -73.77459605  30.95187709
4172.00 -73.83890127  30.99235884
4174.00 -73.90322041  31.03287071
4176.00 -73.96755345  31.07341272
4178.00 -74.03190037  31.11398486
4180.00 -74.09626115  31.15458714
4182.00 -74.16063578  31.19521955
4184.00 -74.22502424  31.23588209
4186.00 -74.28942652  31.27657477
4188.00 -74.35384258  31.31729759
4190.00 -74.41827243  31.35805055
4192.00 -74.48271603  31.39883365
4194.00 -74.54717338  31.43964688
4196.00 -74.61164445  31.48049026
4198.00 -74.67612922  31.52136378
4200.00 -74.74062768  31.56226744
4202.00 -74.80513982  31.60320124
4204.00 -74.86966561  31.64416519
4206.00 -74.93420503  31.68515928
4208.00 -74.99875807  31.72618352
4210.00 -75.06332472  31.76723791
4212.00 -75.12790494  31.80832244
4214.00 -75.19249873  31.84943712
4216.00 -75.25710607  31.89058194
4218.00 -75.32172694  31.93175692
4220.00 -75.38636133  31.97296204
4222.00 -75.45100920  32.01419732
4224.00 -75.51567056  32.05546275
4226.00 -75.58034538  32.09675832
4228.00 -75.64503364  32.13808405
4230.00 -75.70973532  32.17943994
4232.00 -75.77445041  32.22082597
4234.00 -75.83917889  32.26224216
4236.00 -75.90392075  32.30368851
4238.00 -75.96867596  32.34516501
4240.00 -76.03344450  32.38667167
4242.00 -76.09822637  32.42820848
4244.00 -76.16302154  32.46977545
4246.00 -76.22782999  32.51137258
4248.00 -76.29265172  32.55299986
4250.00 -76.35748669  32.59465730
4252.00 -76.42233489  32.63634491
4254.00 -76.48719631  32.67806267
4256.00 -76.55207093  32.71981059
4258.00 -76.61695873  32.76158867
4260.00 -76.68185969  32.80339691
4262.00 -76.74677379  32.84523532
4264.00 -76.81170102  32.88710388
4266.00 -76.87664137  32.92900261
4268.00 -76.94159480  32.97093150
4270.00 -77.00656131  33.01289055
4272.00 -77.07154088  33.05487976
4274.00 -77.13653349  33.09689914
4276.00 -77.20153912  33.13894869
4278.00 -77.26655776  33.18102839
4280.00 -77.33158938  33.22313826
4282.00 -77.39663398  33.26527830
4284.00 -77.46169153  33.30744850
4286.00 -77.52676201  33.34964887
4288.00 -77.59184542  33.39187940
4290.00 -77.65694172  33.43414010
4292.00 -77.72205091  33.47643096
4294.00 -77.78717296  33.51875199
4296.00 -77.85230787  33.56110319
4298.00 -77.91745560  33.60348456
4300.00 -77.98261615  33.64589609
4302.00 -78.04778950  33.68833779
4304.00 -78.11297562  33.73080965
4306.00 -78.17817451  33.77331169
4308.00 -78.24338614  33.81584389
4310.00 -78.30861050  33.85840626
4312.00 -78.37384756  33.90099880
4314.00 -78.43909733  33.94362151
4316.00 -78.50435976  33.98627438
4318.00 -78.56963485  34.02895743
4320.00 -78.63492259  34.07167064
4322.00 -78.70022295  34.11441402
4324.00 -78.76553591  34.15718757
4326.00 -78.83086146  34.19999129
4328.00 -78.89619958  34.24282518
4330.00 -78.96155026  34.28568924
4332.00 -79.02691347  34.32858347
4334.00 -79.09228921  34.37150786
4336.00 -79.15767744  34.41446243
4338.00 -79.22307816  34.45744716
4340.00 -79.28849134  34.50046206
4342.00 -79.35391698  34.54350714
4344.00 -79.41935505  34.58658238
4346.00 -79.48480553  34.62968779
4348.00 -79.55026842  34.67282336
4350.00 -79.61574368  34.71598911
4352.00 -79.68123131  34.75918503
4354.00 -79.74673128  34.80241111
4356.00 -79.81224358  34.84566737
4358.00 -79.87776820  34.88895379
4360.00 -79.94330511  34.93227038
4362.00 -80.00885430  34.97561714
4364.00 -80.07441574  35.01899406
4366.00 -80.13998943  35.06240116
4368.00 -80.20557535  35.10583842
4370.00 -80.27117347  35.14930585
4372.00 -80.33678379  35.19280345
4374.00 -80.40240628  35.23633121
4376.00 -80.46804092  35.27988914
4378.00 -80.53368771  35.32347724
4380.00 -80.59934662  35.36709550
4382.00 -80.66501763  35.41074393
4384.00 -80.73070073  35.45442253
4386.00 -80.79639591  35.49813129
4388.00 -80.86210313  35.54187022
4390.00 -80.92782240  35.58563931
4392.00 -80.99355368  35.62943857
4394.00 -81.05929697  35.67326799
4396.00 -81.12505224  35.71712757
4398.00 -81.19081947  35.76101732
4400.00 -81.25659866  35.80493724
4402.00 -81.32238979  35.84888731
4404.00 -81.38819282  35.89286755
4406.00 -81.45400776  35.93687795
4408.00 -81.51983458  35.98091851
4410.00 -81.58567327  36.02498924
4412.00 -81.65152380  36.06909012
4414.00 -81.71738617  36.11322117
4416.00 -81.78326035  36.15738238
4418.00 -81.84914632  36.20157374
4420.00 -81.91504407  36.24579527
4422.00 -81.98095359  36.29004695
4424.00 -82.04687485  36.33432880
4426.00 -82.11280785  36.37864080
4428.00 -82.17875255  36.42298296
4430.00 -82.24470894  36.46735527
4432.00 -82.31067702  36.51175774
4434.00 -82.37665675  36.55619037
4436.00 -82.44264813  36.60065315
4438.00 -82.50865113  36.64514609
4440.00 -82.57466574  36.68966918
4442.00 -82.64069194  36.73422243
4444.00 -82.70672972  36.77880583
4446.00 -82.77277906  36.82341938
4448.00 -82.83883993  36.86806308
4450.00 -82.90491233  36.91273693
4452.00 -82.97099624  36.95744094
4454.00 -83.03709163  37.00217509
4456.00 -83.10319850  37.04693939
4458.00 -83.16931683  37.09173385
4460.00 -83.23544659  37.13655845
4462.00 -83.30158777  37.18141319
4464.00 -83.36774036  37.22629809
4466.00 -83.43390434  37.27121313
4468.00 -83.50007969  37.31615831
4470.00 -83.56626639  37.36113364
4472.00 -83.63246443  37.40613911
4474.00 -83.69867379  37.45117473
4476.00 -83.76489445  37.49624049
4478.00 -83.83112639  37.54133638
4480.00 -83.89736961  37.58646242
4482.00 -83.96362408  37.63161860
4484.00 -84.02988978  37.67680492
4486.00 -84.09616670  37.72202138
4488.00 -84.16245483  37.76726797
4490.00 -84.22875413  37.81254470
4492.00 -84.29506461  37.85785157
4494.00 -84.36138623  37.90318857
4496.00 -84.42771899  37.94855570
4498.00 -84.49406286  37.99395297
4500.00 -84.56041784  38.03938037
4502.00 -84.62678390  38.08483790
4504.00 -84.69316102  38.13032556
4506.00 -84.75954919  38.17584335
4508.00 -84.82594840  38.22139127
4510.00 -84.89235862  38.26696931
4512.00 -84.95877984  38.31257749
4514.00 -85.02521204  38.35821579
4516.00 -85.09165520  38.40388421
4518.00 -85.15810932  38.44958276
4520.00 -85.22457436  38.49531142
4522.00 -85.29105032  38.54107022
4524.00 -85.35753718  38.58685913
4526.00 -85.42403491  38.63267816
4528.00 -85.49054351  38.67852731
4530.00 -85.55706296  38.72440658
4532.00 -85.62359324  38.77031596
4534.00 -85.69013433  38.81625546
4536.00 -85.75668622  38.86222507
4538.00 -85.82324889  38.90822480
4540.00 -85.88982232  38.95425464
4542.00 -85.95640649  39.00031458
4544.00 -86.02300140  39.04640464
4546.00 -86.08960702  39.09252481
4548.00 -86.15622334  39.13867509
4550.00 -86.22285033  39.18485547
4552.00 -86.28948799  39.23106596
4554.00 -86.35613629  39.27730655
4556.00 -86.42279522  39.32357724
4558.00 -86.48946476  39.36987804
4560.00 -86.55614490  39.41620893
4562.00 -86.62283562  39.46256993
4564.00 -86.68953690  39.50896102
4566.00 -86.75624873  39.55538221
4568.00 -86.82297108  39.60183350
4570.00 -86.88970394  39.64831488
4572.00 -86.95644731  39.69482635
4574.00 -87.02320114  39.74136792
4576.00 -87.08996545  39.78793957
4578.00 -87.15674019  39.83454132
4580.00 -87.22352537  39.88117315
4582.00 -87.29032095  39.92783507
4584.00 -87.35712693  39.97452707
4586.00 -87.42394329  40.02124916
4588.00 -87.49077001  40.06800133
4590.00 -87.55760708  40.11478358
4592.00 -87.62445448  40.16159592
4594.00 -87.69131218  40.20843833
4596.00 -87.75818018  40.25531081
4598.00 -87.82505847  40.30221337
4600.00 -87.89194701  40.34914601
4602.00 -87.95884580  40.39610872
4604.00 -88.02575481  40.44310150
4606.00 -88.09267404  40.49012435
4608.00 -88.15960347  40.53717727
4610.00 -88.22654307  40.58426026
4612.00 -88.29349283  40.63137331
4614.00 -88.36045275  40.67851642
4616.00 -88.42742279  40.72568960
4618.00 -88.49440294  40.77289284
4620.00 -88.56139319  40.82012614
4622.00 -88.62839352  40.86738949
4624.00 -88.69540391  40.91468291
4626.00 -88.76242435  40.96200637
4628.00 -88.82945481  41.00935989
4630.00 -88.89649529  41.05674347
4632.00 -88.96354577  41.10415709
4634.00 -89.03060623  41.15160076
4636.00 -89.09767665  41.19907448
4638.00 -89.16475702  41.24657824
4640.00 -89.23184732  41.29411205
4642.00 -89.29894753  41.34167590
4644.00 -89.36605764  41.38926979
4646.00 -89.43317764  41.43689372
4648.00 -89.50030749  41.48454768
4650.00 -89.56744720  41.53223168
4652.00 -89.63459674  41.57994572
4654.00 -89.70175609  41.62768979
4656.00 -89.76892524  41.67546388
4658.00 -89.83610417  41.72326801
4660.00 -89.90329287  41.77110216
4662.00 -89.97049132  41.81896634
4664.00 -90.03769950  41.86686055
4666.00 -90.10491740  41.91478477
4668.00 -90.17214500  41.96273902
4670.00 -90.23938228  42.01072328
4672.00 -90.30662923  42.05873756
4674.00 -90.37388583  42.10678185
4676.00 -90.44115207  42.15485616
4678.00 -90.50842792  42.20296048
4680.00 -90.57571337  42.25109480
4682.00 -90.64300841  42.29925914
4684.00 -90.71031302  42.34745348
4686.00 -90.77762718  42.39567782
4688.00 -90.84495088  42.44393217
4690.00 -90.91228410  42.49221652
4692.00 -90.97962682  42.54053086
4694.00 -91.04697903  42.58887520
4696.00 -91.11434071  42.63724954
4698.00 -91.18171184  42.68565386
4700.00 -91.24909241  42.73408818
4702.00 -91.31648240  42.78255249
4704.00 -91.38388180  42.83104678
4706.00 -91.45129059  42.87957106
4708.00 -91.51870875  42.92812532
4710.00 -91.58613627  42.97670956
4712.00 -91.65357312  43.02532378
4714.00 -91.72101931  43.07396798
4716.00 -91.78847479  43.12264216
4718.00 -91.85593957  43.17134630
4720.00 -91.92341363  43.22008042
4722.00 -91.99089694  43.26884450
4724.00 -92.05838950  43.31763856
4726.00 -92.12589128  43.36646257
4728.00 -92.19340227  43.41531655
4730.00 -92.26092246  43.46420049
4732.00 -92.32845182  43.51311439
4734.00 -92.39599035  43.56205825
4736.00 -92.46353802  43.61103206
4738.00 -92.53109481  43.66003582
4740.00 -92.59866073  43.70906953
4742.00 -92.66623573  43.75813319
4744.00 -92.73381982  43.80722680
4746.00 -92.80141297  43.85635035
4748.00 -92.86901517  43.90550384
4750.00 -92.93662640  43.95468727
4752.00 -93.00424665  44.00390064
4754.00 -93.07187590  44.05314395
4756.00 -93.13951412  44.10241718
4758.00 -93.20716132  44.15172035
4760.00 -93.27481747  44.20105345
4762.00 -93.34248255  44.25041647
4764.00 -93.41015655  44.29980942
4766.00 -93.47783945  44.34923229
4768.00 -93.54553124  44.39868508
4770.00 -93.61323190  44.44816778
4772.00 -93.68094141  44.49768040
4774.00 -93.74865976  44.54722294
4776.00 -93.81638693  44.59679538
4778.00 -93.88412291  44.64639773
4780.00 -93.95186767  44.69602999
4782.00 -94.01962121  44.74569215
4784.00 -94.08738351  44.79538422
4786.00 -94.15515455  44.84510618
4788.00 -94.22293431  44.89485804
4790.00 -94.29072279  44.94463979
4792.00 -94.35851995  44.99445144
4794.00 -94.42632580  45.04429297
4796.00 -94.49414030  45.09416440
4798.00 -94.56196345  45.14406570
4800.00 -94.62979523  45.19399689
4802.00 -94.69763562  45.24395796
4804.00 -94.76548461  45.29394891
4806.00 -94.83334218  45.34396973
4808.00 -94.90120831  45.39402042
4810.00 -94.96908299  45.44410099
4812.00 -95.03696621  45.49421142
4814.00 -95.10485794  45.54435172
4816.00 -95.17275817  45.59452188
4818.00 -95.24066689  45.64472190
4820.00 -95.30858408  45.69495178
4822.00 -95.37650972  45.74521152
4824.00 -95.44444379  45.79550111
4826.00 -95.51238629  45.84582054
4828.00 -95.58033719  45.89616983
4830.00 -95.64829648  45.94654896
4832.00 -95.71626415  45.99695794
4834.00 -95.78424017  46.04739675
4836.00 -95.85222454  46.09786540
4838.00 -95.92021722  46.14836389
4840.00 -95.98821822  46.19889221
4842.00 -96.05622751  46.24945036
4844.00 -96.12424508  46.30003833
4846.00 -96.19227092  46.35065614
4848.00 -96.26030499  46.40130376
4850.00 -96.32834730  46.45198120
4852.00 -96.39639782  46.50268846
4854.00 -96.46445654  46.55342553
4856.00 -96.53252345  46.60419242
4858.00 -96.60059851  46.65498911
4860.00 -96.66868173  46.70581561
4862.00 -96.73677309  46.75667192
4864.00 -96.80487256  46.80755802
4866.00 -96.87298014  46.85847392
4868.00 -96.94109581  46.90941962
4870.00 -97.00921954  46.96039511
4872.00 -97.07735133  47.01140039
4874.00 -97.14549117  47.06243546
4876.00 -97.21363902  47.11350031
4878.00 -97.28179489  47.16459494
4880.00 -97.34995874  47.21571935
4882.00 -97.41813058  47.26687354
4884.00 -97.48631037  47.31805750
4886.00 -97.55449811  47.36927123
4888.00 -97.62269378  47.42051473
4890.00 -97.69089737  47.47178800
4892.00 -97.75910885  47.52309102
4894.00 -97.82732821  47.57442381
4896.00 -97.89555544  47.62578635
4898.00 -97.96379053  47.67717864
4900.00 -98.03203344  47.72860069
4902.00 -98.10028418  47.78005248
4904.00 -98.16854272  47.83153402
4906.00 -98.23680905  47.88304530
4908.00 -98.30508315  47.93458632
4910.00 -98.37336500  47.98615708
4912.00 -98.44165460  48.03775757
4914.00 -98.50995192  48.08938779
4916.00 -98.57825696  48.14104773
4918.00 -98.64656968  48.19273741
4920.00 -98.71489009  48.24445680
4922.00 -98.78321816  48.29620591
4924.00 -98.85155387  48.34798474
4926.00 -98.91989722  48.39979328
4928.00 -98.98824818  48.45163153
4930.00 -99.05660674  48.50349948
4932.00 -99.12497289  48.55539714
4934.00 -99.19334660  48.60732450
4936.00 -99.26172787  48.65928156
4938.00 -99.33011668  48.71126831
4940.00 -99.39851300  48.76328476
4942.00 -99.46691684  48.81533089
4944.00 -99.53532816  48.86740671
4946.00 -99.60374696  48.91951221
4948.00 -99.67217322  48.97164739
4950.00 -99.74060693  49.02381225
4952.00 -99.80904806  49.07600678
4954.00 -99.87749661  49.12823098
4956.00 -99.94595255  49.18048484
4958.00 -100.01441588  49.23276837
4960.00 -100.08288657  49.28508156
4962.00 -100.15136462  49.33742441
4964.00 -100.21985000  49.38979692
4966.00 -100.28834270  49.44219907
4968.00 -100.35684270  49.49463087
4970.00 -100.42534999  49.54709232
4972.00 -100.49386456  49.59958341
4974.00 -100.56238638  49.65210414
4976.00 -100.63091545  49.70465450
4978.00 -100.69945174  49.75723449
4980.00 -100.76799525  49.80984412
4982.00 -100.83654595  49.86248337
4984.00 -100.90510383  49.91515224
4986.00 -100.97366888  49.96785073
4988.00 -101.04224108  50.02057884
4990.00 -101.11082041  50.07333656
4992.00 -101.17940686  50.12612389
4994.00 -101.24800042  50.17894083
4996.00 -101.31660106  50.23178737
4998.00 -101.38520878  50.28466350
5000.00 -101.45382355  50.33756924
